timestamps,TP9,AF7,AF8,TP10,Right AUX
1740447713.9416203,0.1171109123637427,-0.3804113451688474,0.06316000355029434,0.12601159952558105,nan
1740447713.9455261,0.0991662139528321,-0.35508900865451754,0.03423930425058821,0.1134451417491488,nan
1740447713.949432,0.0789325492922524,-0.3272913239148874,0.006104353310333003,0.0991402783604541,nan
1740447713.9533377,0.056672875011411945,-0.2972019429827772,-0.020999946949674945,0.0832961574796615,nan
1740447713.9572434,0.03267179380738548,-0.26501917813009157,-0.046836086348955086,0.06612783578685821,nan
1740447713.9611492,0.007232439036370647,-0.2309544305413349,-0.07117614640747734,0.04786387377421488,nan
1740447713.9650552,-0.019326823035807413,-0.19523052053932324,-0.09380392159449624,0.028743801774923437,nan
1740447713.968961,-0.0466758391638001,-0.1580799344216167,-0.1145169412834032,0.009015483720470657,nan
1740447713.9728668,-0.07447622765398443,-0.11974300360467185,-0.13312837234226232,-0.011067593476057016,nan
1740447713.9767725,-0.10238501285838313,-0.08046603226170751,-0.1494687834052343,-0.031249076356227642,nan
1740447713.9806783,-0.13005829830368917,-0.04049938997663867,-0.16338775317784054,-0.05127251825599838,nan
1740447713.984584,-0.1571549408148648,-9.558611835257712e-05,-0.17475530661609204,-0.07088414056910261,nan
1740447713.9884923,-0.18334018805843347,0.04049265733326186,-0.18346316447128075,-0.08983555318805223,nan
1740447713.992398,-0.2082892423734781,0.08101431790450082,-0.18942579349214966,-0.10788640590476355,nan
1740447713.9963038,-0.23169071457342483,0.12122195336062505,-0.19258124650657255,-0.12480694336886922,nan
1740447714.0002096,-0.25324993258023915,0.16087353515096528,-0.19289178364634438,-0.14038043729663607,nan
1740447714.0041156,-0.27269207128221296,0.19973421922906798,-0.19034426811100005,-0.15440547098505913,nan
1740447714.0080214,-0.2897650718713684,0.2375780396115888,-0.1849503320684218,-0.16669805279956265,nan
1740447714.0119271,-0.3042423210974307,0.27418951086778176,-0.17674631053938686,-0.17709353715258974,nan
1740447714.015833,-0.3159250633500805,0.30936512667776916,-0.16579294338756884,-0.18544833355460502,nan
1740447714.0197387,-0.3246445212247015,0.3429147426523537,-0.15217484781328858,-0.1916413865772267,nan
1740447714.0236444,-0.3302637032112199,0.3746628327590011,-0.13599976600544586,-0.19557541199652664,nan
1740447714.0275502,-0.33267888034082754,0.4044496099361114,-0.11739759481919013,-0.19717787695786917,nan
1740447714.031456,-0.3318207169991623,0.4321320027884207,-0.09651920649467215,-0.19640171469542111,nan
1740447714.035364,-0.32765504463294004,0.45758448162732135,-0.0735350714931682,-0.19322576712162792,nan
1740447714.0392697,-0.32018327070478825,0.48069972853777354,-0.04863369648028467,-0.1876549514460776,nan
1740447714.0431755,-0.30944241895177604,0.5013891476045129,-0.02201989231226579,-0.17972014985993787,nan
1740447714.0470812,-0.29550480073969315,0.5195832129006709,0.006087111437880762,-0.16947782420200336,nan
1740447714.050987,-0.2784773210403142,0.5352316533177752,0.03545568735927537,-0.1570093603759858,nan
1740447714.0548928,-0.2585004262551665,0.5483034747836867,0.06584394709131766,-0.14242015008673803,nan
1740447714.0587986,-0.23574670472998704,0.5587868218606871,0.09700197367586216,-0.12583842017721034,nan
1740447714.0627043,-0.21041915431285613,0.5666886821265914,0.1286741278815487,-0.10741382245034312,nan
1740447714.06661,-0.1827491346710855,0.5720344381046512,0.16060140627417518,-0.08731579932453917,nan
1740447714.0705159,-0.15299402526371544,0.5748672728109719,0.19252382829260317,-0.06573174297263372,nan
1740447714.0744216,-0.12143461283646403,0.5752474362199406,0.22418282930035283,-0.04286496770929435,nan
1740447714.0783274,-0.08837223503446158,0.5732513810979317,0.2553236365218357,-0.01893251729906504,nan
1740447714.082235,-0.05412570918814498,0.5689707777138067,0.2856976049397495,0.00583716946239043,nan
1740447714.0861409,-0.019028077494838692,0.5625114178926429,0.3150644906249243,0.031206710104646665,nan
1740447714.0900466,0.01657679832874232,0.5539920197290008,0.3431946395881188,0.05693232080890031,nan
1740447714.0939524,0.052337758327734386,0.543542945011436,0.3698710710786475,0.08276642282818582,nan
1740447714.0978582,0.0878999457564932,0.5313048420253663,0.39489143529915455,0.10846028549551498,nan
1740447714.101764,0.12290845211140723,0.5174272268926686,0.4180698267488889,0.13376667796923264,nan
1740447714.1056697,0.15701196872266288,0.5020670169705677,0.4392384358371106,0.15844250180819747,nan
1740447714.1095757,0.18986640780421973,0.4853870300677084,0.4582490230095583,0.18225137670116925,nan
1740447714.1134815,0.22113845615919744,0.46755446334132084,0.47497420138826063,0.2049661521922056,nan
1740447714.1173873,0.25050902540488396,0.44873936571684736,0.4893085158208289,0.22637131904153254,nan
1740447714.121293,0.27767656361097914,0.4291131175222029,0.5011693082508334,0.24626529493063143,nan
1740447714.1251988,0.30236019462607666,0.4088469307562366,0.5104973614357534,0.2644625605501856,nan
1740447714.1291058,0.32430265308697254,0.3881103830189979,0.5172573152322574,0.28079562368604427,nan
1740447714.1330116,0.343272985145923,0.3670699976256841,0.5214378519181864,0.2951167907252865,nan
1740447714.1369174,0.35906898729215436,0.3458878818127612,0.5230516493041716,0.30729972702304853,nan
1740447714.1408231,0.3715193582623428,0.3247204342310861,0.5221351026824732,0.3172407897802493,nan
1740447714.144729,0.3804855419042746,0.30371713211510026,0.5187478189433086,0.32486011945988535,nan
1740447714.1486347,0.3858632419500815,0.2830194076279929,0.5129718884370492,0.3301024782908758,nan
1740447714.1525404,0.38758359293917755,0.2627596219199854,0.5049109423513978,0.33293782704734914,nan
1740447714.1564465,0.385613974973968,0.24306014441037233,0.494689005484393,0.3333616340210166,nan
1740447714.1603522,0.37995846355900537,0.22403254372448406,0.48244915630545543,0.3313949128965407,nan
1740447714.164258,0.3706579094311203,0.20577689559514717,0.4683520080876658,0.3270839890661553,nan
1740447714.1681638,0.35778964699783117,0.18838121188555573,0.45257402664618507,0.3204999967511888,nan
1740447714.1720695,0.34146683372690245,0.17192099371826017,0.4353057018124436,0.31173811210544,nan
1740447714.175976,0.32183742653444947,0.15645891051429756,0.41674959119576893,0.30091653022999826,nan
1740447714.1798818,0.2990828048653701,0.14204460556864326,0.3971182560190062,0.28817519670257113,nan
1740447714.1837876,0.273416053711964,0.12871462762420963,0.3766321098502672,0.2736743067894835,nan
1740447714.1876934,0.24507992323894048,0.11649248676708664,0.35551720187871966,0.2575925879387863,nan
1740447714.1915991,0.21434448494153865,0.10538883186110932,0.33400295699020993,0.24012538342342588,nan
1740447714.195505,0.18150450732566295,0.09540174567976965,0.3123198952823094,0.22148255709088766,nan
1740447714.1994107,0.14687657693437178,0.08651715288722457,0.29069735381445555,0.20188624105859213,nan
1740447714.2033165,0.11079599312522898,0.0787093350763221,0.2693612333155461,0.18156844985320564,nan
1740447714.2072222,0.07361346730240717,0.07194154619769784,0.24853179226964559,0.16076858590984627,nan
1740447714.211128,0.035691659302810055,0.06616672091743665,0.2284215102732983,0.13973086250909436,nan
1740447714.215034,-0.002598414693006347,0.06132826772728863,0.2092330418108602,0.11870167112383959,nan
1740447714.2189398,-0.04088106702353683,0.05736093800648845,0.19115728063475823,0.09792692076474895,nan
1740447714.2228491,-0.07877967950443901,0.0541917617019367,0.17437155377544106,0.07764937724609709,nan
1740447714.226755,-0.11592046319122237,0.051741039857193236,0.15903796285285016,0.05810603033912916,nan
1740447714.2306607,-0.15193619941349412,0.04992338388279159,0.14530188883110381,0.039525516537208205,nan
1740447714.2345665,-0.1864699246785838,0.04864879122198114,0.13329067466643071,0.022125624628020073,nan
1740447714.2384722,-0.2191785225452348,0.04782374692756925,0.12311249846224977,0.006110910458055661,nan
1740447714.2423782,-0.24973618643826345,0.04735234062638407,0.1148554477833068,-0.008329553808598017,nan
1740447714.246284,-0.27783771860420864,0.04713738840636023,0.10858680371291135,-0.021024271980624877,nan
1740447714.2501898,-0.30320163198426875,0.04708154931489636,0.10435254108445301,-0.03182123531704917,nan
1740447714.2540956,-0.3255730236887745,0.04708842640250035,0.1021770491024122,-0.04058963265756221,nan
1740447714.2580013,-0.3447261909784773,0.04706364257858777,0.10206307431155107,-0.04722134071347028,nan
1740447714.261907,-0.3604669631704605,0.04691588196168371,0.10399188559861772,-0.05163217826356739,nan
1740447714.2658129,-0.3726347256655587,0.046557887898369614,0.10792365864214182,-0.05376291040729947,nan
1740447714.269722,-0.3811041153129201,0.04590740938795389,0.11379807498537443,-0.053579991583069995,nan
1740447714.2736278,-0.38578636955572293,0.044888088275890796,0.12153512871842549,-0.05107603873642655,nan
1740447714.2775335,-0.3866303152086176,0.04343028026129622,0.13103613163992608,-0.046270028794266775,nan
1740447714.2814393,-0.3836229862684598,0.0414718034945315,0.14218490574814016,-0.03920721743885196,nan
1740447714.2853453,-0.37678986382045265,0.03895860931177006,0.1548491500065866,-0.029958779050576558,nan
1740447714.289251,-0.36619473483583914,0.03584537045643108,0.1688819665595663,-0.018621170571875543,nan
1740447714.2931569,-0.35193917042784617,0.03209598296388003,0.18412352995655673,-0.005315224906957686,nan
1740447714.2970626,-0.3341616279025943,0.027683978727418526,0.2004028814977062,0.009815017715965645,nan
1740447714.3009684,-0.3130361846737347,0.022592846611897633,0.21753982955060408,0.026603729260368126,nan
1740447714.3048742,-0.2887709157669324,0.016816260828019697,0.23534693562391173,0.044864950489567915,nan
1740447714.30878,-0.2616059301865784,0.010358216117397706,0.253631565127478,0.06439446839011369,nan
1740447714.3126857,-0.23181108481738863,0.0032330701180665815,0.27219798110989585,0.08497189580101748,nan
1740447714.3165944,-0.19968339775387237,-0.004534505925129783,0.29084945884993185,0.1063629324911354,nan
1740447714.3205001,-0.16554418595926376,-0.012909666177916865,0.3093903989920365,0.128321784984717,nan
1740447714.324406,-0.129735954922351,-0.021847616309706403,0.3276284169605751,0.1505937207192085,nan
1740447714.3283117,-0.09261907047823105,-0.0312939233299358,0.34537638666185644,0.17291773064772456,nan
1740447714.3322177,-0.05456824516240531,-0.041184905204086734,0.3624544169852203,0.19502927318684957,nan
1740447714.3361235,-0.015968873354787135,-0.05144809570891045,0.37869174033908654,0.2166630714714718,nan
1740447714.3400292,0.022786748977859882,-0.0620027794675117,0.3939284933979975,0.23755593522252277,nan
1740447714.343935,0.06130328293144483,-0.07276059164736536,0.40801737138265604,0.25744957816812625,nan
1740447714.3478408,0.09918624585840934,-0.08362617641056944,0.42082513853535447,0.2760934018883012,nan
1740447714.3517466,0.1360459127920603,-0.09449789787743763,0.43223397897434146,0.29324721717951163,nan
1740447714.3556523,0.1715011816980094,-0.10526859710295325,0.4421426737972351,0.30868387455654334,nan
1740447714.359558,0.20518336443793217,-0.11582638837090906,0.4504675921383121,0.32219177632101426,nan
1740447714.3634663,0.2367398659950773,-0.12605548798237137,0.45714348584882225,0.33357724372084474,nan
1740447714.367372,0.26583771554475183,-0.13583706865226844,0.46212407954318113,0.34266671409304816,nan
1740447714.371278,0.29216691434654213,-0.14505013262863298,0.46538244991591204,0.3493087445101466,nan
1740447714.3751838,0.3154435671751234,-0.1535723967109791,0.46691119046229607,0.3533758003227551,nan
1740447714.3790896,0.335412766076301,-0.16128118246435805,0.466722360006986,0.3547658090891782,nan
1740447714.3829954,0.35185119761458367,-0.16805430510039818,0.46484721573600657,0.3534034626867511,nan
1740447714.3869011,0.3645694474449236,-0.17377095472199683,0.46133573371489117,0.349241252886507,nan
1740447714.390807,0.37341397896852474,-0.1783125638999199,0.4562559221356735,0.3422602283180238,nan
1740447714.3947127,0.3782687659921955,-0.1815636558625277,0.44969293474448474,0.33247046352878623,nan
1740447714.3986185,0.3790565626719946,-0.18341266792919084,0.4417479940368338,0.3199112337246167,nan
1740447714.4025242,0.37573979755188724,-0.18375274519823548,0.4325371358467791,0.3046508917357617,nan
1740447714.40643,0.36832108217252074,-0.18248249990620008,0.4221897888780736,0.2867864467577646,nan
1740447714.410338,0.35684332848800515,-0.17950673230101202,0.4108472045095178,0.26644284743696595,nan
1740447714.4142437,0.3413894731530403,-0.17473710931203948,0.3986607538345514,0.24377197487716232,nan
1740447714.4181495,0.3220818105913352,-0.16809279774922983,0.38579011034920396,0.21895135410623479,nan
1740447714.4220552,0.29908094059119983,-0.15950104921630548,0.37240133796726704,0.19218259542950097,nan
1740447714.425961,0.2725843399579045,-0.14889773437410359,0.35866490510343396,0.16368957988086255,nan
1740447714.4298668,0.2428245714475947,-0.1362278246346177,0.34475364641242845,0.13371640563521134,nan
1740447714.4337726,0.21006714677790223,-0.12144581979945,0.33084069439535774,0.10252511473880022,nan
1740447714.4376783,0.17460806392072437,-0.10451612057393,0.3170974034765696,0.07039322182301427,nan
1740447714.441584,0.13677104209930382,-0.08541334528616988,0.3036912893101473,0.03761106856708032,nan
1740447714.44549,0.09690448090292325,-0.06412259051532682,0.29078400599258003,0.004479029545207198,nan
1740447714.4493957,0.055378172668738866,-0.04063963568236287,0.2785293835368864,-0.028695403286289164,nan
1740447714.4533014,0.012579799734225638,-0.014971091977058834,0.26707154740615524,-0.06160062885326262,nan
1740447714.4572089,-0.031088749688815698,0.012865503714902674,0.2565431411158006,-0.09392400829915723,nan
1740447714.4611146,-0.07521521144823268,0.042841648962913086,0.24706367190117237,-0.12535496893296996,nan
1740447714.4650204,-0.1193808841496996,0.07491788887329044,0.23873799822001085,-0.15558810985487306,nan
1740447714.4689262,-0.1631646384629008,0.10904388076274005,0.23165497642944782,-0.1843262781562669,nan
1740447714.472832,-0.20614695813945788,0.14515850892503104,0.22588628235869032,-0.2112835847335207,nan
1740447714.4767377,-0.24791397348614566,0.1831900478656698,0.2214854217072136,-0.23618832920752622,nan
1740447714.4806437,-0.288061448060656,0.22305637228364855,0.21848694125186335,-0.25878580420127,nan
1740447714.4845495,-0.32619867976492667,0.2646652120130138,0.21690585076425795,-0.2788409502882598,nan
1740447714.4884553,-0.36195227829926613,0.30791445009804524,0.21673726334313398,-0.29614083427650895,nan
1740447714.492361,-0.39496978210189715,0.35269246216168415,0.21795625957695686,-0.3104969251233805,nan
1740447714.4962668,-0.4249230794220102,0.39887849523464425,0.22051797859349254,-0.32174714367072066,nan
1740447714.5001726,-0.45151160004560176,0.4463430842393117,0.22435793664906217,-0.3297576645295089,nan
1740447714.5040796,-0.47446524639404875,0.4949485043645459,0.22939257148560263,-0.3344244508082129,nan
1740447714.5079854,-0.49354703522455323,0.5445492576214354,0.2355200082632623,-0.33567450494656875,nan
1740447714.5118911,-0.5085554239548365,0.5949925919319875,0.24262104048519031,-0.33346682166165653,nan
1740447714.515797,-0.5193262986847363,0.6461190511690555,0.2505603169942897,-0.32779303190936865,nan
1740447714.5197027,-0.5257346042651222,0.697763054632598,0.2591877238632971,-0.31867772978336273,nan
1740447714.5236084,-0.5276956002376737,0.7497535045108685,0.2683399478436494,-0.30617847738569687,nan
1740447714.5275142,-0.52516573010404,0.8019144199318385,0.27784220600767234,-0.29038548587819824,nan
1740447714.53142,-0.5181430951438925,0.8540655962563856,0.2875101243347798,-0.2714209741295135,nan
1740447714.5353258,-0.5066675278520114,0.9060232882975541,0.29715174627550944,-0.2494382095784363,nan
1740447714.5392315,-0.49082026396685546,0.9576009161662978,0.30656965079638904,-0.22462023910716036,nan
1740447714.5431376,-0.4707232159790565,1.0086097924412176,0.3155631580805291,-0.19717832082739076,nan
1740447714.5470433,-0.44653785489949005,1.058859869335397,0.3239305999485517,-0.1673500706962408,nan
1740447714.5509534,-0.4184637108948592,1.1081605044860159,0.3314716311847588,-0.13539734076755144,nan
1740447714.5548592,-0.38673650712644003,1.1563212439203712,0.33798955731493996,-0.10160384861836064,nan
1740447714.558765,-0.35162594471826697,1.2031526206546264,0.3432936539929637,-0.06627258004211156,nan
1740447714.5626707,-0.313433160199056,1.2484669672586197,0.34720145301916056,-0.029722989443745632,nan
1740447714.5665765,-0.27248787997403573,1.2920792405715884,0.3495409701373906,0.0077119755169395435,nan
1740447714.5704823,-0.22914529935685674,1.3338078565805356,0.3501528501402879,0.04568899663016893,nan
1740447714.574388,-0.18378271639836874,1.3734755332763788,0.3488924054513697,0.0838576252022747,nan
1740447714.5782938,-0.13679595316170481,1.4109101390849155,0.3456315252436004,0.1218636082026067,nan
1740447714.5821996,-0.08859559918758832,1.4459455442322646,0.3402604332896082,0.1593522682218602,nan
1740447714.5861053,-0.03960311364945347,1.4784224721508077,0.3326892741089454,0.19597190429844277,nan
1740447714.5900111,0.0097531759028561,1.5081893477649515,0.32284950857048167,0.23137718031867227,nan
1740447714.593917,0.059042139283370515,1.5351031392202013,0.31069510190856503,0.2652324676735277,nan
1740447714.5978267,0.10783393431912885,1.5590301893381733,0.2962034891031604,0.29721510916089866,nan
1740447714.6017325,0.15570408257298526,1.5798470327988796,0.2793763047379368,0.3270185717559949,nan
1740447714.6056383,0.2022374904355556,1.597441194774732,0.2602398667655862,0.3543554568289289,nan
1740447714.609544,0.24703237640202041,1.6117119664733282,0.2388454060539735,0.3789603376590238,nan
1740447714.6134498,0.28970406625478007,1.6225711527935087,0.2152690361363596,0.40059239566904636,nan
1740447714.6173556,0.32988861915468026,1.6299437870666964,0.18961146021875455,0.4190378286648039,nan
1740447714.6212614,0.36724624928938776,1.6337688076487735,0.16199741518132013,0.4341120064990338,nan
1740447714.6251674,0.401464509721851,1.63399969095183,0.132574855022049,0.4456613519634617,nan
1740447714.6290731,0.43226120740517526,1.6306050353656383,0.1015138789022186,0.45356492732645715,nan
1740447714.632979,0.4593870209603031,1.6235690904204716,0.0690054116370425,0.45773570975115785,nan
1740447714.6368847,0.4826277957239647,1.612892225491,0.03525964710411037,0.4581215418231433,nan
1740447714.6407905,0.5018064937381863,1.5985913323397658,0.0005042675895225207,0.4547057465588678,nan
1740447714.6446996,0.5167847797382668,1.5807001558524496,-0.03501754546924124,0.447507399525693,nan
1740447714.6486053,0.5274642277705073,1.5592695474292948,-0.07104929157935168,0.4365812540497327,nan
1740447714.6525111,0.5337871367991804,1.5343676356708313,-0.10732350221592939,0.4220173188862444,nan
1740447714.656417,0.5357369475075782,1.5060799092339554,-0.14356424089490472,0.4039400911455481,nan
1740447714.6603227,0.5333382564229043,1.4745092070382029,-0.17948972865408153,0.3825074506718957,nan
1740447714.6642284,0.526656427460597,1.439775611373048,-0.2148150697593275,0.3579092254295858,nan
1740447714.6681342,0.5157968049514384,1.4020162398954361,-0.24925505115051064,0.33036544072679885,nan
1740447714.67204,0.5009035361453807,1.3613849330123238,-0.2825269880939651,0.3001242682703127,nan
1740447714.6759458,0.4821580150406837,1.3180518337145146,-0.3143535877277624,0.2674596940619388,nan
1740447714.6798515,0.45977696312759986,1.272202857563405,-0.3444658016829681,0.232668926989864,nan
1740447714.6837573,0.43401016622546124,1.2240390512288157,-0.3726056387459335,0.19606957260631563,nan
1740447714.687663,0.40513788999504957,1.173775838729928,-0.3985289085982395,0.15799659899031246,nan
1740447714.691572,0.3734679998908342,1.1216421553381783,-0.4220078680339525,0.11879912374617707,nan
1740447714.6954777,0.33933281424824796,1.0678794699553718,-0.4428337417075194,0.07883705306250578,nan
1740447714.6993835,0.3030857218505967,1.0127406976763,-0.4608190904059284,0.038477605333122354,nan
1740447714.7032893,0.26509759766184415,0.9564890051758307,-0.47580000105884795,-0.0019082468956875323,nan
1740447714.707195,0.22575305242188135,0.8993965125184976,-0.48763807419097494,-0.04194938195241,nan
1740447714.7111008,0.18544655345977598,0.8417428959657609,-0.4962221862691127,-0.08127814574595049,nan
1740447714.7150066,0.14457845537104344,0.7838138973437528,-0.5014700063877632,-0.11953394460238374,nan
1740447714.7189124,0.10355098011383619,0.7258997465233549,-0.503329248953656,-0.15636677878363653,nan
1740447714.7228181,0.06276418659682542,0.6682935045451464,-0.5017786464517205,-0.1914406816868084,nan
1740447714.726724,0.022611969952612578,0.61128933588444,-0.4968286289803991,-0.22443703051759667,nan
1740447714.7306297,-0.0165218695869236,0.555180719286012,-0.4885217000089615,-0.25505769536642997,nan
1740447714.7345355,-0.0542674489706764,0.5002586074941222,-0.4769325007075549,-0.28302799508166765,nan
1740447714.7384439,-0.09027247758504775,0.44680954705066084,-0.4621675582047603,-0.308099430117496,nan
1740447714.7423496,-0.12420574875295487,0.39511377012270754,-0.44436471620894924,-0.33005216461874576,nan
1740447714.7462554,-0.15576041255151446,0.34544327104036876,-0.4236922495586964,-0.34869723237141825,nan
1740447714.7501612,-0.18465699718484244,0.29805988086685703,-0.40034766741390254,-0.36387844387413537,nan
1740447714.754067,-0.21064614863686287,0.2532133538761874,-0.3745562129320192,-0.3754739746472697,nan
1740447714.7579727,-0.2335110611216664,0.21113948027077137,-0.3465690703620505,-0.3833976179659519,nan
1740447714.7618785,-0.25306957391875806,0.172058239823549,-0.31666129350193095,-0.3875996884511014,nan
1740447714.7657843,-0.2691759134974574,0.13617201136979665,-0.28512947237233177,-0.3880675663479999,nan
1740447714.76969,-0.2817220633663246,0.10366385319570746,-0.2522891577321614,-0.38482587583176836,nan
1740447714.7735958,-0.29063874779516286,0.07469586936875587,-0.21847206566971225,-0.3779362942694223,nan
1740447714.7775016,-0.29589601941243765,0.04940767692409776,-0.1840230869214383,-0.3674969930040302,nan
1740447714.7814074,-0.2975034446417911,0.027914988558222376,-0.14929712777212842,-0.3536417138722037,nan
1740447714.7853153,-0.29550988496872205,0.010308325083396967,-0.11465581135231546,-0.33653848928585706,nan
1740447714.789221,-0.2900028760825827,-0.003348128636980662,-0.08046406984959603,-0.3163880172672962,nan
1740447714.7931268,-0.2811076109795363,-0.013017511221278368,-0.04708665957100925,-0.2934217062877276,nan
1740447714.7970326,-0.268985537099079,-0.018691103523528676,-0.0148846319172702,-0.2678994080889203,nan
1740447714.8009384,-0.2538325814602275,-0.0203889672964706,0.015788205857424225,-0.24010685983254845,nan
1740447714.8048444,-0.23587702152483034,-0.01816039351499655,0.04458880573493892,-0.21035285988981878,nan
1740447714.8087502,-0.21537702310691068,-0.01208415129683518,0.0711883353451096,-0.17896620432534296,nan
1740447714.812656,-0.1926178700324924,-0.0022685296587261912,0.09527554134536856,-0.14629241361571704,nan
1740447714.8165617,-0.16790891339986572,0.01114883424430239,0.11655998592152302,-0.1126902813494138,nan
1740447714.8204675,-0.14158027116387115,0.028001345240780663,0.13477512340531056,-0.07852827855734429,nan
1740447714.8243732,-0.11397931134036011,0.048094061873287006,0.14968118517573778,-0.04418084890262705,nan
1740447714.828279,-0.08546695437219425,0.0712045313113607,0.16106784250356745,-0.010024631196845294,nan
1740447714.8321865,-0.05641383209279396,0.09708384728226777,0.16875661880039994,0.0235653534056086,nan
1740447714.8360922,-0.027196342247674324,0.12545792906546938,0.17260302483119574,0.05621951166382916,nan
1740447714.839998,0.0018073613275598887,0.15602901777016687,0.17249839282435156,0.08757744793790138,nan
1740447714.8439038,0.030221402034966434,0.18847738426687294,0.16837138804640853,0.1172916555147907,nan
1740447714.8478096,0.057676196177840956,0.22246324128916836,0.16018917927631657,0.14503109238075035,nan
1740447714.8517156,0.0838124098696629,0.25762885037675115,0.1479582526914739,0.1704846052195466,nan
1740447714.8556213,0.10828481658936143,0.29360081251199527,0.13172485693699468,0.19336416674948093,nan
1740447714.859527,0.1307660156836121,0.3299925295260681,0.1115750705612785,0.21340789319699519,nan
1740447714.863433,0.1509499734171424,0.36640682163393573,0.08763448653368368,0.2303828107258665,nan
1740447714.8673387,0.1685553498610666,0.40243868481675543,0.0600675121811914,0.24408734198030183,nan
1740447714.8712444,0.18332857697160854,0.43767817022164407,0.029076286556558945,0.25435348653635365,nan
1740447714.8751502,0.1950466556276458,0.47171336630829913,-0.005100779054038592,0.26104867196455894,nan
1740447714.8790572,0.2035196421426488,0.5041334631548634,-0.042190828095729924,0.264077255360349,nan
1740447714.882963,0.20859279781829032,0.5345318771562432,-0.0818887401643714,0.2633816585679151,nan
1740447714.8868687,0.2101483784341499,0.5625094133204691,-0.12385965031931177,0.25894312387580776,nan
1740447714.8907745,0.20810704413815995,0.5876774415053231,-0.16774178630490047,0.2507820806647474,nan
1740447714.8946803,0.20242887398117002,0.6096610622497729,-0.21314960042722006,0.23895811730426395,nan
1740447714.898586,0.1931139732893204,0.6281022373529492,-0.259677169750504,0.2235695564880862,nan
1740447714.9024918,0.18020266615117037,0.6426628600462236,-0.3069018354137956,0.2047526361308319,nan
1740447714.9063978,0.163775269472478,0.6530277394986868,-0.35438804925194856,0.1826803018820722,nan
1740447714.9103036,0.143951449279107,0.658907474498524,-0.40169139356333367,0.15756062120974287,nan
1740447714.9142094,0.12088916418577939,0.6600411914663694,-0.4483627378245029,0.12963483282466634,nan
1740447714.9181151,0.0947832051531654,0.6561991224838728,-0.49395249443190975,0.09917504892370038,nan
1740447714.922021,0.06586334478630157,0.6471849997616269,-0.5380149341719103,0.06648163128386081,nan
1740447714.9259274,0.034392113441923805,0.6328382439237445,-0.5801125210991824,0.031880265607848325,nan
1740447714.9298332,0.0006622232708455176,0.613035924648274,-0.6198202258534757,-0.004281238331285027,nan
1740447714.933739,-0.035006335015189384,0.5876944735678572,-0.6567297761749333,-0.041636390304183354,nan
1740447714.9376447,-0.07226949443185622,0.5567711308962908,-0.6904538034955201,-0.07980367394413769,nan
1740447714.9415505,-0.11076258168214853,0.520265108994858,-0.720629844990783,-0.11839037641547082,nan
1740447714.9454563,-0.1501040205409629,0.47821845801635704,-0.7469241613714892,-0.1569965561085589,nan
1740447714.949362,-0.18989923188424596,0.43071662085207263,-0.7690353319737818,-0.19521910942702025,nan
1740447714.953268,-0.22974469140591472,0.37788866684298805,-0.7866975903611789,-0.23265589649443424,nan
1740447714.9571738,-0.2692321042689333,0.3199071960854115,-0.7996838656700523,-0.26890988475773747,nan
1740447714.9610796,-0.30795265453957477,0.2569879086453927,-0.8078084972967406,-0.30359326901281986,nan
1740447714.9649854,-0.3455012862717925,0.18938883557708094,-0.8109295932203453,-0.33633152633176744,nan
1740447714.9688911,-0.3814809725534393,0.1174092312974412,-0.8089510052584147,-0.366767364733506,nan
1740447714.9728005,-0.41550692870551886,0.0413881295826485,-0.801823897838089,-0.39456452520953056,nan
1740447714.9767065,-0.44721072614299173,-0.0382974318021086,-0.7895478904046764,-0.41941139788879567,nan
1740447714.9806123,-0.47624426415994736,-0.1212345100701576,-0.772171757352625,-0.441024414692017,nan
1740447714.984518,-0.502283558088028,-0.2069766694635216,-0.7497936733173003,-0.45915118277268563,nan
1740447714.9884238,-0.5250323038852057,-0.29504669316114357,-0.7225609957749421,-0.4735733253536393,nan
1740447714.9923296,-0.5442251812287828,-0.38493957916958393,-0.690669581125793,-0.48410899922382794,nan
1740447714.9962354,-0.5596308595939238,-0.4761258017521545,-0.654362634743484,-0.49061506113635955,nan
1740447715.0001411,-0.5710546745754349,-0.5680548174894979,-0.6139290998230155,-0.49298885861920894,nan
1740447715.004047,-0.5783409448304832,-0.6601587927298543,-0.5697015942100951,-0.49116962424416377,nan
1740447715.0079527,-0.5813749034544519,-0.7518565270025983,-0.5220539087057572,-0.4851394561651242,nan
1740447715.0118585,-0.5800842213190285,-0.8425575449549526,-0.4713980845718265,-0.4749238716986418,nan
1740447715.0157642,-0.5744401038658368,-0.9316663275490898,-0.41818109207487886,-0.46059192484050626,nan
1740447715.0196733,-0.5644579470225983,-1.0185866516435158,-0.3628811358597291,-0.44225588285319445,nan
1740447715.0235791,-0.5501975422521302,-1.1027260056958716,-0.30600361670009285,-0.4200704613798579,nan
1740447715.027485,-0.5317628252154442,-1.1835000481793694,-0.24807678269735825,-0.39423162189973554,nan
1740447715.0313907,-0.5093011670855951,-1.2603370744156457,-0.18964710625365003,-0.3649749396955496,nan
1740447715.0352964,-0.48300221214432837,-1.3326824569043616,-0.13127442610009366,-0.33257355481318057,nan
1740447715.0392025,-0.4530962698838886,-1.4000030238840029,-0.07352689628527105,-0.2973357227157548,nan
1740447715.0431082,-0.4198522743764918,-1.461791340796196,-0.016975786295157686,-0.25960198542658447,nan
1740447715.047014,-0.3835753281188418,-1.517569859552466,0.03780982163986189,-0.21974198787771135,nan
1740447715.0509198,-0.344603851864452,-1.5668949010203226,0.0902683905138844,-0.17815096789389412,nan
1740447715.0548255,-0.3033063660791559,-1.6093604369548848,0.13985129319197281,-0.13524595170832068,nan
1740447715.0587313,-0.26007793355347114,-1.644601638700761,0.18602813450848105,-0.09146169009079873,nan
1740447715.062637,-0.21533629633963394,-1.672298161371473,0.22829198140753817,-0.04724637303886363,nan
1740447715.0665457,-0.16951774351382132,-1.6921771338733669,0.26616445198140937,-0.003057163507051719,nan
1740447715.0704515,-0.1230727492606332,-1.7040158270674708,0.2992006149788837,0.04064440719739625,nan
1740447715.0743573,-0.07646142340574362,-1.7076439745443242,0.3269936525208941,0.08339713796650634,nan
1740447715.078263,-0.030148818755508667,-1.7029457229085798,0.349179240367709,0.12474490466300481,nan
1740447715.0821688,0.015399858585250737,-1.6898611911155204,0.36543960212068066,0.1642414084721212,nan
1740447715.0860746,0.059724088374751,-1.6683876212515953,0.3755071961970389,0.20145487872732004,nan
1740447715.0899806,0.10237287641867907,-1.6385801061847967,0.37916799727007144,0.23597268308768676,nan
1740447715.0938864,0.1429095468770556,-1.6005518827052625,0.37626433709684054,0.26740579838397904,nan
1740447715.0977921,0.18091643782614383,-1.5544741821078027,0.3666972732355888,0.2953930963442659,nan
1740447715.101698,0.215999451721536,-1.5005756336098952,0.3504284580557606,0.31960539975355046,nan
1740447715.1056037,0.24779241340084682,-1.439141219524136,0.3274814846327395,0.3397492663855909,nan
1740447715.1095095,0.27596118972938594,-1.370510784684922,0.2979426905617102,0.3555704602557878,nan
1740447715.113418,0.30020752691893215,-1.2950771062361668,0.2619614053825915,0.36685707236373893,nan
1740447715.1173239,0.3202725639230193,-1.2132835334905747,0.21974963214065846,0.3734422561013063,nan
1740447715.1212296,0.3359399831122195,-1.1256212111414805,0.17158115857334702,0.37520654587114705,nan
1740447715.1251354,0.34703876263580447,-1.0326259026153146,0.11779009846923952,0.37207973116260323,nan
1740447715.1290412,0.3534454984539676,-0.9348744337667018,0.05876886884575037,0.36404226233406933,nan
1740447715.132947,0.35508626794560333,-0.8329807804094357,-0.005034386307797062,0.351126168617887,nan
1740447715.1368527,0.3519380112253119,-0.7275918263164075,-0.07311890992095821,0.33341547335721333,nan
1740447715.1407585,0.34402941080128346,-0.6193828212821618,-0.1449349626037373,0.3110460961632619,nan
1740447715.1446643,0.33144125493173526,-0.5090525715964458,-0.21988794469042838,0.28420523650324103,nan
1740447715.14857,0.31430627494790114,-0.39731839780074757,-0.29734297933289494,0.25313023814959257,nan
1740447715.1524758,0.2928084518603573,-0.2849108968687493,-0.37662992199028555,0.21810693889417276,nan
1740447715.1563818,0.2671817927052727,-0.1725685479442478,-0.45704875750732843,0.17946751491026067,nan
1740447715.1602895,0.23770858226940514,-0.061032202466777645,-0.5378753421230137,0.1375878340838138,nan
1740447715.1641953,0.2047171210079292,0.04896049910143285,-0.6183674442424237,0.09288433748636024,nan
1740447715.1681013,0.1685789650878725,0.15668074067826054,-0.6977710346705684,0.045810472878905474,nan
1740447715.172007,0.12970568950264832,0.26141413011054015,-0.7753267742792157,-0.0031472913261996432,nan
1740447715.1759129,0.08854520006113278,0.36246624052048604,-0.8502766447832641,-0.05347383890447094,nan
1740447715.1798186,0.045577624710396565,0.45916804909316306,-0.9218706664659193,-0.1046301286705286,nan
1740447715.1837244,0.0013108190585016761,0.5508812293010525,-0.9893736453316493,-0.15605822681021206,nan
1740447715.1876302,-0.04372447492116022,0.6370032532757358,-1.0520718912983733,-0.2071866047640691,nan
1740447715.191536,-0.08897977424124474,0.7169722621099246,-1.1092798486769309,-0.25743565571260146,nan
1740447715.1954417,-0.13389425813583317,0.7902716633003452,-1.1603465803337951,-0.30622338010327826,nan
1740447715.1993475,-0.17790038000687286,0.856434416315049,-1.204662047594636,-0.3529711884864394,nan
1740447715.2032533,-0.2204296363468629,0.9150469693764539,-1.241663129119869,-0.39710976821573524,nan
1740447715.2071607,-0.2609184388083072,0.9657528129796958,-1.2708393236621767,-0.4380849593385021,nan
1740447715.2110665,-0.29881403398657425,1.0082556183977986,-1.291738083789122,-0.4753635842679334,nan
1740447715.2149723,-0.3335804143887149,1.0423219324411739,-1.3039697303060072,-0.508439175603046,nan
1740447715.2188783,-0.364704163491046,1.0677834030168785,-1.3072119002252223,-0.5368375467506541,nan
1740447715.222784,-0.3917001777524155,1.0845385135483734,-1.301213484674532,-0.5601221508074258,nan
1740447715.2266898,-0.4141172089526967,1.0925538080425385,-1.2857980170902448,-0.577899174476598,nan
1740447715.2305956,-0.43154317126683067,1.0918645924986201,-1.2608664763701638,-0.5898223156150896,nan
1740447715.2345014,-0.4436101590582399,1.0825751024132184,-1.2263994743306224,-0.595597195320081,nan
1740447715.2384071,-0.44999912347116433,1.0648581303142908,-1.1824588017833273,-0.5949853582523753,nan
1740447715.242313,-0.45044415850407904,1.038954111522204,-1.1291883127799547,-0.5878078181353311,nan
1740447715.2462187,-0.4447363503355206,1.0051696706528295,-1.0668141320217663,-0.573948109036833,nan
1740447715.2501245,-0.43272714722449485,0.9638756357115781,-0.9956441760519785,-0.5533548071075366,nan
1740447715.2540314,-0.4143312112907136,0.9155045309426546,-0.9160669845926946,-0.5260434918774888,nan
1740447715.2579372,-0.38952871786163557,0.8605475638591894,-0.8285498642067853,-0.4920981209676448,nan
1740447715.261843,-0.3583670728160327,0.7995511260518344,-0.7336363523084651,-0.45167179711201116,nan
1740447715.2657487,-0.32096202341648145,0.733112831421071,-0.631943015363933,-0.4049869116664631,nan
1740447715.2696545,-0.27749814346130736,0.6618771193675934,-0.5241556008650756,-0.3523346542555371,nan
1740447715.2735603,-0.22822867915289072,0.5865304541727584,-0.4110245682747908,-0.29407388383047156,nan
1740447715.277466,-0.173474747824149,0.5077961552753533,-0.29336002958290275,-0.230629362130498,nan
1740447715.281372,-0.11362388753683146,0.42642889637179704,-0.17202613532904568,-0.16248935630377492,nan
1740447715.2852778,-0.04912796151079412,0.34320891420603883,-0.04793494689716484,-0.09020262320250182,nan
1740447715.2891836,0.01949957269146934,0.2589359705467912,0.07796015947860829,-0.014374793566517703,nan
1740447715.2930894,0.09168701337085297,0.1744231131495448,0.20467150727644823,0.06433582010093057,nan
1740447715.2969952,0.16680836259397744,0.09049028344795639,0.33118449921018495,0.14522296273386887,nan
1740447715.3009017,0.2441878444016915,0.007957820295205047,0.4564653046473485,0.22753768853346149,nan
1740447715.3048074,0.3231049604351206,-0.07236008973455399,0.5794687948574688,0.3104940860243956,nan
1740447715.3087132,0.4028000448412969,-0.14966196418387617,0.6991466635162448,0.39327543228658274,nan
1740447715.312619,0.48248027537010024,-0.22316552700540437,0.8144556678934594,0.4750407280134923,nan
1740447715.3165247,0.5613260929702729,-0.292114109658605,0.9243659246863866,0.5549315611430008,nan
1740447715.3204305,0.638497977979183,-0.3557828998048129,1.0278691935410589,0.6320792433312405,nan
1740447715.3243363,0.7131435272199196,-0.41348498725803234,1.1239870809412862,0.7056121605286856,nan
1740447715.3282423,0.7844047730077552,-0.464577158122119,1.2117790973454692,0.7746632764009082,nan
1740447715.332148,0.8514256822593528,-0.508465389721091,1.2903505012146466,0.8383777253400568,nan
1740447715.3360538,0.9133597716213969,-0.5446100009969681,1.3588598648977959,0.8959204303585605,nan
1740447715.3399596,0.9693777728148623,-0.5725304154943613,1.4165262992132333,0.9464836802606074,nan
1740447715.3438654,1.0186752812463882,-0.5918094968551493,1.4626362759743001,0.9892946001613973,nan
1740447715.3477783,1.0604803203834372,-0.6020974198893191,1.496549990635073,1.023622449675731,nan
1740447715.3516843,1.094060754434071,-0.6031150437455501,1.517707210654646,1.048785683927893,nan
1740447715.35559,1.1187314825189962,-0.594656757451191,1.5256325590695679,1.0641587139404378,nan
1740447715.3594959,1.1338613487710434,-0.576592772096727,1.5199401870918272,1.0691783049317491,nan
1740447715.3634017,1.1388797046383083,-0.5488708381736883,1.5003377942794434,1.063349553577315,nan
1740447715.3673074,1.133282562089034,-0.5115173710037216,1.4666299599194377,1.0462513883487954,nan
1740447715.3712132,1.1166382794009697,-0.4646379717854342,1.4187207546770575,1.0175415406145278,nan
1740447715.375119,1.0885927247422387,-0.40841733649795087,1.3566156072557547,0.9769609382367849,nan
1740447715.3790247,1.0488738667864845,-0.3431185496982849,1.2804224067325896,0.924337477902255,nan
1740447715.3829305,0.9972957461193592,-0.2690817650950732,1.1903518273340699,0.8595891373359019,nan
1740447715.3868363,0.9337617861488513,-0.18672227963477803,1.0867168686472415,0.7827263938339201,nan
1740447715.390742,0.8582674075869821,-0.09652801265878919,0.9699316105679542,0.6938539211647405,nan
1740447715.3946548,0.7709019162797002,0.0009435935582374757,0.840509188619891,0.5931715427806983,nan
1740447715.3985605,0.6718496401766442,0.10506923093596299,0.6990590015810667,0.48097442540696095,nan
1740447715.4024663,0.5613902975011157,0.21516391493386988,0.5462831695760982,0.3576525033765007,nan
1740447715.406372,0.4398985846488797,0.3304856763559986,0.3829722668803641,0.22368913050613043,nan
1740447715.4102778,0.30784297895614454,0.4502407217656341,0.21000035958491511,0.07965896280357612,nan
1740447715.4141836,0.16578375817431915,0.5735890248240993,0.02831938393894834,-0.07377491819700298,nan
1740447715.4180894,0.014370245213361006,0.6996503073173326,-0.16104709342791623,-0.23586462521028334,nan
1740447715.4219952,-0.14566270659277805,0.8275103653992504,-0.35701068714392653,-0.40578180546217263,nan
1740447715.425901,-0.31349896584497483,0.9562276936892931,-0.5584255256476314,-0.5826226726089939,nan
1740447715.4298067,-0.4882460847585684,1.0848403573375687,-0.7640960494314576,-0.7654136954872099,nan
1740447715.4337125,-0.6689409356182726,1.2123730600361957,-0.9727852159231195,-0.9531179031352132,nan
1740447715.4376183,-0.8545559814844845,1.337844354228315,-1.1832230485997983,-1.1446417601110122,nan
1740447715.4415307,-1.0440061349660985,1.4602739384618972,-1.3941154650850738,-1.3388425610745964,nan
1740447715.4454365,-1.2361561535825387,1.5786899859656782,-1.6041533166644488,-1.5345362889566776,nan
1740447715.4493423,-1.4298285153617891,1.6921364480975334,-1.812021569891268,-1.730505876838034,nan
1740447715.453248,-1.623811713906347,1.7996802763358724,-2.0164085597558565,-1.925509809953919,nan
1740447715.4571538,-1.8168689082456788,1.900418506953245,-2.2160152432665896,-2.118291001049612,nan
1740447715.4610596,-2.007746859418167,1.993485153425401,-2.409564382247581,-2.3075858696757026,nan
1740447715.4649653,-2.1951850829192496,2.07805785298231,-2.5958095846937743,-2.492133553949558,nan
1740447715.468871,-2.3779251439420555,2.1533642154899595,-2.7735441351358725,-2.6706851818424817,nan
1740447715.472777,-2.5547200207437015,2.2186878250496993,-2.9416095461449343,-2.8420131281946976,nan
1740447715.476683,-2.724343460510572,2.2733738472983442,-3.0989037653352884,-3.004920183421812,nan
1740447715.4805887,-2.885599251779722,2.316834198367122,-3.2443889749856525,-3.1582485602606867,nan
1740447715.4844944,-3.037330337805798,2.3485522347872307,-3.3770989246682634,-3.300888665908088,nan
1740447715.4884026,-3.178427696242683,2.3680869272881253,-3.496145741026808,-3.4317875685252006,nan
1740447715.4923084,-3.307838912129516,2.3750764853923485,-3.600726163043915,-3.5499570893026418,nan
1740447715.4962142,-3.4245763734197707,2.3692414039365612,-3.690127155752439,-3.654481454086556,nan
1740447715.50012,-3.527725021151517,2.350386907108191,-3.7637308603326542,-3.7445244419338786,nan
1740447715.5040257,-3.6164495898035707,2.318404770245444,-3.8210188438575012,-3.819335971866345,nan
1740447715.5079315,-3.6900012773873403,2.2732745044676648,-3.8615756175554323,-3.8782580734960543,nan
1740447715.5118372,-3.7477237893543585,2.2150638941445804,-3.8850913983078885,-3.920730192063521,nan
1740447715.515743,-3.7890587054163,2.1439288822369824,-3.8913640941368404,-3.94629378372148,nan
1740447715.519649,-3.813550123835336,2.0601128036074345,-3.8803005006164244,-3.954596162569674,nan
1740447715.5235548,-3.8208485436012802,1.96394497146687,-3.8519167014099307,-3.9453935669495284,nan
1740447715.5274606,-3.810713951118088,1.8558386271505067,-3.8063376724367464,-3.918553418792298,nan
1740447715.5313663,-3.7830180845225287,1.736288268363961,-3.743796095460886,-3.8740557563265616,nan
1740447715.5352778,-3.73774585549656,1.6058663758677871,-3.6646303931112976,-3.8119938271356157,nan
1740447715.5391836,-3.674995915353759,1.465219563237091,-3.5692820034426775,-3.732573835355533,nan
1740447715.5430894,-3.5949803592197846,1.3150641788047766,-3.458291918073817,-3.6361138436625646,nan
1740447715.5469952,-3.498023569226102,1.1561813931363696,-3.3322965136497977,-3.5230418375556662,nan
1740447715.550901,-3.3845602047340604,0.9894118093572607,-3.19202271181816,-3.3938929662381483,nan
1740447715.5548067,-3.2551323546412854,0.8156496373277118,-3.0382825080430482,-3.2493059810834812,nan
1740447715.5587125,-3.1103858737334975,0.6358364760077189,-2.8719669143640285,-3.090018899177581,nan
1740447715.5626183,-2.9510659317725465,0.4509547513461921,-2.6940393655994126,-2.916863925708006,nan
1740447715.566524,-2.778011810497332,0.2620208596430654,-2.5055286424626764,-2.730761674965976,nan
1740447715.5704298,-2.5921509899025543,0.07007806854838322,-2.3075213685738767,-2.5327147353891393,nan
1740447715.5743358,-2.3944925709972273,-0.12381077033832553,-2.1011541413787085,-2.323800629353641,nan
1740447715.5782416,-2.1861200876804747,-0.318570641935791,-1.887605359513265,-2.105164223278484,nan
1740447715.5821524,-1.9681837653593324,-0.5131218649543532,-1.6680868111540281,-1.8780096479926345,nan
1740447715.5860581,-1.7418922884294004,-0.7063876092316149,-1.4438350893563665,-1.6435917931988238,nan
1740447715.589964,-1.5085041427056745,-0.8973013763554469,-1.2161029013014883,-1.4032074432152015,nan
1740447715.5938697,-1.269318602293874,-1.0848143872172755,-0.9861503387368271,-1.1581861239590114,nan
1740447715.5977755,-1.0256664332033398,-1.2679028210016439,-0.7552361767083698,-0.9098807333325063,nan
1740447715.6016812,-0.7789003881973244,-1.4455748514183888,-0.5246092669503117,-0.6596580287625671,nan
1740447715.605587,-0.5303855689372526,-1.6168774277097318,-0.29550009102710795,-0.4088890466195574,nan
1740447715.6094928,-0.28148973239148384,-1.780902750101359,-0.06911253652947119,-0.15893952859058985,nan
1740447715.6133986,-0.03357361873959735,-1.936794391895585,0.1533840426724639,0.08883957019402293,nan
1740447715.6173043,0.21201862239109598,-2.083753023304657,0.37086242389617047,0.333121417381115,nan
1740447715.62121,0.4539688315644511,-2.221041695368517,0.5822447158475553,0.5726124115738026,nan
1740447715.625116,0.6909939909415541,-2.3479906458666906,0.786509110230832,0.8060609921922525,nan
1740447715.6290333,0.9218550556536378,-2.4640015929885886,0.9826961374959557,1.0322660834290864,nan
1740447715.632939,1.1453653962518802,-2.568551486638213,1.1699143838601915,1.2500851079573134,nan
1740447715.6368449,1.360398786830166,-2.6611956915840422,1.3473456314635042,1.4584415098190846,nan
1740447715.6407506,1.5658968774470845,-2.741570581186775,1.514249388513599,1.6563317301856577,nan
1740447715.6446564,1.7608760940112067,-2.809395525109398,1.6699667815013453,1.8428315843948322,nan
1740447715.6485622,1.9444339137983995,-2.8644742591973857,1.8139237869752596,2.0171019938000017,nan
1740447715.652468,2.1157544701966935,-2.9066956305724787,1.9456337859075556,2.1783940314596206,nan
1740447715.6563737,2.274113446074606,-2.936033715871906,2.0646994293161547,2.3260532465090615,nan
1740447715.6602795,2.4188822212913084,-2.952547315446333,2.1708138094785907,2.4595232381376406,nan
1740447715.6641853,2.5495312462572692,-2.9563788311647183,2.2637609367367726,2.5783484563889774,nan
1740447715.6680913,2.665632620055484,-2.947752540223662,2.3434155274980957,2.682176213458065,nan
1740447715.671997,2.7668618583880105,-2.9269722819846504,2.409742114541542,2.7707578957176535,nan
1740447715.675904,2.8529988434607776,-2.8944185793278985,2.4627934960913342,2.843949373312994,nan
1740447715.6798098,2.9239279548015453,-2.8505452202807557,2.502708545281429,2.901710610760973,nan
1740447715.6837156,2.979637386861389,-2.795875329718341,2.52970940655947,2.944104488520602,nan
1740447715.6876214,3.020217666019374,-2.7309969647124515,2.5440981102292315,2.971294851911025,nan
1740447715.6915271,3.0458593862345036,-2.656558270592641,2.5462526406689165,2.9835438099861773,nan
1740447715.6954331,3.0568501890113913,-2.5732622379538657,2.536622497755229,2.9812083129794296,nan
1740447715.699339,3.0535710195110264,-2.481861103674237,2.5157237946389226,2.9647360426563854,nan
1740447715.7032447,3.0364916964929423,-2.3831504414732505,2.4841339382297947,2.9346606553119017,nan
1740447715.7071505,3.0061658392700368,-2.277962989627219,2.442485941534122,2.891596422173403,nan
1740447715.7110562,2.9632251999460837,-2.1671622651500426,2.391462419326116,2.8362323165857637,nan
1740447715.714962,2.908373453845759,-2.05163601503241,2.331789320511625,2.769325601515644,nan
1740447715.7188678,2.8423795051995104,-1.9322895560031397,2.2642294519457846,2.6916949745922527,nan
1740447715.7227774,2.766070368776923,-1.8100390547282714,2.189575849389757,2.604213331067833,nan
1740447715.7266831,2.6803236912429687,-1.6858048003957018,2.1086450517322657,2.5078002077107784,nan
1740447715.730589,2.586059978517964,-1.5605045212481734,2.0222703345609205,2.403413972717556,nan
1740447715.7344947,2.4842345973348596,-1.4350467958313673,1.9312949586520802,2.29204382823222,nan
1740447715.7384005,2.3758296204935516,-1.3103246085260094,1.83656548796603,2.1747016929849083,nan
1740447715.7423062,2.261845586002926,-1.1872090973460023,1.7389252303004847,2.052414032899069,nan
1740447715.7462122,2.1432932403749754,-1.0665435400244614,1.639207851887401,1.926213707272392,nan
1740447715.750118,2.0211853357946197,-0.9491376220950221,1.5382312149372954,1.7971318973144612,nan
1740447715.7540238,1.8965285497422697,-0.8357620280285206,1.436791484466347,1.666190182436356,nan
1740447715.7579296,1.7703155939076891,-0.7271433935294802,1.3356575477124166,1.5343928277497385,nan
1740447715.7618353,1.6435175769224837,-0.6239596538594588,1.2355657860876674,1.402719343766374,nan
1740447715.765741,1.517076682578746,-0.5268358195640716,1.1372152359609935,1.272117376318866,nan
1740447715.7696502,1.3918992218220374,-0.4363402072682405,1.0412631706486757,1.143495981279337,nan
1740447715.773556,1.2688491129415234,-0.3529811493023198,0.948321131854205,1.017719334768674,nan
1740447715.7774618,1.1487418400663785,-0.2772042018639908,0.8589514344771476,0.8956009252620402,nan
1740447715.7813675,1.0323389353571308,-0.20938986724206152,0.7736641642466872,0.7778982693474912,nan
1740447715.7852733,0.9203430251983638,-0.14985184136411545,0.6929146830692483,0.6653081879273248,nan
1740447715.789179,0.8133934753031647,-0.09883579361630639,0.6171016523530424,0.5584626744124885,nan
1740447715.7930849,0.7120626639804717,-0.05651868155682322,0.5465655799271627,0.45792538099732905,nan
1740447715.7969909,0.6168529069466451,-0.023008598840401573,0.481587891550487,0.364188743465124,nan
1740447715.8008966,0.5281940510364646,0.001654849574521541,0.42239052344674033,0.2776717592154538,nan
1740447715.8048024,0.4464417480416548,0.017499655017235893,0.36913602784644783,0.19871842737447387,nan
1740447715.8087082,0.3718764137329486,0.02462000960212335,0.3219281792023751,0.12759685400070112,nan
1740447715.812614,0.30470287096057336,0.023174425606460432,0.2808130646090404,0.06449901958411905,nan
1740447715.8165226,0.24505066963354916,0.013383391380590255,0.24578063803353895,0.009541200306460686,nan
1740447715.8204284,0.19297507040485626,-0.004473411098693125,0.21676671428642413,-0.037234971064267215,nan
1740447715.8243341,0.1484586730906809,-0.030060298707096113,0.19365537525737628,-0.07586082418304865,nan
1740447715.82824,0.11141366527875053,-0.06298915841573828,0.17628175783764322,-0.10643837475970593,nan
1740447715.8321457,0.08168466128222521,-0.1028233633774013,0.1644351901733901,-0.12913748243835113,nan
1740447715.8360515,0.05905209661772948,-0.14908199759408294,0.1578626404617129,-0.1441924771397929,nan
1740447715.8399572,0.043236138571833456,-0.2012443508898265,0.15627244043114416,-0.15189829231846508,nan
1740447715.843863,0.03390106920880735,-0.25875464423954814,0.15933824395452048,-0.1526061474327519,nan
1740447715.8477688,0.030660093399184858,-0.32102694418275196,0.1667031799341869,-0.14671882535509895,nan
1740447715.8516748,0.03308052114461393,-0.3874502240878,0.17798415768372933,-0.13468559342901834,nan
1740447715.8555806,0.04068927066620857,-0.4573935294322356,0.19277628250957324,-0.11699681939143076,nan
1740447715.8594863,0.05297863643304107,-0.5302112040284607,0.21065733906865655,-0.09417833540239673,nan
1740447715.8633945,0.06941226455139185,-0.6052481342500534,0.23119230034038354,-0.06678560494661102,nan
1740447715.8673005,0.08943127672585933,-0.6818449687968136,0.2539378206939407,-0.03539774838296284,nan
1740447715.8712063,0.11246048334719855,-0.7593432723684743,0.2784466725442423,-0.00061148341576683,nan
1740447715.875112,0.13791462616039799,-0.8370905727865208,0.3042720874563281,0.03696496325567356,nan
1740447715.8790178,0.165204591416565,-0.9144452625972871,0.330971964260999,0.07671791737857177,nan
1740447715.8829236,0.1937435354050598,-0.9907813179906534,0.3581129087630069,0.11803423697412087,nan
1740447715.8868294,0.2229528657844229,-1.0654927999585766,0.3852740719335767,0.16030715735652085,nan
1740447715.8907351,0.25226802416365185,-1.1379981049749237,0.4120507560555753,0.2029419501266238,nan
1740447715.894641,0.28114401790629145,-1.2077439350794332,0.4380577611040761,0.24536134734478576,nan
1740447715.8985467,0.3090606521112268,-1.2742089600688478,0.46293244666741307,0.2870106849266542,nan
1740447715.9024525,0.33552741613457265,-1.336907147510559,0.4863374879126626,0.3273627225321831,nan
1740447715.9063582,0.36008798282137905,-1.3953907394702412,0.5079633074418621,0.3659221007988305,nan
1740447715.9102662,0.3823242827753337,-1.449252858155624,0.5275301683377166,0.40222940066811574,nan
1740447715.914172,0.4018601204675188,-1.4981297260936002,0.5447899172255438,0.43586477373160976,nan
1740447715.9180777,0.41836430372719097,-1.5417024899464242,0.5595273697473836,0.4664511169366273,nan
1740447715.9219835,0.43155326312190856,-1.5796986406039715,0.5715613344199626,0.49365676960036564,nan
1740447715.9258893,0.4411931428727735,-1.6118930257314863,0.5807452743965129,0.5171977154394231,nan
1740447715.929795,0.4471013502134374,-1.63810845447542,0.5869676101399165,0.5368392771839948,nan
1740447715.9337008,0.449147555438318,-1.6582158975032748,0.5901516694088764,0.5523972962664956,nan
1740447715.9376066,0.44725414024538984,-1.6721342889473345,0.5902552942288478,0.5637387950066406,nan
1740447715.9415126,0.4413960973111769,-1.6798299401082601,0.5872701176357689,0.5707821236131362,nan
1740447715.9454184,0.4316003892901223,-1.681315577925432,0.5812205259156762,0.5734965991408866,nan
1740447715.9493241,0.4179447805582513,-1.6766490242109193,0.5721623247916043,0.5719016482378558,nan
1740447715.95323,0.40055615997447674,-1.6659315344488863,0.560181130507564,0.5660654700448392,nan
1740447715.9571373,0.37960837766648187,-1.6493058175601039,0.5453905090072918,0.5561032399337635,nan
1740447715.9610431,0.35531962331859906,-1.6269537604017845,0.527929888384884,0.5421748788473222,nan
1740447715.964949,0.32794937760620424,-1.5990938828984815,0.5079622714802785,0.5244824167989907,nan
1740447715.9688547,0.29779497224746987,-1.5659785515648406,0.48567177689269236,0.5032669825750082,nan
1740447715.9727604,0.2651877975951619,-1.5278909807724763,0.46126103778040184,0.47880545481902387,nan
1740447715.9766662,0.23048919973849125,-1.4851420524210142,0.4349484885996472,0.451406812449814,nan
1740447715.980572,0.19408611170182039,-1.4380669856893924,0.40696557040603387,0.421408224740253,nan
1740447715.9844778,0.15638646549159932,-1.387021889263049,0.3775538854987261,0.3891709233530495,nan
1740447715.9883835,0.11781443343795622,-1.3323802288531612,0.3469623320342753,0.3550759001711578,nan
1740447715.9922893,0.07880554849018792,-1.274529242946009,0.3154442487792983,0.319519475867814,nan
1740447715.996195,0.039801753847971355,-1.2138663395469451,0.28325459941860376,0.282908784826642,nan
1740447716.0001009,0.0012464325390859228,-1.1507955062198916,0.25064722479968077,0.24565722224429823,nan
1740447716.0040078,-0.03642053270870303,-1.0857237649779607,0.2178721901902938,0.20817989902888076,nan
1740447716.0079136,-0.07276761970319331,-1.0190577025643985,0.18517325307032276,0.17088914945325212,nan
1740447716.0118196,-0.10737639875686311,-0.9512001053883542,0.1527854751912782,0.1341901354439944,nan
1740447716.0157254,-0.13984608970045279,-0.8825467268622159,0.12093300063846926,0.09847658989830557,nan
1740447716.0196311,-0.16979789937730133,-0.81348321314347,0.08982701944481214,0.06412673954099435,nan
1740447716.023537,-0.19687909759724315,-0.7443822113331289,0.05966393395659247,0.03149944558355216,nan
1740447716.0274427,-0.22076679246106842,-0.6756006820454692,0.030623742666106294,0.0009305978521672577,nan
1740447716.0313485,-0.2411713692573661,-0.6074774359619521,0.0028686536313139712,-0.027270204860298027,nan
1740447716.0352542,-0.25783956074887154,-0.5403309115392068,-0.023458063073787668,-0.05282265866103034,nan
1740447716.03916,-0.27055712056797593,-0.474457208480983,-0.04823297716391565,-0.0754784165353951,nan
1740447716.0430658,-0.27915107559118607,-0.41012838893205555,-0.07135315024238384,-0.09502338599608523,nan
1740447716.0469716,-0.2834915375182488,-0.3475910556338391,-0.09273653698637276,-0.11127964380929883,nan
1740447716.0508816,-0.28349305839973676,-0.28706521352266084,-0.11232213692603546,-0.12410695319114204,nan
1740447716.0547874,-0.2791155194924177,-0.22874341847828067,-0.13006990098460308,-0.13340387295563624,nan
1740447716.0586932,-0.27036454752882005,-0.17279021416799265,-0.14596039951931267,-0.13910845224452684,nan
1740447716.062599,-0.25729145722005836,-0.11934185520581977,-0.15999426106418194,-0.14119850863779806,nan
1740447716.066505,-0.23999272352301232,-0.06850631218163002,-0.17219139330151279,-0.13969149159203928,nan
1740447716.0704107,-0.21860899184871854,-0.020363551535195586,-0.1825899999571648,-0.1346439372414028,nan
1740447716.0743165,-0.19332363892362445,0.025033919221882788,-0.19124540930461395,-0.12615052458395568,nan
1740447716.0782223,-0.16436090139571155,0.06766025277648886,-0.19822873175627684,-0.11434274692680665,nan
1740447716.082128,-0.13198359346178962,0.10751522381047056,-0.20362536560122124,-0.09938721614042674,nan
1740447716.0860338,-0.09649043874090595,0.1446229673835552,-0.2075333713024385,-0.08148362074179549,nan
1740447716.0899396,-0.058213045294803666,0.17903051180509535,-0.2100617358828307,-0.060862362055530396,nan
1740447716.0938454,-0.017512556065470523,0.21080612554032077,-0.21132854979822155,-0.037781895662597445,nan
1740447716.0977552,0.025223989968950453,0.24003749912849603,-0.21145911931180816,-0.012525808011088956,nan
1740447716.101661,0.06958754795290002,0.26682978429990784,-0.21058403774391743,0.014600339590595113,nan
1740447716.1055667,0.11515116838345363,0.2913035134576977,-0.20883723907298296,0.043272365371158195,nan
1740447716.1094725,0.16147426730137654,0.31359242343292354,-0.20635405720999633,0.0731509840066172,nan
1740447716.1133783,0.20810702189117533,0.3338412079231813,-0.2032693138638234,0.10388544888380512,nan
1740447716.117284,0.2545948469334314,0.35220322328496717,-0.19971545726563755,0.1351172816543871,nan
1740447716.12119,0.30048290699232383,0.3688381723685295,-0.1958207731367441,0.16648405049752577,nan
1740447716.1250958,0.3453206191083001,0.38390979086421,-0.1917076881771297,0.1976231583763421,nan
1740447716.1290016,0.38866610109891825,0.39758356017635815,-0.18749118503601078,0.22817560282451124,nan
1740447716.1329074,0.43009052134436393,0.410024470162175,-0.18327734621665928,0.2577896694291906,nan
1740447716.1368132,0.4691823071380622,0.42139485417766126,-0.1791620426836861,0.28612452217565093,nan
1740447716.140719,0.505551170303126,0.43185231777244404,-0.17522978110134466,0.3128536551748137,nan
1740447716.144628,0.5388319107940404,0.44154778108279563,-0.17155272165732258,0.3376681719910738,nan
1740447716.1485338,0.5686879613981254,0.45062365350234207,-0.16818987634017799,0.3602798608050546,nan
1740447716.1524396,0.594814639397585,0.4592121575790466,-0.16518649536331842,0.3804240359618335,nan
1740447716.1563454,0.6169420741215474,0.46743381731270706,-0.16257364718815498,0.3978621190445635,nan
1740447716.1602511,0.6348377826768412,0.47539612412810284,-0.16036799531837292,0.41238393544873053,nan
1740447716.164157,0.6483088697618098,0.4831923917948722,-0.15857177274080003,0.42380970548354185,nan
1740447716.1680627,0.657203831302612,0.4909008094766813,-0.15717295260090425,0.431991712262517,nan
1740447716.1719685,0.6614139456674236,0.4985836999403281,-0.15614561144691277,0.4368156320318148,nan
1740447716.1758742,0.6608742403704885,0.5062869877616422,-0.1554504791798719,0.4382015160876,nan
1740447716.17978,0.6555640264335616,0.514039880150945,-0.1550356677308308,0.43610441701738883,nan
1740447716.183686,0.6455069968847367,0.5218547608080383,-0.15483756847286453,0.43051465562867924,nan
1740447716.1875918,0.6307708902012563,0.5297272950266044,-0.15478190648585877,0.42145772856511277,nan
1740447716.1915004,0.6114667238012118,0.5376367421213113,-0.15478493804531213,0.40899386021980394,nan
1740447716.1954062,0.5877476069168404,0.5455464691682103,-0.15475477612083913,0.39321720610175714,nan
1740447716.199312,0.5598071462982962,0.5534046580495776,-0.1545928272616258,0.37425471825978435,nan
1740447716.2032177,0.5278774621612872,0.5611451958966301,-0.1541953220289809,0.3522646866854835,nan
1740447716.2071235,0.49222683556660785,0.5686887372449226,-0.15345492012240272,0.3274349737707199,nan
1740447716.2110293,0.45315701196804664,0.5759439245735326,-0.15226237054505645,0.2999809618554092,nan
1740447716.214935,0.4110001889535452,0.5828087524050606,-0.15050820657488045,0.2701432366402518,nan
1740447716.2188408,0.3661157192016255,0.5891720588118441,-0.14808445495381753,0.23818503173062383,nan
1740447716.2227466,0.31888656235275026,0.5949151270159102,-0.14488633858281746,0.2043894617990975,nan
1740447716.2266524,0.2697155218285209,0.5999133787956102,-0.14081395211453368,0.16905657378469233,nan
1740447716.2305582,0.21902130459893018,0.604038140628119,-0.13577389016713487,0.13250024716974715,nan
1740447716.2344642,0.167234443481447,0.6071584629099687,-0.1296808084369188,0.09504497567604958,nan
1740447716.2383726,0.11479312274160884,0.6091429722110966,-0.12245889875768351,0.05702256368983155,nan
1740447716.2422783,0.06213894854297896,0.6098617363335693,-0.11404326013215099,0.018768771352903346,nan
1740447716.246184,0.009712706158857299,0.6091881219639363,-0.10438114893403912,-0.019380057459512063,nan
1740447716.25009,-0.04204985419295215,0.6070006249261416,-0.09343309283546268,-0.057090350115353496,nan
1740447716.2539957,-0.09272216149536415,0.603184653455988,-0.08117385453822584,-0.09403460940165563,nan
1740447716.2579014,-0.14189085753177044,0.5976342455226417,-0.06759323306250674,-0.12989463388457329,nan
1740447716.2618072,-0.18915968068321035,0.590253702009932,-0.052696692154205985,-0.16436462250455738,nan
1740447716.265713,-0.23415316231695474,0.5809591185310264,-0.03650580729316878,-0.19715413283784214,nan
1740447716.2696187,-0.2765201001765479,0.5696797997735655,-0.01905852479793169,-0.22799086413360478,nan
1740447716.2735245,-0.31593677554307187,0.5563595415462667,-0.00040922860689857635,-0.2566232381938872,nan
1740447716.2774303,-0.3521098836161095,0.5409577671087107,0.019371387551401466,-0.28282275337930696,nan
1740447716.281336,-0.3847791495329634,0.523450505898638,0.04019664272787261,-0.306386089474076,nan
1740447716.285244,-0.41371960567564015,0.503831204409774,0.061964384029986955,-0.3271369438029238,nan
1740447716.2891498,-0.43874350937410184,0.48211136070126687,0.08455769043338746,-0.3449275818323888,nan
1740447716.2930555,-0.4597018837662965,0.45832097581964204,0.10784575885704357,-0.35964008848006707,nan
1740447716.2969613,-0.47648566838362183,0.4325088172680227,0.13168496419843556,-0.3711873094669582,nan
1740447716.300867,-0.48902646995669785,0.40474249154655184,0.15592008307949137,-0.3795134752481629,nan
1740447716.3047729,-0.4972969079412644,0.3751083246942289,0.18038566921548713,-0.38459450331329853,nan
1740447716.3086786,-0.5013105533078661,0.34371105166701005,0.20490756660748943,-0.386437977927073,nan
1740447716.3125846,-0.5011214631816262,0.31067331727168535,0.22930454519205334,-0.3850828096495285,nan
1740447716.3164904,-0.4968233179198404,0.2761349932217294,0.25339004217643946,-0.38059858020183207,nan
1740447716.3203962,-0.48854817113595855,0.24025231767250374,0.2769739910583924,-0.3730845813947881,nan
1740447716.324302,-0.4764648269801966,0.20319686531196812,0.29986471928951547,-0.3626685598825697,nan
1740447716.3282077,-0.46077686263243406,0.16515435771350115,0.32187089470146474,-0.34950518241314743,nan
1740447716.3321152,-0.4417203174165487,0.12632332518448258,0.34280350018357025,-0.3337742389913001,nan
1740447716.336021,-0.41956107317349,0.08691363275400052,0.3624778156856968,-0.3156786039230429,nan
1740447716.3399267,-0.3945919535019606,0.04714488422275888,0.38071538642576147,-0.2954419770472258,nan
1740447716.3438325,-0.36712957216196196,0.007244719336674748,0.397345956209508,-0.27330642955850964,nan
1740447716.3477383,-0.33751096331209085,-0.032552979867188254,0.4122093450207435,-0.24952978066606057,nan
1740447716.351644,-0.3060900282937519,-0.07200995666614884,0.4251572505109736,-0.22438283289689576,nan
1740447716.3555498,-0.2732338353652898,-0.11088550367143307,0.4360549537033713,-0.19814649512753263,nan
1740447716.3594556,-0.23931881011077266,-0.148938425234553,0.44478291012055354,-0.17110882340100553,nan
1740447716.3633614,-0.20472685518993783,-0.18592901989858931,0.45123820863952735,-0.14356201025016735,nan
1740447716.3672671,-0.16984143864943413,-0.22162106441431312,0.4553358816592363,-0.11579935359731149,nan
1740447716.371173,-0.13504369017669562,-0.2557837808797756,0.457010051623533,-0.08811223633248146,nan
1740447716.3750787,-0.10070854444622053,-0.28819376877571906,0.45621490055996944,-0.06078714738966535,nan
1740447716.3789892,-0.06720097008722378,-0.318636884054742,0.45292545105617393,-0.034102774545816644,nan
1740447716.382895,-0.034872321798802834,-0.34691004799466724,0.44713814898278176,-0.008327198269543819,nan
1740447716.3868008,-0.004056851765194775,-0.37282296923950514,0.43887124026541713,0.01628478524482467,nan
1740447716.3907065,0.024931585205992448,-0.39619976331691426,0.4281649360878858,0.03949418519308158,nan
1740447716.3946123,0.05180260046723475,-0.4168804549297755,0.4150813630530595,0.061080156496832023,nan
1740447716.398518,0.07629208426476143,-0.43472234946084826,0.3997042970150577,0.08084213640848205,nan
1740447716.4024239,0.0981647351265776,-0.44960126139165985,0.38213868150375047,0.09860175663830198,nan
1740447716.4063296,0.11721628154890429,-0.4614125887069874,0.36250993386772246,0.11420451266016009,nan
1740447716.4102356,0.13327537479933754,-0.4700722238207228,0.34096304444201553,0.12752117443161834,nan
1740447716.4141414,0.14620513503145816,-0.4755172931031279,0.3176614761798194,0.13844892549160048,nan
1740447716.4180472,0.15590433644995771,-0.4777067186981965,0.29278587425083785,0.1469122202465066,nan
1740447716.421953,0.16230822094203562,-0.4766215979774858,0.2665325970822154,0.15286335219413508,nan
1740447716.4258664,0.1653889333627734,-0.4722653976672851,0.239112082180201,0.15628272883380687,nan
1740447716.4297721,0.16515557549174129,-0.46466396139324917,0.21074706180311717,0.1571788520402053,nan
1740447716.433678,0.16165387952682816,-0.45386533109441207,0.1816706451406291,0.15558800570659218,nan
1740447716.4375837,0.15496550581096333,-0.4399393844507104,0.1521242850745738,0.15157365545965729,nan
1740447716.4414895,0.14520697325980034,-0.4229772921290843,0.12235564883779895,0.14522556818298574,nan
1740447716.4453952,0.1325282346361701,-0.4030908002674813,0.09261641293679661,0.1366586619293778,nan
