timestamps,TP9,AF7,AF8,TP10,Right AUX
1740789341.663196,-0.2702437058409379,0.08611348036125077,-0.30367663818477747,-0.37460472722405225,nan
1740789341.667102,-0.25781115527768883,0.08222511271344962,-0.2836465913033569,-0.3579334867124056,nan
1740789341.6710079,-0.24367452387378383,0.07577986437197505,-0.26117133092962386,-0.33941787058131545,nan
1740789341.6749136,-0.2279108035354942,0.06691123367155107,-0.23649842675061142,-0.3192006908781688,nan
1740789341.6788197,-0.21061127221263962,0.05577913542058124,-0.20989417850052866,-0.2974412600071649,nan
1740789341.6827254,-0.19188068840249473,0.0425681718417498,-0.18164085170051328,-0.2743138782700799,nan
1740789341.6866312,-0.17183635055002905,0.027485650269992085,-0.15203377676002433,-0.25000616159492484,nan
1740789341.6905372,-0.15060703076334012,0.010759368139202159,-0.12137834064420673,-0.22471722592192572,nan
1740789341.694443,-0.12833179355597943,-0.0073648118691001475,-0.08998690123729135,-0.19865574624359006,nan
1740789341.6983488,-0.10515871151077504,-0.026625571533167778,-0.0581756551588169,-0.1720379096435978,nan
1740789341.7022548,-0.08124349082083086,-0.046748904817692935,-0.026261490112187837,-0.14508528283396976,nan
1740789341.7061605,-0.05674802059145865,-0.06745101520069438,0.005441147138946774,-0.11802261563888926,nan
1740789341.7100677,-0.031838860572529104,-0.08844131288737907,0.03662333636083443,-0.0910756026067262,nan
1740789341.7139735,-0.006685682625780898,-0.10942548120463812,0.06698469279287045,-0.06446862544101212,nan
1740789341.7178793,0.01854031829025774,-0.13010858078737522,0.09623627011843588,-0.038422499220739,nan
1740789341.721785,0.04366802751925849,-0.15019815980298518,0.12410332931201618,-0.013152245426755622,nan
1740789341.725691,0.0685280122408084,-0.16940733841616396,0.15032794665939295,0.011135085396722958,nan
1740789341.7295969,0.09295410490614651,-0.18745783597348692,0.17467143595490914,0.03424251893730341,nan
1740789341.7335026,0.11678495252632005,-0.2040829099824605,0.19691656182847567,0.05598516860822586,nan
1740789341.7374086,0.13986551611150036,-0.21903017686735143,0.2168695233254895,0.07619213235638024,nan
1740789341.7413144,0.16204850506980925,-0.2320642856943477,0.23436168923302778,0.09470825498883147,nan
1740789341.7452202,0.1831957320401835,-0.24296941755954052,0.2492510691918197,0.11139573751584118,nan
1740789341.7491262,0.20317937444929307,-0.2515515851094283,0.2614235073298833,0.1261355764941701,nan
1740789341.753032,0.22188313003947305,-0.2576407086973043,0.2707935879734348,0.13882881801818875,nan
1740789341.756939,0.23920325470283277,-0.26109244794936476,0.27730524590538314,0.14939761283141853,nan
1740789341.7608447,0.2550494721654237,-0.2617897699989093,0.28093207662251657,0.15778606099982742,nan
1740789341.7647505,0.2693457463819149,-0.25964423832036015,0.2816773450594639,0.1639608366807566,nan
1740789341.7686565,0.28203090891237437,-0.2545970089303178,0.27957369427087353,0.16791158571727763,nan
1740789341.7725623,0.29305913504391906,-0.2466195236916753,0.2746825585627645,0.16965109106485843,nan
1740789341.776468,0.30240026397591435,-0.23571389352935332,0.2670932885101245,0.1692152033929715,nan
1740789341.780374,0.3100399599921422,-0.22191296751123754,0.2569219981612091,0.16666253657506883,nan
1740789341.7842798,0.3159797131804095,-0.20528008693408678,0.24431014748144866,0.16207393016248955,nan
1740789341.7881856,0.3202366799126003,-0.18590852674915975,0.229422875704144,0.15555168330722724,nan
1740789341.7920914,0.32284336494929267,-0.16392062983423317,0.21244710370553568,0.14721856693119956,nan
1740789341.7959974,0.3238471486655711,-0.13946664273530418,0.19358942578411675,0.13721662321196984,nan
1740789341.7999032,0.3233096644920515,-0.11272326453157719,0.17307381327624383,0.12570576364379052,nan
1740789341.8038125,0.3213060332105456,-0.08389192339046615,0.15113915426180075,0.1128621790158482,nan
1740789341.8077183,0.31792396222169617,-0.05319679814623343,0.12803665518737362,0.0988765766055375,nan
1740789341.8116243,0.31326271929658833,-0.020882604828498606,0.10402713154457491,0.08395226169317317,nan
1740789341.81553,0.30743199162178225,0.012787829540912411,0.07937821577533494,0.06830308214719631,nan
1740789341.8194358,0.3005506421335662,0.04753618139653329,0.05436151132407745,0.05215125628843873,nan
1740789341.8233418,0.29274537620045427,0.08307140691569773,0.02924972221181483,0.03572510550315921,nan
1740789341.8272476,0.28414933264181985,0.11909265207973324,0.00431378766512661,0.019256714123941143,nan
1740789341.8311534,0.2749006138553371,0.1552922670739353,-0.02017994880744425,0.0029795399238794823,nan
1740789341.8350594,0.2651407704584691,0.19135889451390592,-0.04397250693593826,-0.012874000836236738,nan
1740789341.8389652,0.25501325632269617,0.226980600217036,-0.06681494557954512,-0.028074949512689962,nan
1740789341.842871,0.24466187018869992,0.261848014784384,-0.08847091977298432,-0.04240019792830921,nan
1740789341.846777,0.23422920019260493,0.29565745412494443,-0.10871909300087074,-0.05563483369255626,nan
1740789341.8506887,0.22385508760629247,0.3281139872425976,-0.12735538031885751,-0.06757441409587193,nan
1740789341.8545945,0.21367512589844492,0.3589344201143779,-0.14419499973163646,-0.07802714530160816,nan
1740789341.8585002,0.20381921085945814,0.3878501653120249,-0.15907431125527424,-0.08681594441478935,nan
1740789341.8624063,0.19441015700595393,0.4146099681491528,-0.1718524253146471,-0.09378036309166372,nan
1740789341.866312,0.18556239479467443,0.43898246156250914,-0.18241256453317894,-0.098778352657171,nan
1740789341.8702178,0.17738076233783245,0.46075852364361136,-0.1906631655373284,-0.10168785220692667,nan
1740789341.8741238,0.16995940433095863,0.47975341370962943,-0.19653871009641044,-0.10240818287164899,nan
1740789341.8780296,0.16338078978981033,0.4958086650199218,-0.20000027772199355,-0.10086123329873009,nan
1740789341.8819354,0.15771485895632711,0.508793714685228,-0.2010358147320122,-0.09699242343974673,nan
1740789341.8858411,0.15301830838743938,0.5186072539556055,-0.19966011771374348,-0.09077143590425124,nan
1740789341.8897471,0.1493340217985541,0.5251782848844984,-0.19591453226724756,-0.08219270642792788,nan
1740789341.893653,0.14669065271042528,0.5284668723217223,-0.18986637084713803,-0.07127566738469933,nan
1740789341.8975618,0.14510236335953816,0.5284645832578647,-0.1816080564157292,-0.0580647407239841,nan
1740789341.9014676,0.14456872269431278,0.525194608696135,-0.17125600144569417,-0.042629079211975,nan
1740789341.9053733,0.145074764609329,0.5187115664330725,-0.15894923453650892,-0.02506205737438297,nan
1740789341.9092793,0.14659120588449728,0.5091009863548024,-0.14484778950881652,-0.005480516052811132,nan
1740789341.9131851,0.14907482161315275,0.4964784830680823,-0.12913087428788492,0.015976233027725113,nan
1740789341.917091,0.1524689742398066,0.48098862385297514,-0.11199483915687065,0.03914763385134783,nan
1740789341.9209967,0.15670429070208178,0.4628035030146018,-0.09365096602952873,0.06385333268261537,nan
1740789341.9249027,0.16169948059904826,0.44212103669390973,-0.07432310223926367,0.0898948311852347,nan
1740789341.9288085,0.16736228680624737,0.41916299504161963,-0.054245163948283874,0.11705733053215084,nan
1740789341.9327142,0.17359055854188057,0.39417279133654914,-0.033658535630472046,0.14511174897344978,nan
1740789341.9366202,0.1802734355737882,0.3674130501123913,-0.012809393160759873,0.17381689351828486,nan
1740789341.940526,0.18729263105690586,0.33916297862034006,0.008054021158981812,0.20292176476296184,nan
1740789341.9444265,0.19452379941863468,0.3097155679756689,0.02868414280057774,0.2321679724762833,nan
1740789341.9483323,0.20183797477634474,0.2793746520939157,0.048836819388402695,0.26129223835013016,nan
1740789341.9522383,0.20910306458732678,0.248451853998422,0.06827400629501126,0.29002896135108,nan
1740789341.956144,0.21618538260529613,0.21726345026063276,0.08676639487644748,0.3181128203779714,nan
1740789341.9600499,0.22295120475609626,0.18612718520523888,0.10409594544860254,0.34528138844916023,nan
1740789341.9639559,0.22926833125390525,0.15535906706482644,0.1200582980719279,0.3712777324173947,nan
1740789341.9678617,0.2350076381613912,0.12527017849718333,0.13446503545593586,0.3958529722430585,nan
1740789341.9717674,0.24004460165492772,0.09616353377984409,0.14714577380492164,0.418768774148672,nan
1740789341.9756734,0.24426077848893832,0.06833101457148716,0.157950059187349,0.43979975252704795,nan
1740789341.9795792,0.24754522655998432,0.042050415382068114,0.1667490490059117,0.4587357562779853,nan
1740789341.983485,0.24979585004775584,0.017582628830105983,0.17343696035350437,0.47538401629671084,nan
1740789341.987391,0.2509206543511802,-0.004831000603455098,0.17793226944024348,0.4895711321221305,nan
1740789341.991299,0.25083889693644856,-0.024971127276646743,0.18017864884419246,0.5011448772622266,nan
1740789341.9952047,0.24948212126113656,-0.042642634432345075,0.18014563204793535,0.5099758044338094,nan
1740789341.9991107,0.24679506212434824,-0.05767662067212223,0.17782899754719794,0.5159586338675817,nan
1740789342.0030165,0.24273641210535507,-0.06993212237139876,0.17325086772812662,0.5190134099192615,nan
1740789342.0069222,0.2372794401792902,-0.07929755419025988,0.16645952067705,0.519086413472844,nan
1740789342.0108283,0.23041245512374864,-0.08569185266052899,0.15752891608057662,0.516150820001458,nan
1740789342.014734,0.2221391079394287,-0.0890653108129395,0.14655793936453973,0.5102070956414732,nan
1740789342.0186398,0.2124785291845562,-0.08940009491869642,0.13366937117688582,0.501283126212163,nan
1740789342.0225458,0.2014652988499604,-0.08671043762635695,0.11900859221227407,0.48943407675104644,nan
1740789342.0264516,0.1891492481615343,-0.08104250504566868,0.10274203617517436,0.47474198180809135,nan
1740789342.0303574,0.1755950944711804,-0.07247393863183312,0.08505540635492286,0.45731506942363237,nan
1740789342.0342634,0.16088191216810316,-0.06111307602354546,0.06615167381298338,0.437286824378688,nan
1740789342.0381706,0.1451024442909395,-0.047097858252774176,0.04624887753347222,0.4148147989256404,nan
1740789342.0420766,0.12836226122950198,-0.030594433940494388,0.025577749038231852,0.39007918175575435,nan
1740789342.0459824,0.11077877455503593,-0.011795474188309141,0.00437918589508144,0.3632811384121915,nan
1740789342.0498881,0.09248011559233749,0.009081785160549583,-0.017098399768187788,0.33464093868807254,nan
1740789342.0537941,0.07360388982932431,0.03179775441604104,-0.038601830208823164,0.304395888735297,nan
1740789342.0577,0.05429581963369102,0.05609293200675707,-0.059875979791884464,0.27279808762861824,nan
1740789342.0616057,0.03470828899750384,0.08169055303805235,-0.08066663195295479,0.24011202996038217,nan
1740789342.0655117,0.01499880514526246,0.10829941781456129,-0.1007233453054565,0.20661207766519032,nan
1740789342.0694175,-0.004671607193091237,0.13561687181306417,-0.11980229854590692,0.17257982567358102,nan
1740789342.0733232,-0.024140062236381,0.16333190699021946,-0.13766908386876317,0.1383013871547758,nan
1740789342.0772293,-0.04324350308813269,0.19112835300945671,-0.15410141897152294,0.10406462501803983,nan
1740789342.081135,-0.061820407447490164,0.21868812598621595,-0.16889174840775925,0.07015635699008316,nan
1740789342.0850422,-0.07971249110908596,0.24569450169144566,-0.18184970602551945,0.03685956196469962,nan
1740789342.088948,-0.09676639117259668,0.2718353798274216,-0.19280441150227715,0.0044506154254896615,nan
1740789342.0928538,-0.11283531097749253,0.29680650600173114,-0.20160657554397818,-0.026803418429165747,nan
1740789342.0967598,-0.1277806090614148,0.3203146183754104,-0.20813039014023596,-0.056647410677224654,nan
1740789342.1006656,-0.14147331490987308,0.34208048664727847,-0.21227518234318282,-0.08484068131865942,nan
1740789342.1045713,-0.1537955549168673,0.361841812052428,-0.21396681234429799,-0.1111593771009816,nan
1740789342.1084774,-0.16464187280489814,0.3793559583893609,-0.21315879913940225,-0.1353986892947239,nan
1740789342.1123831,-0.17392042975126307,0.3944024857348579,-0.20983315977276623,-0.15737488868074026,nan
1740789342.116289,-0.18155407062625653,0.40678546044267955,-0.20400095101057736,-0.17692715673600692,nan
1740789342.1201947,-0.18748124405692762,0.416335517232941,-0.1957025052838875,-0.19391919394656867,nan
1740789342.1241007,-0.19165676547493382,0.42291165164203615,-0.18500735583226305,-0.20824058831696643,nan
1740789342.1280065,-0.19405241387469696,0.42640272379425276,-0.17201384914105328,-0.21980792946463457,nan
1740789342.1319134,-0.19465735468317433,0.4267286573492599,-0.15684844596620443,-0.22856565616311758,nan
1740789342.1358192,-0.19347838290857292,0.4238413205459256,-0.1396647154487701,-0.2344866278056988,nan
1740789342.139725,-0.1905399825746413,0.4177250794720472,-0.12064203000475957,-0.2375724129758218,nan
1740789342.1436307,-0.18588420034138753,0.40839701700968456,-0.09998397180240517,-0.23785329110619907,nan
1740789342.1475368,-0.1795703331429321,0.39590681430354985,-0.0779164646768653,-0.23538796605714393,nan
1740789342.1514425,-0.17167443161932502,0.3803362950415947,-0.05468564825071078,-0.23026299331867292,nan
1740789342.1553483,-0.16228862306134412,0.3617986362875765,-0.030555513797431183,-0.22259192541161726,nan
1740789342.1592543,-0.15152025950578607,0.3404372530304711,-0.005805323976033554,-0.21251418290206503,nan
1740789342.16316,-0.1394908984935196,0.316424366980242,0.019273159049397078,-0.20019366122241397,nan
1740789342.1670659,-0.1263351258140442,0.2899592734095511,0.044378610435611726,-0.18581708618340054,nan
1740789342.1709719,-0.11219923128941098,0.2612663229830817,0.06920321585935478,-0.16959213363738548,nan
1740789342.1748776,-0.09723975027874251,0.23059263849800848,0.09343585088848883,-0.15174533118796554,nan
1740789342.1787868,-0.0816218850947275,0.198205589250031,0.1167653349862829,-0.13251976210952057,nan
1740789342.1826928,-0.06551782189898071,0.1643900483103405,0.13888372757928463,-0.11217259371948474,nan
1740789342.1865985,-0.049104959868936975,0.12944546032303472,0.15948963290733273,-0.09097245431414978,nan
1740789342.1905043,-0.032564070491134,0.09368274948532102,0.1782914799905164,-0.06919668441613289,nan
1740789342.1944103,-0.016077405722303127,0.05742109913248969,0.19501074399816362,-0.04712848947080088,nan
1740789342.198316,0.00017322553996472885,0.020984635797076955,0.20938507559194647,-0.02505402225486066,nan
1740789342.2022219,0.01600839272972402,-0.015300948269159011,0.22117130543832278,-0.003259424110381783,nan
1740789342.206128,0.03125297037719175,-0.051111799343572795,0.23014829204089127,0.0179721453181017,nan
1740789342.2100337,0.0457380360166392,-0.08612929805648627,0.2361195823235018,0.038363459894296556,nan
1740789342.2139394,0.05930271900060716,-0.12004341152416219,0.23891585598984075,0.05764613042519397,nan
1740789342.2178454,0.07179598030471572,-0.15255596681155176,0.23839712658093448,0.07556343012119282,nan
1740789342.2217512,0.08307830393687497,-0.1833838113899696,0.23445467433202818,0.09187301310318303,nan
1740789342.22566,0.09302328129880796,-0.212261827252007,0.22701268837503985,0.10634949789209802,nan
1740789342.2295659,0.10151907078080893,-0.23894576668752748,0.2160295985199811,0.11878688901509411,nan
1740789342.2334716,0.10846971599474836,-0.2632148793985335,0.2014990797536929,0.12900081133601607,nan
1740789342.2373776,0.11379630735573597,-0.2848743026219771,0.18345071568978943,0.13683053345296184,nan
1740789342.2412834,0.11743797319794076,-0.3037571882196113,0.16195031046089012,0.14214075848713142,nan
1740789342.2451892,0.11935268824125125,-0.3197265432612816,0.13709984193212543,0.14482316279626437,nan
1740789342.2490952,0.11951788899767314,-0.33267676344816843,0.10903705260123137,0.14479766556256127,nan
1740789342.253001,0.11793088760277397,-0.3425348417682801,0.07793467810185983,0.1420134148060992,nan
1740789342.2569067,0.1146090775600771,-0.3492612380185943,0.04399931680865005,0.1364494781359726,nan
1740789342.2608128,0.1095899269756248,-0.35285039823491476,0.007469947620372604,0.1281152294461257,nan
1740789342.2647185,0.10293075701568927,-0.3533309166084434,-0.031383893464019263,0.11705042576346972,nan
1740789342.2686243,0.09470830552153132,-0.3507653361023393,-0.072264263897111,0.10332497153315583,nan
1740789342.272533,0.0850180779393142,-0.3452495876760304,-0.11484727482715579,0.08703837075000685,nan
1740789342.2764387,0.07397348994848377,-0.3369120717430633,-0.15878584038512916,0.06831887048534802,nan
1740789342.2803445,0.06170480837566278,-0.32591238919232074,-0.20371269232545605,0.047322302483970874,nan
1740789342.2842505,0.04835789914081954,-0.3124397329554183,-0.2492436334965415,0.024230632585682612,nan
1740789342.2881563,0.03409279307594183,-0.2967109546676511,-0.29498100101696373,-0.0007497692709491011,nan
1740789342.292062,0.01908208246185938,-0.27896832440991404,-0.3405173076942086,-0.027390122808508558,nan
1740789342.295968,0.0035091630251705376,-0.2594770047989801,-0.3854390281698062,-0.05544147651965935,nan
1740789342.2998738,-0.01243366209591955,-0.23852226377954724,-0.4293304945297954,-0.08463717111407776,nan
1740789342.3037796,-0.02854719828959097,-0.2164064533312911,-0.4717778647017698,-0.11469550388694558,nan
1740789342.3076856,-0.044627475732884926,-0.19344578390760123,-0.5123731258855437,-0.14532256840297256,nan
1740789342.3115914,-0.06046794512981287,-0.16996692674194866,-0.5507180945467802,-0.1762152419393859,nan
1740789342.3154972,-0.07586173100402224,-0.14630347816775577,-0.5864283741513158,-0.2070642914406095,nan
1740789342.3194056,-0.09060391976282625,-0.1227923217760588,-0.6191372318386374,-0.23755756732499847,nan
1740789342.3233113,-0.10449385910827631,-0.0997699255629549,-0.6484993556286576,-0.2673832533658436,nan
1740789342.3272173,-0.11733744495954651,-0.07756861218031177,-0.6741944545256152,-0.29623314005798107,nan
1740789342.331123,-0.12894937187583358,-0.056512840986090204,-0.6959306650221377,-0.3238058883879584,nan
1740789342.335029,-0.1391553230345301,-0.03691554078659668,-0.7134477290070436,-0.34981025075690786,nan
1740789342.3389347,-0.1477940761275847,-0.019074531967178805,-0.7265199099307822,-0.373968215965121,nan
1740789342.3428407,-0.15471950208925206,-0.003269076119557359,-0.7349586162674067,-0.39601804565659243,nan
1740789342.3467464,-0.15980243435806565,0.010243409703898,-0.7386147038132826,-0.41571717043818107,nan
1740789342.3506522,-0.1629323873996228,0.021230438339132584,-0.7373804311588832,-0.43284491502587735,nan
1740789342.3545582,-0.16401910446706344,0.02948730342521939,-0.7311910457365348,-0.44720502322129185,nan
1740789342.358464,-0.162993916043017,0.034839663937415354,-0.7200259811565554,-0.45862795527290773,nan
1740789342.3623698,-0.15981089207824647,0.03714583281998041,-0.7039096500673186,-0.4669729322141251,nan
1740789342.366278,-0.15444777300388726,0.0362987429470753,-0.6829118204792634,-0.47212970407577887,nan
1740789342.3701837,-0.14690666652980783,0.032227566679671873,-0.6571475673449845,-0.4740200214242222,nan
1740789342.3740897,-0.1372144994330629,0.024898968590890705,-0.6267767951516706,-0.47259879245407704,nan
1740789342.3779955,-0.12542321586775895,0.014317974470810008,-0.592003331321557,-0.4678549108420589,nan
1740789342.3819013,-0.111609716169535,0.0005284434612152111,-0.5530735942928717,-0.4598117427172763,nan
1740789342.3858073,-0.09587553266145547,-0.01638686592443366,-0.5102748442296319,-0.4485272643947071,nan
1740789342.389713,-0.07834624156958342,-0.036306641107792484,-0.46393302834490596,-0.43409384592119954,nan
1740789342.3936188,-0.05917061280100261,-0.059071773169353664,-0.41441023678031,-0.4166376789649978,nan
1740789342.3975248,-0.038519501999078824,-0.08448652390846434,-0.362101788826436,-0.39631785110717904,nan
1740789342.4014306,-0.016584491944418037,-0.11232009498011139,-0.30743297295751587,-0.37332507213247457,nan
1740789342.4053364,0.006423707010907612,-0.14230858770310434,-0.2508554676527782,-0.34788006143341743,nan
1740789342.4092424,0.03027708522977499,-0.1741573380628172,-0.19284347325229464,-0.3202316091011466,nan
1740789342.4131496,0.05473237607879337,-0.20754360747526393,-0.13388958811401558,-0.2906543266444479,nan
1740789342.4170556,0.07953329514057726,-0.24211960607804947,-0.07450046507078235,-0.2594461065221881,nan
1740789342.4209614,0.10441295704598105,-0.2775158217063725,-0.015192286603503797,-0.22692531276066288,nan
1740789342.4248672,0.12909644855737898,-0.313344624335994,0.04351390077571435,-0.1934277278252433,nan
1740789342.4287732,0.15330353465006577,-0.34920411266508955,0.10109695072098603,-0.15930328359537693,nan
1740789342.432679,0.17675147265668023,-0.3846821666961298,0.15704043628611644,-0.12491260672557916,nan
1740789342.4365847,0.19915790807810543,-0.41936066769755687,0.21083747971073,-0.090623410836931,nan
1740789342.4404907,0.22024382444040194,-0.45281984480037485,0.26199554774466877,-0.056806769850391396,nan
1740789342.4443965,0.23973651860582423,-0.48464270574080986,0.3100411673811743,-0.02383330832438522,nan
1740789342.4483023,0.25737257223935595,-0.5144195079174887,0.3545245171744085,0.007930654123195997,nan
1740789342.4522083,0.2729007897005761,-0.5417522250068467,0.39502385004231677,0.03812696635891124,nan
1740789342.456114,0.2860850724816849,-0.5662589638866359,0.4311497045981156,0.06640947878409992,nan
1740789342.4600213,0.296707200451066,-0.5875782865631883,0.46254886360522396,0.09244780729010252,nan
1740789342.463927,0.304569490590209,-0.6053733921881662,0.4889080200998929,0.11593098974737633,nan
1740789342.4678328,0.309497304629575,-0.6193361150851666,0.5099571140579249,0.13657099726175198,nan
1740789342.4717388,0.3113413779929312,-0.6291906959818983,0.52547230517795,0.1541060634066551,nan
1740789342.4756446,0.3099799437437379,-0.6346972853513758,0.5352785503913247,0.16830379598117154,nan
1740789342.4795504,0.30532062678265864,-0.635655139893336,0.5392517580623114,0.1789640375408109,nan
1740789342.4834564,0.2973020853606883,-0.631905475718106,0.5373204944829447,0.18592144298785906,nan
1740789342.4873621,0.2858953790338934,-0.6233339447089685,0.5294672221634429,0.18904774487503992,nan
1740789342.491268,0.2711050444766826,-0.6098727038110946,0.5157290535369372,0.18825367975026813,nan
1740789342.4951737,0.25296986307218056,-0.591502050597243,0.4961980080003741,0.18349055182898313,nan
1740789342.4990797,0.23156330688947716,-0.5682516023611476,0.47102076466327086,0.1747514134984754,nan
1740789342.5029855,0.20699365251533053,-0.5402010001541786,0.44039790773277127,0.16207184560751722,nan
1740789342.5068922,0.1794037552073204,-0.5074801235720003,0.4045826660858719,0.1455303241440801,nan
1740789342.5107982,0.1489704789500584,-0.4702688066755902,0.3638791532259259,0.12524816372107883,nan
1740789342.514704,0.11590378119789152,-0.4287960501531205,0.3186401184479401,0.1013890322405568,nan
1740789342.5186098,0.08044545434768478,-0.3833387296519716,0.26926422460334853,0.07415803515423636,nan
1740789342.5225158,0.04286752927378972,-0.3342198050885028,0.21619287231755205,0.04380037184577678,nan
1740789342.5264215,0.0034703495437619844,-0.28180604063104747,0.15990659483101663,0.010599570789076643,nan
1740789342.5303273,-0.03741967181299842,-0.2265052499024459,0.10092105176671207,-0.025124685751107375,nan
1740789342.5342333,-0.07945259792157626,-0.1687630857157426,0.03978265403409003,-0.06301913265392335,nan
1740789342.538139,-0.12225779790500421,-0.10905939829427624,-0.022936144274442724,-0.10269986972885455,nan
1740789342.5420449,-0.16544703982554884,-0.047904190389965115,-0.08664184778954401,-0.14375566374136944,nan
1740789342.545951,-0.20861782277644056,0.014166798042873264,-0.15072517334852165,-0.18575157840645487,nan
1740789342.5498567,-0.2513569215401305,0.07659683897871016,-0.21456651017038417,-0.22823290262557094,nan
1740789342.553766,-0.2932441148008046,0.13881325893705998,-0.27754153956049654,-0.2707293440294493,nan
1740789342.557672,-0.3338560657038152,0.2002327314227166,-0.3390269651155981,-0.31275945194835486,nan
1740789342.5615778,-0.37277032161607776,0.26026677256198677,-0.3984063029607157,-0.35383523129300504,nan
1740789342.5654836,-0.4095693982803874,0.31832739074583527,-0.4550756805540942,-0.3934669065207751,nan
1740789342.5693896,-0.44384491219173644,0.37383283896367697,-0.5084495920565574,-0.43116779290769913,nan
1740789342.5732954,-0.47520172397132165,0.4262134168425184,-0.5579665581854647,-0.46645923076873186,nan
1740789342.5772011,-0.5032620547874623,0.47491726821537755,-0.6030946388642408,-0.4988755370849527,nan
1740789342.5811071,-0.5276695374828058,0.5194161193462987,-0.6433367478356812,-0.5279689282216131,nan
1740789342.585013,-0.5480931640216247,0.5592109027480733,-0.6782357197260722,-0.5533143670662745,nan
1740789342.5889187,-0.5642310911743431,0.5938372118498171,-0.7073790818185476,-0.5745142879889836,nan
1740789342.5928247,-0.5758142670101549,0.6228705326067041,-0.7304034850047759,-0.591203153529923,nan
1740789342.5967305,-0.5826098417709309,0.6459311994907508,-0.746998751016984,-0.6030517976537181,nan
1740789342.6006393,-0.5844243280457724,0.662689025151919,-0.756911496076122,-0.6097715117690552,nan
1740789342.604545,-0.5811064768473126,0.6728675553807348,-0.7599482945020491,-0.6111178314890107,nan
1740789342.6084511,-0.5725498381971473,0.6762479038200435,-0.7559783495894673,-0.6068939842891852,nan
1740789342.612357,-0.5586949771441582,0.6726721241429855,-0.7449356431274097,-0.5969539607911558,nan
1740789342.6162627,-0.5395313187488517,0.6620460811108736,-0.7268205392958219,-0.5812051753381138,nan
1740789342.6201687,-0.5150985984490595,0.6443417860182812,-0.7017008232727728,-0.5596106848143816,nan
1740789342.6240745,-0.4854878973547191,0.6195991664894446,-0.6697121596905787,-0.5321909382641173,nan
1740789342.6279802,-0.4508422453768009,0.5879272453723421,-0.631057961046815,-0.49902503375706525,nan
1740789342.6318862,-0.4113567786501883,0.5495047085437345,-0.5860086612636528,-0.4602514630979325,nan
1740789342.635792,-0.36727844143306526,0.5045798467461355,-0.5349003947515056,-0.41606832934563603,nan
1740789342.6396978,-0.3189052265246249,0.45346986207978585,-0.4781330865252645,-0.3667330266616054,nan
1740789342.6436038,-0.2665849522059822,0.39655953542060524,-0.4161679640975448,-0.3125613767030567,nan
1740789342.6475122,-0.21071357774180288,0.33429925677862543,-0.3495245069874136,-0.25392622057657305,nan
1740789342.6514182,-0.1517330635474175,0.26720242639891423,-0.2787768546894839,-0.19125547022689232,nan
1740789342.655324,-0.09012878619229789,0.1958422401862683,-0.20454969880233895,-0.12502962801252157,nan
1740789342.6592298,-0.026426522439762328,0.1208478787532311,-0.12751368967331925,-0.055778788069702004,nan
1740789342.6631358,0.038810979521405234,0.042900124995823095,-0.04838039233686513,0.01592086215427421,nan
1740789342.6670415,0.10498781965077775,-0.03727355945911433,0.03210316933422587,0.08945101715192753,nan
1740789342.6709473,0.17147913072985393,-0.11890446336760371,0.1131603375187393,0.1641556778354267,nan
1740789342.6748533,0.23763559890467373,-0.20118852001768295,0.19399096815646957,0.23934599337988166,nan
1740789342.678759,0.30278828755258824,-0.2832926212425429,0.2737778521622703,0.31430548449279505,nan
1740789342.6826649,0.366253728856231,-0.364361301837231,0.35169335814817004,0.38829560837756805,nan
1740789342.6865706,0.4273392446671261,-0.4435237410281878,0.4269062424118693,0.4605616221770591,nan
1740789342.6904767,0.48534845573948,-0.5199010241915953,0.4985885701628292,0.530338698547884,nan
1740789342.6943848,0.5395869362363805,-0.5926136050349728,0.5659226906453827,0.5968582442580088,nan
1740789342.6982906,0.5893679685780338,-0.6607889059773142,0.6281082079951658,0.6593543703467681,nan
1740789342.7021964,0.6340183522341621,-0.7235689925126964,0.6843688893395465,0.7170704604617636,nan
1740789342.7061024,0.6728842189765769,-0.7801182559424754,0.7339594518292774,0.7692657825116442,nan
1740789342.7100081,0.7053368064162562,-0.829631038028853,0.7761721709673938,0.815222087763976,nan
1740789342.713914,0.7307781413617525,-0.8713391308697389,0.810343253778219,0.8542501409858492,nan
1740789342.71782,0.7486465846587004,-0.9045190856282589,0.8358589220254656,0.8856961251798378,nan
1740789342.7217257,0.7584221897062462,-0.9284992646715895,0.8521611528309061,0.9089478649134513,nan
1740789342.7256315,0.7596318277945823,-0.9426665731793573,0.8587530266466032,0.92344081317606,nan
1740789342.7295375,0.7518540347638976,-0.9464728083627281,0.8552036355730275,0.9286637481187862,nan
1740789342.7334433,0.734723535240941,-0.9394405670773938,0.8411525084672046,0.92416412793107,nan
1740789342.737349,0.7079354028533354,-0.9211686557976827,0.8163135131206349,0.9095530544693698,nan
1740789342.741257,0.6712488173388418,-0.8913369506207995,0.7804781999735875,0.8845097990612475,nan
1740789342.745163,0.624490382338373,-0.8497106591607639,0.7335185563352399,0.8487858471405897,nan
1740789342.7490687,0.5675569708662014,-0.7961439408374098,0.6753891448596455,0.8022084220015434,nan
1740789342.7529745,0.5004180689637101,-0.7305828471291643,0.6061286050448939,0.7446834519609578,nan
1740789342.7568805,0.42311759183678344,-0.6530675487974004,0.5258605017342661,0.6761979495593847,nan
1740789342.7607863,0.33577515082129383,-0.5637338228598338,0.43479350995896054,0.5968217760733692,nan
1740789342.764692,0.23858675378370464,-0.4628137781420604,0.33322093092611277,0.5067087695186028,nan
1740789342.7685978,0.13182492600992243,-0.35063580451880166,0.22151953947643044,0.4060972194535342,nan
1740789342.7725039,0.015838243228806018,-0.22762373741605493,0.10014776886526727,0.2953096772032207,nan
1740789342.7764096,-0.10894972688071361,-0.094295235726749,-0.03035675578817765,0.17475209556872115,nan
1740789342.7803154,-0.24204207357721866,0.04874062206113902,-0.16938031863388336,0.04491229762187788,nan
1740789342.7842214,-0.382870776414409,0.20078651207143833,-0.3162368267841698,-0.09364222023825858,nan
1740789342.7881289,-0.5307995123511702,0.3610607915261921,-0.4701721094503675,-0.2402671402207627,nan
1740789342.7920349,-0.6851270211544126,0.5287021529619849,-0.6303687705335372,-0.39424481380694776,nan
1740789342.7959406,-0.8450910089838501,0.7027749752982041,-0.7959515580707399,-0.5547883694657026,nan
1740789342.7998464,-1.0098725655276881,0.8822753347727503,-0.965993209632563,-0.7210464104766567,nan
1740789342.8037524,-1.1786010657076575,1.0661376329303733,-1.1395207288021876,-0.8921082708467799,nan
1740789342.8076582,-1.3503595228287626,1.253241793346779,-1.3155220442751323,-1.0670097924741369,nan
1740789342.811564,-1.5241903561494687,1.44242097364745,-1.4929529999327331,-1.244739582162466,nan
1740789342.81547,-1.6991015322260699,1.6324697346800106,-1.6707446214884867,-1.4242457028621545,nan
1740789342.8193758,-1.8740730360725564,1.8221526044658942,-1.8478106030081096,-1.6044427496447196,nan
1740789342.8232815,-2.0480636252040236,2.0102129708299437,-2.0230549547808057,-1.7842192574436828,nan
1740789342.8271875,-2.2200178170240736,2.195382233419916,-2.195379752686154,-1.9624453845460732,nan
1740789342.8310933,-2.388873057798714,2.376389143211905,-2.3636929283690677,-2.137980813223448,nan
1740789342.8350003,-2.553567019651234,2.5519692555773967,-2.526916039211074,-2.3096828067731794,nan
1740789342.8389063,-2.7130449706317097,2.720874421583163,-2.6839919572718367,-2.4764143606196884,nan
1740789342.842812,-2.866267161974656,2.881882241421186,-2.83389241706807,-2.637052384016919,nan
1740789342.8467178,-3.0122161761686894,3.0338054037314843,-2.9756253632510377,-2.7904958483087987,nan
1740789342.8506238,-3.1499041794290905,3.1755008350898026,-3.108242040927713,-2.93567383765055,nan
1740789342.8545296,-3.278380022589961,3.30587858508275,-3.2308437735288407,-3.0715534385725496,nan
1740789342.8584354,-3.396736135315608,3.423910374177462,-3.3425883757405144,-3.1971474057776237,nan
1740789342.8623414,-3.5041151598653917,3.528637733998333,-3.442696152060749,-3.311521543095112,nan
1740789342.8662472,-3.5997162724229854,3.6191796726310983,-3.5304554349920965,-3.413801740559271,nan
1740789342.870153,-3.6828011422067903,3.694739801160846,-3.605227620705017,-3.503180611119579,nan
1740789342.874059,-3.7526994811962306,3.7546128617863306,-3.6664516641707237,-3.5789236735058676,nan
1740789342.8779647,-3.8088141403183977,3.7981906025046177,-3.713648000230166,-3.640375031237792,nan
1740789342.8818715,-3.8506257113173277,3.8249669484890756,-3.7464218617983804,-3.6869625016571654,nan
1740789342.8857775,-3.877696597247181,3.8345424258474803,-3.7644659713594986,-3.718202153141583,nan
1740789342.8896832,-3.8896745185607755,3.826627799399179,-3.7675625870440306,-3.7337022132926507,nan
1740789342.893589,-3.8862954260738776,3.801046892400587,-3.7555848898521327,-3.7331663158437696,nan
1740789342.897495,-3.8673857966382306,3.757738562724179,-3.728497703948826,-3.7163960592593357,nan
1740789342.9014008,-3.8328642921156075,3.696757816801607,-3.686357547363312,-3.683292855455657,nan
1740789342.9053066,-3.7827427671719582,3.618276049619344,-3.629312015828336,-3.633859052718189,nan
1740789342.9092126,-3.717126616464966,3.522580406145727,-3.557598507850578,-3.5681983226723264,nan
1740789342.9131184,-3.6362144569381174,3.4100722667114836,-3.47154230436384,-3.486515307037385,nan
1740789342.9170241,-3.5402971461176436,3.2812648660005794,-3.3715540214386985,-3.389114525806157,nan
1740789342.9209301,-3.429756142492618,3.1367800623740227,-3.2581264594621406,-3.276398554395649,nan
1740789342.924836,-3.30506121920012,2.977344281185456,-3.1318308769169785,-3.1488654831586333,nan
1740789342.928745,-3.1667675472945374,2.803783662495011,-2.993312721344506,-3.0071056783812717,nan
1740789342.9326508,-3.015512169810588,2.617018450089057,-2.843286854227899,-2.8517978694707735,nan
1740789342.9365568,-2.852009892593085,2.4180566649128226,-2.6825323103544734,-2.683704592412221,nan
1740789342.9404626,-2.6770486224231402,2.207987111867208,-2.511886635671127,-2.5036670246997486,nan
1740789342.9443684,-2.4914841872829716,1.9879717743606684,-2.33223985071166,-2.312599251781405,nan
1740789342.9482744,-2.2962346776340223,1.7592376559952332,-2.1445280893231424,-2.1114820095586424,nan
1740789342.9521801,-2.092274351302412,1.5230681332601874,-1.9497269646310549,-1.9013559516127132,nan
1740789342.956086,-1.8806271479413184,1.2807938870691455,-1.7488447159432754,-1.6833144935570798,nan
1740789342.959992,-1.6623598620438729,1.0337834843727864,-1.5429151915889892,-1.4584962902060072,nan
1740789342.9638977,-1.4385750260880157,0.7834336838814523,-1.3329907235123002,-1.2280774040779414,nan
1740789342.9678035,-1.210403557585268,0.5311595421156324,-1.1201349497879969,-0.9932632260945915,nan
1740789342.9717095,-0.9789972255607545,0.2783843975497932,-0.9054156410988811,-0.7552802111741143,nan
1740789342.9756184,-0.7455209932980348,0.0265298115133182,-0.6898975866151409,-0.515367492734562,nan
1740789342.9795241,-0.5111452950291876,-0.22299445524551217,-0.4746355936550679,-0.2747684409119008,nan
1740789342.9834301,-0.27703830463162527,-0.4688003518420294,-0.26066765399586816,-0.03472222954961023,nan
1740789342.987336,-0.044358254306018044,-0.7095312549624744,-0.04900832776005762,0.2035445232666114,nan
1740789342.9912417,0.1857541393441421,-0.9438714192864484,0.15935760655254924,0.43882597717177474,nan
1740789342.9951477,0.4121830854258998,-1.1705550872548374,0.36348119006113194,0.6699450913655648,nan
1740789342.9990535,0.6338449101247247,-1.3883751877603572,0.562454966807242,0.895761385573247,nan
1740789343.0029593,0.8496949762944378,-1.5961915568654494,0.7554182730799527,1.1151783817066545,nan
1740789343.006865,1.058734280564635,-1.7929386177294298,0.9415620972112307,1.327150670629105,nan
1740789343.010771,1.2600156799907556,-1.977632461517684,1.1201334782863874,1.5306905516970117,nan
1740789343.0146768,1.4526497033797736,-2.149377276130062,1.2904394164359676,1.7248741964390106,nan
1740789343.0185826,1.6358099058835813,-2.307371075079183,1.4518502717829451,1.9088472918079893,nan
1740789343.0224915,1.808737729232885,-2.450910684724149,1.6038026336721434,2.081830122866765,nan
1740789343.0263975,1.9707468340544418,-2.579395954270096,1.7458016464657367,2.243122059505393,nan
1740789343.0303032,2.1212268750391137,-2.6923331594252518,1.877422782907653,2.3921054167961353,nan
1740789343.034209,2.25964669427072,-2.789337577308435,1.9983130607982167,2.5282486638272657,nan
1740789343.038115,2.385556912747563,-2.870135217063477,2.108191703436381,2.6511089612739984,nan
1740789343.0420208,2.498591904989943,-2.9345636976035943,2.206850248938908,2.7603340135170584,nan
1740789343.0459266,2.5984711465870562,-2.9825722709183697,2.2941521180931117,2.855663226759208,nan
1740789343.0498323,2.6849999295536824,-3.014220996368728,2.3700316548030944,2.936928170268943,nan
1740789343.0537384,2.7580694453992347,-3.029679078311145,2.4344926574109564,3.00405234355032,nan
1740789343.0576441,2.817656240816923,-3.0292223861725893,2.4876064231787254,3.057050257850203,nan
1740789343.06155,2.8638210558376604,-3.0132301826846137,2.529509331970131,3.0960258459217176,nan
1740789343.065456,2.8967070591209083,-2.9821810923230574,2.5603999986432187,3.1211702193189983,nan
1740789343.069364,2.9165374997333897,-2.936648348035575,2.580536026827055,3.1327587976586315,nan
1740789343.0732698,2.923612799258102,-2.877294360022224,2.5902303995835534,3.1311478392044974,nan
1740789343.0771756,2.918307112343861,-2.8048646556173873,2.5898475449272613,3.1167704067744264,nan
1740789343.0810816,2.901064387815254,-2.7201812441608006,2.5797991162735308,3.0901318072911863,nan
1740789343.0849874,2.8723939661822318,-2.624135465101886,2.5605395295943127,3.0518045472714834,nan
1740789343.0888932,2.8328657527881926,-2.5176803814198796,2.5325613003702885,3.0024228501334105,nan
1740789343.0927992,2.7831050088886657,-2.4018227837318027,2.496390224330769,2.942676784376327,nan
1740789343.096705,2.723786805636001,-2.2776148731757964,2.4525804464658836,2.873306054423225,nan
1740789343.1006107,2.6556301882386792,-2.146145693278176,2.40170946287947,2.795093508193339,nan
1740789343.1045167,2.579392099449995,-2.008532382523776,2.344373099730162,2.708858417275605,nan
1740789343.1084225,2.4958611130067956,-1.8659113202410376,2.281180512790571,2.615449586889214,nan
1740789343.1123283,2.405851028675043,-1.7194292386816317,2.2127492500519508,2.5157383536378677,nan
1740789343.1162364,2.310194381159269,-1.5702343738205156,2.1397004183292445,2.4106115293858807,nan
1740789343.1201422,2.2097359152955667,-1.4194677264329973,2.062653992997716,2.3009643494075593,nan
1740789343.124048,2.1053260796741013,-1.2682545034326593,1.9822243078387536,2.187693482291562,nan
1740789343.1279538,1.997814590132744,-1.1176958072953889,1.8990157595134665,2.0716901579284857,nan
1740789343.1318598,1.8880441134372947,-0.9688606386726125,1.8136187584453611,1.953833468286281,nan
1740789343.1357656,1.7768441199285916,-0.8227782740385295,1.7266059549070816,1.8349838936019567,nan
1740789343.1396713,1.6650249519885676,-0.6804310764535197,1.6385287659022902,1.7159771041106868,nan
1740789343.1435773,1.5533721528754065,-0.5427477932951386,1.5499142250454736,1.597618084520165,nan
1740789343.147483,1.4426410978248099,-0.41059739014931995,1.461262174104221,1.4806756251472244,nan
1740789343.151389,1.3335519663353064,-0.2847834650112371,1.373042811216061,1.3658772199971103,nan
1740789343.155295,1.2267850912785054,-0.16603928156449763,1.2856946070614215,1.2539044081177766,nan
1740789343.1592007,1.122976716930526,-0.055023454638575435,1.1996225965025213,1.1453885903391887,nan
1740789343.163108,1.0227151942410335,0.04768368496072376,1.115197049421562,1.0409073490500709,nan
1740789343.167014,0.9265376376755906,0.14158302514069074,1.032752520746896,0.9409812940127275,nan
1740789343.17092,0.8349270638211768,0.2262588918396058,0.952587275978489,0.84607145241295,nan
1740789343.1748257,0.7483100276706685,0.3013805443694179,0.8749630849486459,0.7565772164300568,nan
1740789343.1787314,0.6670547681376069,0.36670294448352925,0.8001053731138925,0.6728348566358698,nan
1740789343.1826375,0.5914698699359581,0.4220668031345114,0.728203716400718,0.5951166045352185,nan
1740789343.1865432,0.521803444529312,0.4673979150564841,0.659412662551304,0.5236303025887225,nan
1740789343.190449,0.4582428284482874,0.5027057973285184,0.5938528590628084,0.4585196151545716,nan
1740789343.1943548,0.40091479293166354,0.5280816538964457,0.5316124652103101,0.39986478899276606,nan
1740789343.1982608,0.34988625460283135,0.5436956936010963,0.47274882331137313,0.3476839473339788,nan
1740789343.2021666,0.30516547278437334,0.5497938345336251,0.41729036234891503,0.3019348970658114,nan
1740789343.2060723,0.26670371511425084,0.5466938324689544,0.3652387053349485,0.26251742436928355,nan
1740789343.2099795,0.23439736938977884,0.5347808756753569,0.31657095038408434,0.22927605018340486,nan
1740789343.2138853,0.20809047606081402,0.5145026925245318,0.27124209438235153,0.2020032132183223,nan
1740789343.2177913,0.1875776525496573,0.48636422199896046,0.22918756739046728,0.18044284490761592,nan
1740789343.221697,0.17260737761775136,0.45092190038288776,0.19032584551439488,0.16429429771445023,nan
1740789343.2256029,0.1628856013513738,0.4087776201056649,0.15456110990959848,0.15321658560774012,nan
1740789343.2295089,0.15807964402021593,0.3605724188617386,0.12178591985529384,0.14683289332286825,nan
1740789343.2334146,0.15782234509103796,0.3069799587455979,0.09188386843431509,0.14473530923275144,nan
1740789343.2373204,0.1617164220672508,0.2486998562028264,0.06473219027281904,0.14648973529123654,nan
1740789343.2412264,0.1693389975848416,0.1864509241053582,0.04020429201880314,0.15164092658006612,nan
1740789343.2451322,0.18024625233258265,0.12096438721064678,0.018172177753090248,0.15971761249709474,nan
1740789343.249038,0.1939781608837412,0.05297713166608931,-0.001491256687747005,0.17023765156730464,nan
1740789343.252944,0.2100632674277489,-0.016774951917688442,-0.01891008446165298,0.18271317223555322,nan
1740789343.2568507,0.22802345867046078,-0.08756347396307941,-0.034203385268392894,0.19665565280328676,nan
1740789343.2607565,0.2473786918242808,-0.15867384429585235,-0.04748347895642358,0.2115808948890953,nan
1740789343.2646625,0.2676516366248229,-0.2294113103402315,-0.05885437181817848,0.22701384640985273,nan
1740789343.2685683,0.2883721916761447,-0.2991066851866519,-0.06841042942568622,0.24249323207654153,nan
1740789343.272474,0.30908183712604004,-0.3671217190961874,-0.07623528696861791,0.2575759517548186,nan
1740789343.27638,0.3293377876877386,-0.43285407190447944,-0.08240100508547551,0.2718412097297566,nan
1740789343.2802858,0.3487169123333378,-0.49574184803014565,-0.08696747615741703,0.284894340909224,nan
1740789343.2841916,0.36681938956360627,-0.5552676603361538,-0.08998208299539494,0.2963703032705161,nan
1740789343.2880976,0.38327206998243535,-0.6109621938927393,-0.09147960882683802,0.30593680936746487,nan
1740789343.2920034,0.39773152094441133,-0.6624072457007656,-0.09148239450972355,0.31329707343569757,nan
1740789343.2959092,0.4098867312709436,-0.709238221606574,-0.09000073600054137,0.3181921545257389,nan
1740789343.2998152,0.4194614574133095,-0.7511460769243453,-0.08703351230829716,0.32040288011978746,nan
1740789343.3037245,0.42621619594764576,-0.7878786926296648,-0.08256903150807014,0.31975133880980616,nan
1740789343.3076303,0.42994977088445774,-0.8192416843484529,-0.07658607989171064,0.31610193479315557,nan
1740789343.311536,0.43050052793024846,-0.8450986466887542,-0.06905515702542098,0.3093620011382195,nan
1740789343.315442,0.4277471315177026,-0.8653708407001401,-0.05993987738728828,0.29948197294739803,nan
1740789343.3193479,0.4216089640901053,-0.8800363373487247,-0.04919851739319359,0.286455125660077,nan
1740789343.3232536,0.41204613075213964,-0.8891286348188884,-0.03678568500530801,0.2703168877562354,nan
1740789343.3271596,0.3990590759505853,-0.8927347721515174,-0.02265408776918204,0.25114374100594467,nan
1740789343.3310654,0.38268782229333476,-0.8909929661612599,-0.006756374056193587,0.22905172512644315,nan
1740789343.3349712,0.363010844923455,-0.8840898027029884,0.010952978492401193,0.2041945672239059,nan
1740789343.338877,0.3401435980081976,-0.872257017144744,0.030515753808357436,0.17676145968078139,nan
1740789343.342783,0.31423671285413524,-0.8557679023185576,0.051968094200245576,0.14697451317340554,nan
1740789343.3466887,0.28547388989419764,-0.8349333852332942,0.07533862967738954,0.1150859142429372,nan
1740789343.3505979,0.2540695092878306,-0.8100978164205208,0.10064666594085368,0.08137481927279457,nan
1740789343.3545036,0.22026598711162673,-0.7816345179250922,0.12790045648384596,0.04614401882815758,nan
1740789343.3584094,0.1843309060770756,-0.7499411376306979,0.1570955832558428,0.009716408071247124,nan
1740789343.3623154,0.14655395137975258,-0.715434858815676,0.18821346908440761,-0.027568699632845535,nan
1740789343.3662212,0.10724368364827298,-0.6785475145589497,0.22122004353043545,-0.06535937777073794,nan
1740789343.370127,0.06672418201262056,-0.6397206568577885,0.25606458209312327,-0.10329497158512253,nan
1740789343.3740327,0.025331591043936355,-0.599400630080462,0.2926787366997425,-0.1410100237319786,nan
1740789343.3779387,-0.0165893942716397,-0.5580336976645798,0.3309757732337216,-0.1781382016814757,nan
1740789343.3818445,-0.05868907127402724,-0.5160612697971679,0.3708500294962577,-0.2143161883108216,nan
1740789343.3857503,-0.10061626606481446,-0.4739152781909697,0.4121766044869697,-0.24918749795622402,nan
1740789343.3896563,-0.14202183016119635,-0.4320137420226205,0.45481128725489606,-0.282406181360298,nan
1740789343.393562,-0.1825620647408617,-0.39075656664584585,0.49859073084043076,-0.3136403844560423,nan
1740789343.3974707,-0.22190204099272992,-0.3505216138638922,0.5433328740307799,-0.34257572775141715,nan
1740789343.4013767,-0.2597187865100522,-0.3116610793705592,0.5888376108157425,-0.3689184751990589,nan
1740789343.4052825,-0.2957043093470557,-0.27449820948217624,0.6348877045873456,-0.3923984638307628,nan
1740789343.4091883,-0.32956843328914415,-0.23932438551995963,0.6812499413060339,-0.41277176808056276,nan
1740789343.4130943,-0.3610414200390479,-0.20639660020214393,0.7276765130876873,-0.4298230755859475,nan
1740789343.417,-0.38987635637441176,-0.1759353462088047,0.7739066209790252,-0.44336775431449765,nan
1740789343.4209058,-0.41585128686194156,-0.14812293273163163,0.8196682831123309,-0.45325359408202115,nan
1740789343.4248116,-0.43877107539357335,-0.12310224135945774,0.8646803319913036,-0.4593622088758056,nan
1740789343.4287176,-0.4584689816144252,-0.10097592812234013,0.9086545823840061,-0.4616100898396678,nan
1740789343.4326234,-0.4748079412126755,-0.08180607396674931,0.9512981492106494,-0.4599493022822674,nan
1740789343.4365292,-0.4876815420097696,-0.0656142814064367,0.9923158929354926,-0.4543678236024906,nan
1740789343.4404352,-0.4970146907965565,-0.05238221063151639,1.0314129683237716,-0.4448895225515048,nan
1740789343.4443436,-0.502763968878564,-0.04205254400508428,1.0682974510238974,-0.43157378373664385,nan
1740789343.4482493,-0.5049176772927948,-0.03453036367382066,1.1026830152976441,-0.41451478468449765,nan
1740789343.452155,-0.5034955756112501,-0.02968492300611103,1.134291635359103,-0.39384043608740593,nan
1740789343.4560611,-0.49854832112526964,-0.027351788786028064,1.1628562822067734,-0.36971099902817683,nan
1740789343.459967,-0.49015661798341853,-0.027335327569007643,1.1881235875489782,-0.34231739598309174,nan
1740789343.4638727,-0.47843008850877583,-0.02941150637771306,1.209856446434928,-0.31187923521567346,nan
1740789343.4677787,-0.4635058814253204,-0.03333097501358169,1.2278365305129566,-0.2786425707680597,nan
1740789343.4716845,-0.44554703405555607,-0.03882239470682245,1.241866684441645,-0.24287742261008,nan
1740789343.4755902,-0.42474060769229066,-0.04559597564755475,1.2517731788736182,-0.20487508359783854,nan
1740789343.4794962,-0.4012956172783286,-0.05334718415183775,1.2574077946075974,-0.1649452417059727,nan
1740789343.483402,-0.3754407782327112,-0.06176057883322438,1.2586497139508792,-0.1234129475157944,nan
1740789343.4873078,-0.34742209472725794,-0.07051373418378598,1.2554071970380918,-0.08061545815334017,nan
1740789343.4912157,-0.3175003149311655,-0.07928120942471774,1.2476190227964161,-0.036898989767843525,nan
1740789343.4951215,-0.285948279695562,-0.08773852036801097,1.2352556764137161,0.007384588783300312,nan
1740789343.4990275,-0.2530481918377902,-0.09556607233540483,1.2183202675330183,0.05188108812527257,nan
1740789343.5029333,-0.21908883360329562,-0.10245301290292849,1.1968491659413583,0.09623732358587964,nan
1740789343.506839,-0.18436276003015534,-0.10810096436886114,1.1709123442181955,0.14010440098966118,nan
1740789343.510745,-0.14916349581909455,-0.11222759736592376,1.140613419631655,0.18314093127486508,nan
1740789343.5146508,-0.11378276292447773,-0.11457000893734652,1.1060893904920142,0.22501614318952795,nan
1740789343.5185566,-0.07850776543575196,-0.11488787064985476,1.0675100651619145,0.2654128646211712,nan
1740789343.5224626,-0.04361855742325696,-0.11296631490008556,1.0250771849521476,0.30403034468851536,nan
1740789343.5263684,-0.009385518288551798,-0.10861853045676785,0.9790232451702161,0.3405868905553759,nan
1740789343.5302742,0.02393304119908728,-0.10168804143877475,0.9296100216058133,0.3748222949963819,nan
1740789343.53418,0.05609312056596301,-0.09205064732597462,0.8771268127026491,0.40650003302911736,nan
1740789343.5380876,0.08686709914238129,-0.0796160052005057,0.8218884105498291,0.43540920840347425,nan
1740789343.5419936,0.11604561549354435,-0.06432883918394469,0.7642328165991331,0.4613662333806394,nan
1740789343.5458994,0.14343924093434576,-0.046169765932381576,0.7045187206490037,0.4842162280138767,nan
1740789343.5498052,0.16887993350379826,-0.02515572903739222,0.6431227641049845,0.5038341280327914,nan
1740789343.553711,0.19222226109651194,-0.0013400392162835682,0.580436610804615,0.520125493402774,nan
1740789343.557617,0.2133443848539185,0.025187978780541107,0.5168638507588444,0.5330270126520821,nan
1740789343.5615227,0.23214879638262248,0.054303727603767164,0.45281676399074733,0.5425067011004474,nan
1740789343.5654285,0.24856280486661628,0.08584845819684091,0.3887129732262986,0.5485637941551539,nan
1740789343.5693345,0.2625387726494957,0.11963075742764806,0.32497201549495947,0.5512283398336163,nan
1740789343.5732403,0.2740541003575976,0.1554283860562286,0.26201186371547996,0.5505604975963996,nan
1740789343.577146,0.2831109650909403,0.19299044713073762,0.2002454300636603,0.5466495534033011,nan
1740789343.581052,0.2897358176024405,0.23203986161655119,0.14007708333536745,0.5396126636104168,nan
1740789343.5849593,0.2939786466942022,0.2722761250242352,0.08189921262452046,0.5295933428825572,nan
1740789343.588865,0.2959120212611708,0.31337831603987126,0.02608886942975632,0.5167597136789327,nan
1740789343.592771,0.2956299224864228,0.3550083257022134,-0.026995480214302137,0.5013025370586492,nan
1740789343.5966768,0.29324638061998265,0.39681427353815485,-0.07701706281101897,0.48343304652627683,nan
1740789343.6005826,0.2888939325367006,0.4384340752807903,-0.12366373403770067,0.4633806083788669,nan
1740789343.6044886,0.2827219178528524,0.47949912536904626,-0.16665071671863424,0.44139023350896744,nan
1740789343.6083944,0.2748946327718621,0.519638056377034,-0.20572311360741777,0.41771996685072493,nan
1740789343.6123002,0.2655893620152168,0.5584805368536223,-0.24065817041129114,0.39263818161798675,nan
1740789343.6162062,0.2549943101655611,0.5956610687733445,-0.271267266696065,0.36642080616706396,nan
1740789343.620112,0.24330645449773816,0.6308227459095973,-0.297397614741082,0.339348511718037,nan
1740789343.6240177,0.23072934189493569,0.6636209349376037,-0.3189336490467202,0.31170388928537834,nan
1740789343.6279237,0.21747085273826833,0.6937268419511542,-0.3357980920076236,0.28376864400243823,nan
1740789343.6318307,0.2037409547183797,0.720830928323572,-0.3479526842265237,0.2558208345788269,nan
1740789343.6357365,0.1897494693487609,0.7446461414457348,-0.3553985710282686,0.2281321849116446,nan
1740789343.6396422,0.17570387356625494,0.7649109278151286,-0.3581763399120987,0.20096549389010332,nan
1740789343.6435483,0.16180715819078345,0.7813919982092411,-0.356365706922177,0.17457216820018626,nan
1740789343.647454,0.14825576419198133,0.7938868172304256,-0.3500848531907068,0.14918990146591796,nan
1740789343.6513598,0.1352376166852432,0.8022257923313746,-0.3394894161835453,0.1250405213730089,nan
1740789343.6552658,0.12293027536585996,0.8062741404915564,-0.32477114342343333,0.10232802452764406,nan
1740789343.6591716,0.1114992187013807,0.805933413984103,-0.30615621964964473,0.08123681672855942,nan
1740789343.6630774,0.10109627765445973,0.8011426701166576,-0.2839032814643164,0.06193017409633892,nan
1740789343.6669834,0.09185823301823105,0.7918792734138473,-0.25830113648509134,0.04454893813357134,nan
1740789343.6708891,0.0839055886319294,0.7781593223973055,-0.22966620684220107,0.029210455308016588,nan
1740789343.674795,0.07734153082523708,0.7600376968746894,-0.1983397194983216,0.016007769183776395,nan
1740789343.6787045,0.07225108243592877,0.7376077254345654,-0.16468466830585574,0.005009070499101482,nan
1740789343.6826103,0.06870045767757835,0.7110004766217042,-0.12908257492476147,-0.003742592069385101,nan
1740789343.686516,0.06673662202370735,0.6803836809999632,-0.0919300776831395,-0.010229340380665418,nan
1740789343.690422,0.06638705914332875,0.6459602949607478,-0.05363537915308958,-0.01445823710929361,nan
1740789343.6943278,0.06765974479192474,0.6079667206681724,-0.014614584619148633,-0.016460802994662176,nan
1740789343.6982336,0.07054332545291281,0.566670699912924,0.024712035278155974,-0.016292288745046398,nan
1740789343.7021396,0.07500749745855492,0.5223689028425859,0.06392382364667784,-0.01403071170580083,nan
1740789343.7060454,0.08100358031650444,0.47538423551571135,0.1026035236425829,-0.00977566970309621,nan
1740789343.7099512,0.08846527604830018,0.42606289296153615,0.14034103726235783,-0.0036469466322799435,nan
1740789343.7138572,0.09730960452774887,0.374771186890669,0.17673712209856554,0.004217073647267966,nan
1740789343.717763,0.10743800310777157,0.3218921793707397,0.21140699203161392,0.013661166740174147,nan
1740789343.7216687,0.11873757725998416,0.26782215563447503,0.2439837886515447,0.024515180487492023,nan
1740789343.7255776,0.1310824875367014,0.2129669707085846,0.2741218913395971,0.03659607971291396,nan
1740789343.7294836,0.14433545691325103,0.15773830572608546,0.3015000353788686,0.04971010040848355,nan
1740789343.7333894,0.15834938149071795,0.1025498706018326,0.32582420919359645,0.06365498990044004,nan
1740789343.7372952,0.17296902664495506,0.0478135902040093,0.34683030382144986,0.07822230885704105,nan
1740789343.741201,0.18803279000448034,-0.006064188760303493,0.36428648998427976,0.09319977057311558,nan
1740789343.745107,0.20337451213324656,-0.05868643320934522,0.3779953006188759,0.10837359279317964,nan
1740789343.7490127,0.21882531548778322,-0.10966906520991077,0.38779539943711444,0.12353083741639334,nan
1740789343.7529185,0.23421545211336287,-0.1586444742704471,0.3935630189791527,0.13846171375994917,nan
1740789343.7568245,0.24937614064008515,-0.20526486646151973,0.39521305467677614,0.15296182163762576,nan
1740789343.7607303,0.2641413734345633,-0.24920541809879632,0.39269980462792076,0.1668343113297303,nan
1740789343.764636,0.2783496752516147,-0.2901672037147573,0.38601734806785887,0.17989193856969643,nan
1740789343.768542,0.2918457954066057,-0.32787987032935917,0.3751995588764464,0.19195899393898794,nan
1740789343.7724504,0.3044823163445011,-0.3621040325834224,0.36031975385258425,0.20287308753152694,nan
1740789343.7763565,0.3161211625061143,-0.39263336609579835,0.341489978884603,0.21248677140529518,nan
1740789343.7802622,0.32663499457390444,-0.41929637941799885,0.3188599395163847,0.2206689841640856,nan
1740789343.784168,0.3359084755055933,-0.44195784815781225,0.2926155857219004,0.22730630398690257,nan
1740789343.788074,0.3438393962193349,-0.46051989819431083,0.26297736392400056,0.23230399852520434,nan
1740789343.7919798,0.35033965036331,-0.47492272837727834,0.23019815239619706,0.23558686229673717,nan
1740789343.7958856,0.3553360492685939,-0.48514496665983015,0.19456089913943167,0.23709983449599373,nan
1740789343.7997916,0.35877096992919366,-0.4912036572186752,0.15637598410137607,0.23680839249132224,nan
1740789343.8036973,0.3606028306588676,-0.49315387973639635,0.11597833017735275,0.2346987186630718,nan
1740789343.8076031,0.3608063909217631,-0.4910880056185932,0.0737242897749976,0.23077764063115735,nan
1740789343.8115091,0.35937287370390697,-0.48513459946048004,0.029988335817223967,0.2250723472996062,nan
1740789343.815415,0.356309910665637,-0.47545697752760474,-0.014840412120221554,0.21762988548537596,nan
1740789343.819323,0.35164131217218225,-0.46225143834035537,-0.06036179430633474,0.20851644417554754,nan
1740789343.823229,0.3454066661215375,-0.4457451836191386,-0.10616831652587495,0.19781643564744902,nan
1740789343.8271348,0.33766077125729255,-0.42619395082601635,-0.15184892054481972,0.18563138476850372,nan
1740789343.8310406,0.32847291235117815,-0.4038793813002778,-0.19699278439677234,0.17207863974567877,nan
1740789343.8349466,0.31792598624876767,-0.37910615050327673,-0.24119311725100162,0.15728991939871173,nan
1740789343.8388524,0.30611548927619325,-0.3521988891378651,-0.2840509136878017,0.14140971366917943,nan
1740789343.8427582,0.29314837789082165,-0.32349892586834417,-0.3251786326024849,0.12459355553260755,nan
1740789343.8466642,0.2791418157112156,-0.2933608840196922,-0.3642037666813922,0.10700618373919628,nan
1740789343.85057,0.2642218211692041,-0.2621491659642972,-0.40077226943530125,0.08881961685812985,nan
1740789343.8544757,0.24852183097894076,-0.23023435989853086,-0.4345518081273203,0.07021115993108733,nan
1740789343.8583817,0.23218119540552176,-0.197989604361199,-0.4652348125811323,0.051361365644631285,nan
1740789343.8622875,0.21534362193190917,-0.1657869461458731,-0.4925412917854939,0.03245197230356681,nan
1740789343.8661957,0.19815558436211175,-0.1339937272073072,-0.5162213924038657,0.01366384102502181,nan
1740789343.8701015,0.18076471465730115,-0.10296903576007203,-0.5360576757331119,-0.004825085524436249,nan
1740789343.8740072,0.1633181948780862,-0.07306025602014009,-0.5518670923092325,-0.022841780856977124,nan
1740789343.8779132,0.14596116650069943,-0.04459974995574631,-0.5635026362057514,-0.04022006742492717,nan
1740789343.881819,0.12883517408943482,-0.017901703004035718,-0.570854664084791,-0.056802463765185725,nan
1740789343.8857248,0.1120766598461872,0.006740836010325315,-0.5738518672131944,-0.07244192637162948,nan
1740789343.8896308,0.09581552492604171,0.029058692531555453,-0.5724618879165422,-0.08700346783805307,nan
1740789343.8935366,0.08017377261297422,0.048809055566346835,-0.566691575281476,-0.10036563420092365,nan
1740789343.8974423,0.065264247500787,0.06577769521077796,-0.5565868782998374,-0.11242182597224486,nan
1740789343.9013484,0.051189483732110214,0.0797808877638105,-0.5422323780445684,-0.12308144907130583,nan
1740789343.9052541,0.03804067412452508,0.09066703073293483,-0.5237504638449968,-0.13227088372174522,nan
1740789343.90916,0.02589677067094064,0.09831793315548568,-0.5013001617560375,-0.1399342613575492,nan
1740789343.9130673,0.014823725455738226,0.10264976991143057,-0.4750756268604659,-0.1460340416574232,nan
1740789343.9169734,0.004873879494308014,0.1036136920575441,-0.445304314075134,-0.1505513839796232,nan
1740789343.9208791,-0.003914494602301495,0.1011960886355086,-0.4122448451212279,-0.15348630967633026,nan
1740789343.924785,-0.011517491896762162,0.09541849886347353,-0.3761845921371565,-0.15485765400482215,nan
1740789343.928691,-0.017925713786522593,0.08633717707787711,-0.33743700103396473,-0.15470280859891086,nan
1740789343.9325967,-0.023144245232429406,0.07404231621555728,-0.29633868009257097,-0.15307725769483546,nan
1740789343.9365025,-0.02719247145097694,0.058656938981720724,-0.25324628145714495,-0.15005391349812072,nan
1740789343.9404085,-0.030103736670411906,0.040335469104129246,-0.20853320506948533,-0.14572225820894918,nan
1740789343.9443142,-0.03192484922151876,0.019261998196017094,-0.16258615619760075,-0.14018730227152046,nan
1740789343.94822,-0.03271543885369776,-0.00435173329075993,-0.11580158902306961,-0.1335683703564871,nan
1740789343.952126,-0.03254717371922589,-0.03026861977392471,-0.06858206975400624,-0.12599772840487858,nan
1740789343.9560318,-0.03150284593764916,-0.058228715113803675,-0.02133259341456849,-0.11761906673839717,nan
1740789343.959939,-0.029675336022880937,-0.08795197195018582,0.025543111178184433,-0.10858585575722375,nan
1740789343.9638448,-0.02716646771411891,-0.11914116766318199,0.0716462537065113,-0.09905959208725355,nan
1740789343.9677508,-0.024085765885228438,-0.15148498706471547,0.11658659766397592,-0.08920795419011798,nan
1740789343.9716566,-0.02054913120453419,-0.18466123047547095,0.15998598505572534,-0.07920288739993196,nan
1740789343.9755623,-0.016677446067985317,-0.2183401147058748,0.20148173779074727,-0.06921863909065579,nan
1740789343.9794683,-0.012595127025027098,-0.25218763364921193,0.2407299043127543,-0.05942976520002369,nan
1740789343.983374,-0.00842863945152271,-0.2858689447176453,0.27740832155478135,-0.05000912963485247,nan
1740789343.98728,-0.004304990592374804,-0.31905174721151025,0.3112194641214075,-0.041125918155362644,nan
1740789343.991186,-0.00035021729509141815,-0.3514096189093116,0.34189305468374664,-0.0329436881824946,nan
1740789343.9950917,0.00331211521762998,-0.38262527769763377,0.3691884118959287,-0.02561847559361236,nan
1740789343.9989974,0.006562387332585596,-0.4123937359204225,0.3928965146848565,-0.01929697897284646,nan
1740789344.0029035,0.009286355898294777,-0.44042531630659504,0.4128417645031231,-0.014114840968782802,nan
1740789344.0068102,0.01137652653477286,-0.46644849982103365,0.4288834300415379,-0.010195045392875196,nan
1740789344.010716,0.012733452631060228,-0.49021257756129705,0.4409167619446362,-0.007646447477579721,nan
1740789344.0146217,0.013266947054418214,-0.5114900808723646,0.44887376823053676,-0.006562453316324711,nan
1740789344.0185277,0.012897193533678927,-0.5300789661534973,0.4527236443551914,-0.007019862942689756,nan
1740789344.0224335,0.011555745752719575,-0.5458045333611679,0.4524728551492207,-0.009077889789750994,nan
1740789344.0263393,0.009186403387018071,-0.5585210599444856,0.4481648691617933,-0.012777367420254286,nan
1740789344.0302453,0.005745955623981563,-0.5681131348567476,0.4398795492385339,-0.018140152453384246,nan
1740789344.034151,0.0012047841126812137,-0.5744966803394883,0.42773220640797405,-0.025168730554552144,nan
1740789344.0380569,-0.0044526812242067105,-0.5776196523428129,0.4118723273223899,-0.03384603022237652,nan
1740789344.0419629,-0.01122765852942521,-0.5774624136962223,0.39248198856400696,-0.04413544692370466,nan
1740789344.0458686,-0.019106865909705038,-0.5740377774448101,0.3697739740572003,-0.055981077915873624,nan
1740789344.0497744,-0.02806253066400432,-0.5673907210838196,0.3439896145938388,-0.069308165878205,nan
1740789344.0536838,-0.038052555956209044,-0.5575977757268311,0.3153963710560156,-0.08402374727492244,nan
1740789344.0575895,-0.04902084339205967,-0.5447660974964791,0.28428518528397206,-0.10001749921202681,nan
1740789344.0614955,-0.060897768322517074,-0.5290322315992098,0.25096762466463585,-0.11716277645351549,nan
1740789344.0654013,-0.07360080309255491,-0.5105605826057432,0.2157728483882324,-0.13531782824935296,nan
1740789344.069307,-0.08703528190211172,-0.4895416073761747,0.17904442491924624,-0.15432718271970938,nan
1740789344.073213,-0.10109529946055713,-0.46618974981440964,0.14113703153916818,-0.17402318475687828,nan
1740789344.0771189,-0.11566473421291419,-0.4407411391836049,0.10241306782975046,-0.19422767176656275,nan
1740789344.0810246,-0.13061838560955097,-0.4134510760375892,0.06323921566818368,-0.2147537700908665,nan
1740789344.0849307,-0.14582321369464948,-0.3845913319000401,0.02398297869345838,-0.2354077936517784,nan
1740789344.0888364,-0.16113966821458492,-0.35444729063321334,-0.014990765726593882,-0.25599122523984263,nan
1740789344.0927422,-0.17642309350657814,-0.32331496096372725,-0.05332316924553433,-0.27630275995974657,nan
1740789344.0966482,-0.19152519463003664,-0.2914978908595244,-0.09066473778554766,-0.296140389642334,nan
1740789344.100557,-0.20629554955618376,-0.2593040153679891,-0.12667854793147929,-0.3153035065486742,nan
1740789344.1044629,-0.2205831517423195,-0.22704247012170778,-0.1610433242905131,-0.33359500443139106,nan
1740789344.1083686,-0.234237967090378,-0.19502040299005877,-0.1934563490924271,-0.35082335498466377,nan
1740789344.1122746,-0.24711248912859773,-0.16353981629967884,-0.22363617703359565,-0.3668046379076049,nan
1740789344.1161804,-0.25906327626164793,-0.1328944716658109,-0.2513251303509943,-0.38136450322470383,nan
1740789344.1200862,-0.26995245510831584,-0.10336688877418575,-0.2762915513304303,-0.39434004514745435,nan
1740789344.1239922,-0.2796491742849481,-0.07522546843673351,-0.29833179188418635,-0.40558156761726716,nan
1740789344.127898,-0.28803099349372746,-0.04872176892501119,-0.31727192245289837,-0.4149542227324837,nan
1740789344.1318038,-0.29498519343225815,-0.024087962976189908,-0.33296914526918175,-0.4223395045216524,nan
1740789344.1357098,-0.30040999284804715,-0.0015345009846414502,-0.34531289993863257,-0.42763658196813265,nan
1740789344.1396155,-0.3042156600099023,0.018751996243467888,-0.35422565231891434,-0.43076345680358347,nan
1740789344.1435213,-0.3063255069481784,0.03661059416248377,-0.3596633607798696,-0.43165793335329955,nan
1740789344.14743,-0.306676756016142,0.051907632151703964,-0.36161561707682865,-0.4302783896172858,nan
1740789344.1513357,-0.30522126963289054,0.06453802649397929,-0.3601054622346214,-0.42660434078785076,nan
1740789344.1552417,-0.3019261354710391,0.07442627590132532,-0.35518888099059437,-0.4206367885172134,nan
1740789344.1591475,-0.29677410083499556,0.08152715985540053,-0.34695398145041273,-0.4123983514355219,nan
1740789344.1630533,-0.28976385152316736,0.08582612315967081,-0.3355198696406448,-0.40193317465871004,nan
1740789344.1669593,-0.2809101320635656,0.08733934329118341,-0.3210352315676288,-0.38930661829384466,nan
