timestamps,TP9,AF7,AF8,TP10,Right AUX
1740790129.7794695,0.005131265784534157,0.3377248787577225,-0.14941594328767616,-0.2155109154739503,nan
1740790129.7833755,0.013017434388558638,0.33826592509832226,-0.1252695345068536,-0.21788480343799196,nan
1740790129.7872813,0.02279823918000029,0.33661990457338975,-0.09911249084030115,-0.2179242426468808,nan
1740790129.7911873,0.03445965103891225,0.3327164113694345,-0.07103672851220805,-0.21556946478248254,nan
1740790129.7950933,0.04796885338367214,0.326504806699355,-0.04115635379771624,-0.21078579057565408,nan
1740790129.7989993,0.06327416692983057,0.31795502156778305,-0.009607194010884296,-0.20356424591065764,nan
1740790129.802905,0.08030516271244859,0.3070581448972284,0.023453894263107174,-0.19392191645946177,nan
1740790129.806811,0.09897296471463302,0.29382679010107066,0.05784993646084645,-0.18190203566089044,nan
1740790129.810717,0.11917074151887129,0.27829523552429186,0.0933849654227674,-0.16757380354083837,nan
1740790129.814623,0.1407743844609202,0.2605193365582975,0.1298453532526914,-0.15103193658737435,nan
1740790129.818529,0.16364336783836403,0.24057620964739884,0.1670013399187215,-0.132395951621199,nan
1740790129.822435,0.18762178482721656,0.21856369081645818,0.20460874680771213,-0.11180918931039913,nan
1740790129.826342,0.21253955090975102,0.1945995737368456,0.2424108614875348,-0.0894375856414781,nan
1740790129.830248,0.23821376483437426,0.16882063468615865,0.28014047808714587,-0.06546820224930858,nan
1740790129.8341541,0.26445021543247077,0.1413814540219654,0.3175220759932578,-0.04010752900082617,nan
1740790129.8380601,0.2910450210255835,0.11245304595727766,0.35427411800215175,-0.013579574595558674,nan
1740790129.841966,0.31778638668615916,0.08222131047301523,0.3901114476727212,0.0138762368337523,nan
1740790129.845872,0.3444564632820216,0.050885323108814405,0.42474776441716927,0.042007343087757894,nan
1740790129.849778,0.370833291053424,0.018655480118201683,0.45789815385263005,0.07055047334440305,nan
1740790129.853684,0.3966928094549298,-0.014248481961117042,0.4892816501318535,0.09923420614405427,nan
1740790129.8575897,0.4218109141540857,-0.04759957190276697,0.5186238063839347,0.12778163096245315,nan
1740790129.8614957,0.4459655414245023,-0.0811657129766739,0.5456592490343677,0.1559130872442111,nan
1740790129.8654017,0.46893875971066123,-0.11471197321336349,0.57013419164324,0.18334895385215888,nan
1740790129.8693078,0.49051884788141026,-0.14800283353727836,0.5918088840043592,0.20981246123684805,nan
1740790129.8732147,0.510502339632829,-0.18080447009998046,0.6104599725876287,0.23503249825359232,nan
1740790129.8771205,0.5286960136508855,-0.21288702693196845,0.6258827489809129,0.25874638545637285,nan
1740790129.8810265,0.5449188095001015,-0.24402685506908298,0.6378932637924266,0.28070258688093114,nan
1740790129.8849325,0.5590036497639845,-0.27400869459628646,0.6463302845045171,0.30066333279257335,nan
1740790129.8888385,0.5707991497222779,-0.30262777658563084,0.651057077016707,0.31840712661431236,nan
1740790129.8927443,0.5801711968026767,-0.3296918226814934,0.6519629920696866,0.33373111026160585,nan
1740790129.8966503,0.5870043831824161,-0.35502292109716865,0.6489648393904408,0.3464532633821435,nan
1740790129.9005563,0.5912032762279427,-0.37845925902291677,0.6420080342275635,0.3564144135214887,nan
1740790129.9044623,0.5926935129365892,-0.399856692894075,0.6310675029388702,0.3634800359934599,nan
1740790129.9083683,0.591422706169317,-0.4190901396147156,0.6161483364329569,0.36754182421175313,nan
1740790129.9122741,0.5873611522226806,-0.4360547736607359,0.5972861825328623,0.3685190134175422,nan
1740790129.9161801,0.5805023311646078,-0.45066701697794087,0.5745473707027434,0.3663594430957994,nan
1740790129.920087,0.5708631933343375,-0.46286531072534637,0.548028765035521,0.3610403458883911,nan
1740790129.9239929,0.5584842274627839,-0.47261066016989484,0.5178573439178304,0.35256885346007355,nan
1740790129.927899,0.5434293079856767,-0.47988694639298585,0.48418950734460986,0.3409822125287564,nan
1740790129.931805,0.5257853212773163,-0.4847010008976295,0.44721011542504985,0.3263477071069643,nan
1740790129.935711,0.505661572706336,-0.487082441682561,0.40713126417982204,0.308762285889389,nan
1740790129.9396167,0.48318897858494964,-0.4870832718509384,0.36419080725186104,0.28835189663355293,nan
1740790129.9435227,0.4585190492280021,-0.4847772443202496,0.31865063461506715,0.2652705322880024,nan
1740790129.9474287,0.43182267143622466,-0.4802589986710052,0.27079472174294356,0.23969899649643117,nan
1740790129.9513347,0.40328870074808987,-0.47364297858885795,0.2209269649690965,0.21184339891798423,nan
1740790129.9552405,0.3731223757459686,-0.46506214069279683,0.16936882091093622,0.18193339352571988,nan
1740790129.9591465,0.34154356853482226,-0.4546664677764125,0.11645676981554483,0.15022017564942922,nan
1740790129.9630525,0.30878488721660874,-0.4426213015964356,0.06253962450215043,0.11697425598953232,nan
1740790129.966962,0.27508964774293687,-0.42910551230041616,0.007975708200435251,0.08248303212057619,nan
1740790129.9708679,0.240709733925961,-0.4143095233727251,-0.0468700739990436,0.04704818010270628,nan
1740790129.974774,0.20590336560793507,-0.39843321257574893,-0.10162924417184512,0.010982890705613695,nan
1740790129.97868,0.17093279602005196,-0.3816837107539515,-0.15593281419521288,-0.02539102359743755,nan
1740790129.982586,0.1360619601897209,-0.3642731215370546,-0.2094143744118718,-0.06174612330532646,nan
1740790129.9864917,0.10155409687255577,-0.3464161859119314,-0.26171318028560486,-0.09775240953716222,nan
1740790129.9903977,0.06766936688385569,-0.3283279163201936,-0.3124772088176628,-0.1330804350958561,nan
1740790129.9943037,0.03466249087861753,-0.31022122537170843,-0.36136615656400184,-0.1674044288182361,nan
1740790129.9982097,0.0027804295761141773,-0.29230457443770835,-0.40805435143091745,-0.20040540280492114,nan
1740790130.0021155,-0.027739870856105527,-0.27477966729779896,-0.45223355102956914,-0.2317742121436327,nan
1740790130.0060215,-0.05667364605205216,-0.2578392136627389,-0.49361560123431675,-0.2612145370593948,nan
1740790130.0099275,-0.08381037185556985,-0.24166478678163822,-0.5319349297093702,-0.28844575804231765,nan
1740790130.013833,-0.10895569336038095,-0.22642479847337763,-0.5669508505340795,-0.3132056954135779,nan
1740790130.0177388,-0.131933205213328,-0.21227261380524418,-0.5984496576580364,-0.33525318598501624,nan
1740790130.0216448,-0.15258606516951626,-0.19934482628725003,-0.6262464867394352,-0.3543704709370472,nan
1740790130.0255508,-0.17077842443222854,-0.1877597128712166,-0.6501869269479795,-0.3703653707698741,nan
1740790130.0294569,-0.18639666002742344,-0.17761588625450972,-0.6701483665292386,-0.38307322515851483,nan
1740790130.0333626,-0.19935039633641885,-0.16899116000667008,-0.6860410583109319,-0.39235857774444693,nan
1740790130.0372686,-0.20957330492322912,-0.1619416398825508,-0.6978088938616103,-0.3981165883050281,nan
1740790130.0411747,-0.21702367392602323,-0.15650105237916326,-0.7054298776656053,-0.4002741573334656,nan
1740790130.0450807,-0.22168474051471526,-0.15268031915821076,-0.7089162954305082,-0.39879075081229,nan
1740790130.0489864,-0.22356478222737344,-0.15046738341660404,-0.708314573469362,-0.39365891584562185,nan
1740790130.0528924,-0.22269696536431122,-0.14982729166870382,-0.7037048289727752,-0.38490448080221384,nan
1740790130.0567985,-0.21913895101743935,-0.1507025317331149,-0.6952001138794338,-0.37258643668344893,nan
1740790130.0607061,-0.21297226171992384,-0.15301362502065052,-0.6829453579395581,-0.35679649953832865,nan
1740790130.064612,-0.20430141409362026,-0.15665996852642855,-0.6671160194172584,-0.3376583568705937,nan
1740790130.068518,-0.19325282522527296,-0.16152091926537257,-0.6479164546672939,-0.31532660409095664,nan
1740790130.072424,-0.17997350279342042,-0.16745711128445268,-0.6255780205224416,-0.28998538012927394,nan
1740790130.07633,-0.1646295311731853,-0.17431199286387267,-0.6003569260133527,-0.2618467143070637,nan
1740790130.080236,-0.14740436784315766,-0.18191356910952447,-0.5725318523881526,-0.23114859945044763,nan
1740790130.0841417,-0.12849696638591454,-0.19007633286582568,-0.5424013626799927,-0.19815280896854212,nan
1740790130.0880477,-0.10811974419089213,-0.19860336476577248,-0.5102811241645949,-0.16314247820503477,nan
1740790130.0919538,-0.086496414616367,-0.20728858130638655,-0.47650096893548427,-0.12641947276499385,nan
1740790130.0958598,-0.06385970482866786,-0.2159191081136835,-0.44140181948284674,-0.08830156870060343,nan
1740790130.0997655,-0.040448981795723156,-0.2242777540608606,-0.4053325075756657,-0.04911947138607175,nan
1740790130.1036716,-0.01650780995474845,-0.23214556064357178,-0.36864651590093744,-0.009213701603234457,nan
1740790130.107579,0.00771853511149506,-0.239304400011335,-0.33169867279583454,0.03106862122229067,nan
1740790130.111485,0.031985572078447745,-0.2455395943164616,-0.2948418310086105,0.07137706756436331,nan
1740790130.115391,0.05605211312022018,-0.25064252858079733,-0.25842356173427017,0.11136122621932064,nan
1740790130.119297,0.0796827316615262,-0.25441322910264996,-0.22278289518696823,0.1506740401893708,nan
1740790130.1232028,0.10265017348642763,-0.25666287953549655,-0.18824713869064819,0.1889751174039062,nan
1740790130.1271088,0.12473768647239387,-0.25721624716728375,-0.15512880269344914,0.22593398377306365,nan
1740790130.1310148,0.1457412448914,-0.2559139926124916,-0.1237226642436095,0.2612332465048183,nan
1740790130.1349208,0.16547164513818288,-0.25261483709374466,-0.09430299631126929,0.29457163637133243,nan
1740790130.1388266,0.18375645090193635,-0.24719756272795507,-0.06712098991102887,0.32566689867606885,nan
1740790130.1427326,0.20044176718176313,-0.2395628227331317,-0.042402394286214964,0.35425850404133713,nan
1740790130.1466386,0.21539382414613523,-0.2296347402229824,-0.020345398471879543,0.38011015179446933,nan
1740790130.1505446,0.2285003536379337,-0.21736227624128115,-0.0011187753766581543,0.4030120406646838,nan
1740790130.1544518,0.2396717431130277,-0.2027203498883392,0.015139692867074436,0.4227828836942146,nan
1740790130.1583579,0.24884195395338105,-0.18571069578726726,0.028324492118471996,0.43927164669615737,nan
1740790130.1622639,0.2559691933951757,-0.16636244670518197,0.038363342594822256,0.4523589922349374,nan
1740790130.16617,0.26103633173666746,-0.14473243185949888,0.04521784387160196,0.4619584139383699,nan
1740790130.1700757,0.2640510590163252,-0.12090518427568267,0.048883791011687105,0.4680170489460857,nan
1740790130.1739817,0.2650457779548901,-0.09499265349253622,0.049391157422489236,0.47051615942894,nan
1740790130.1778877,0.26407723261012167,-0.06713362290551335,0.04680374320346647,0.46947127734782335,nan
1740790130.1817937,0.261225874874172,-0.037492834067783254,0.041218490941009406,0.46493200992676564,nan
1740790130.1856995,0.2565949736243531,-0.006259823302806544,0.03276447410307094,0.4569815066623175,nan
1740790130.1896055,0.25030947399199055,0.026352521009851557,0.021601566351684864,0.44573559204608576,nan
1740790130.1935115,0.24251461681441447,0.06010966916210899,0.007918803197457846,0.4313415715072297,nan
1740790130.1974175,0.23337433085587825,0.09475741468006249,-0.008067549563591908,0.41397672135372826,nan
1740790130.2013247,0.22306941279853382,0.1300240757947537,-0.02611620329312314,0.39384647667294437,nan
1740790130.2052307,0.21179551228985988,0.16562291429005976,-0.045963309745580654,0.37118233421168784,nan
1740790130.2091365,0.1997609414642744,0.2012547497650998,-0.06732515743146987,0.3462394901629203,nan
1740790130.2130425,0.1871843303118824,0.23661074511500055,-0.08990107606877139,0.3192942355111798,nan
1740790130.2169485,0.17429215102536802,0.27137533702261313,-0.11337652192999556,0.29064113410387654,nan
1740790130.2208545,0.16131613599803682,0.3052292834868554,-0.13742631498542912,0.2605900108951525,nan
1740790130.2247603,0.14849061545475595,0.3378527989106636,-0.16171799710137771,0.22946277982926555,nan
1740790130.2286663,0.13604980175814393,0.36892874605041726,-0.1859152791930896,0.19759014257024993,nan
1740790130.2325723,0.12422504823214606,0.3981458532039076,-0.2096815441701703,0.1653081907253103,nan
1740790130.2364783,0.11324211087394644,0.4252019243972634,-0.23268337175981232,0.13295494533524696,nan
1740790130.240384,0.10331844157535583,0.4498070100317827,-0.25459405085922987,0.10086686820330613,nan
1740790130.24429,0.09466054144149696,0.47168650547507085,-0.2750970449595635,0.0693753800946998,nan
1740790130.248197,0.08746140247549512,0.49058414543004725,-0.29388937640235185,0.03880342095599558,nan
1740790130.252103,0.08189806529353484,0.5062648625897517,-0.31068489577676434,0.009462087073702108,nan
1740790130.256009,0.07812931964847923,0.518517480081671,-0.3252174036380165,-0.018352620485172676,nan
1740790130.2599149,0.07629357337829802,0.5271572085157337,-0.337243592918803,-0.04436290272736475,nan
1740790130.263821,0.0765069139667276,0.5320279200649073,-0.34654578190714336,-0.0683120927147573,nan
1740790130.267727,0.07886138521945266,0.5330041739135095,-0.35293440946350146,-0.08996737808657788,nan
1740790130.271633,0.08342349963374375,0.5299929695896116,-0.35625026623269956,-0.10912228742946938,nan
1740790130.2755387,0.09023300488954551,0.5229352071352932,-0.35636643795398715,-0.1255989139914483,nan
1740790130.2794447,0.09930192053439202,0.5118068357404127,-0.3531899395655973,-0.1392498527005807,nan
1740790130.2833507,0.11061385839435688,0.49661967534769647,-0.3466630216152106,-0.14995982916743264,nan
1740790130.2872567,0.1241236375415852,0.4774218988029202,-0.3367641335000562,-0.15764700229697443,nan
1740790130.2911627,0.1397572018106361,0.4542981653453804,-0.32350853124284285,-0.16226392528323536,nan
1740790130.295071,0.1574118449073428,0.42736939958032244,-0.3069485208334594,-0.16379815307908158,nan
1740790130.298977,0.17695674512279722,0.3967922135149237,-0.28717333160112246,-0.16227248789263618,nan
1740790130.3028827,0.19823380858021933,0.36275797273989285,-0.2643086175957234,-0.15774485782822842,nan
1740790130.3067887,0.2210588168333356,0.32549151136585497,-0.2385155885180722,-0.15030782742906437,nan
1740790130.3106947,0.24522287153157046,0.2852495038432616,-0.20998977531319651,-0.14008774255609568,nan
1740790130.3146007,0.27049412580007165,0.2423185052718992,-0.1789594390954045,-0.12724351571703507,nan
1740790130.3185065,0.2966197889815282,0.19701267520681556,-0.14568363557474528,-0.11196506160529393,nan
1740790130.3224125,0.3233283884817375,0.14967120325756275,-0.11044995056852223,-0.09447139618493178,nan
1740790130.3263185,0.3503322696811383,0.1006554579239106,-0.07357192547579094,-0.07500841612912038,nan
1740790130.3302245,0.37733031224824387,0.05034588308144619,-0.035386194735564806,-0.05384637875157871,nan
1740790130.3341303,0.4040108387451879,-0.0008613307058950386,0.003750639750057873,-0.03127710572941852,nan
1740790130.3380363,0.4300546891759189,-0.05255777034129223,0.043465369497493925,-0.007610936869895206,nan
1740790130.341943,0.45513843311785274,-0.10432648784794486,0.083371745387372,0.016826537107666302,nan
1740790130.345849,0.47893768931978303,-0.155745817570446,0.12307421618757168,0.04169793134803101,nan
1740790130.349755,0.5011305211622499,-0.20639328730646067,0.16217180520804061,0.06665767960137955,nan
1740790130.3536608,0.5214008751786023,-0.2558495864097374,0.20026208899082398,0.09135576748305671,nan
1740790130.3575668,0.5394420289402895,-0.30370255290934134,0.23694524061347924,0.1154415492840149,nan
1740790130.3614728,0.5549600140303736,-0.34955114105158913,0.271828099199386,0.13856761019321914,nan
1740790130.3653789,0.5676769795738911,-0.39300933040016756,0.3045282265963526,0.16039363498644135,nan
1740790130.3692846,0.5773344618684518,-0.4337099377326569,0.3346779119139953,0.1805902438037004,nan
1740790130.3731906,0.5836965260663631,-0.471308293450866,0.3619280847060717,0.19884275558729136,nan
1740790130.3770967,0.5865527466002611,-0.505485745077082,0.385952098048289,0.21485484008731168,nan
1740790130.3810027,0.5857209941144539,-0.5359529516341571,0.4064493435936882,0.2283520200616875,nan
1740790130.3849084,0.5810499980573501,-0.5624529342961081,0.4231486618818174,0.23908498639901124,nan
1740790130.3888125,0.5724216557967932,-0.5847638506360159,0.4358115127262831,0.24683269036746333,nan
1740790130.3927186,0.5597530611271775,-0.6027014620742788,0.4442348723964941,0.2514051790305252,nan
1740790130.3966246,0.5429982273292039,-0.6161212667243351,0.44825382652862805,0.2526461420552932,nan
1740790130.4005303,0.5221494825014857,-0.6249202727229906,0.4477438302302599,0.2504351406538599,nan
1740790130.4044363,0.4972385176868263,-0.6290383902939329,0.44262260966173345,0.24468949222092884,nan
1740790130.4083424,0.46833707134105285,-0.6284594241982042,0.43285168246158223,0.23536578733703012,nan
1740790130.4122484,0.43555723691284504,-0.6232116518444111,0.4184374777067538,0.22246101916895925,nan
1740790130.4161541,0.39905138369088605,-0.613367976131707,0.39943203963240514,0.20601330888731434,nan
1740790130.4200602,0.35901168459997185,-0.5990456460458683,0.3759333030497139,0.18610221450274042,nan
1740790130.4239662,0.31566924825884796,-0.5804055420867897,0.34808493226083337,0.1628486144632497,nan
1740790130.4278722,0.2692928563167407,-0.5576510277371344,0.3160757192434462,0.13641416141837975,nan
1740790130.431778,0.22018731082891518,-0.5310263723480272,0.2801385409277975,0.10700030570431311,nan
1740790130.4356856,0.1686914001796437,-0.500814754979482,0.2405488794800858,0.07484689229853936,nan
1740790130.4395916,0.11517549577877384,-0.46733586285110507,0.19762291360044923,0.04023033919365833,nan
1740790130.4434977,0.0600387954107069,-0.430943102093211,0.15171519290407182,0.003461409307573698,nan
1740790130.4474037,0.003706232667303242,-0.39202044240062744,0.10321591144272198,-0.03511740785827725,nan
1740790130.4513094,-0.05337492468501513,-0.3509789209431704,0.05254780030428213,-0.07513488461938286,nan
1740790130.4552155,-0.11073876130216027,-0.3082528344408496,0.00016266296325664691,-0.11619438954391337,nan
1740790130.4591215,-0.16790465666903462,-0.2642956516329044,-0.05346241938943622,-0.1578775402593936,nan
1740790130.4630275,-0.22438145133886883,-0.21957568142418077,-0.1078291819676566,-0.19974814355013876,nan
1740790130.4669333,-0.27967180246343193,-0.17457153474867937,-0.16242253629715023,-0.24135638850904267,nan
1740790130.4708393,-0.33327669179228525,-0.12976742061950444,-0.2167151594243432,-0.2822432556426266,nan
1740790130.4747453,-0.3847000473479065,-0.08564831891087618,-0.27017227342751404,-0.3219451022847881,nan
1740790130.4786513,-0.43345343834250766,-0.04269507411829288,-0.32225657404519015,-0.3599983824791634,nan
1740790130.4825587,-0.479060801610258,-0.0013794556477326316,-0.37243326540260563,-0.39594445766631636,nan
1740790130.4864647,-0.5210631569011362,0.037840768922160636,-0.420175156354202,-0.42933445308039464,nan
1740790130.4903705,-0.5590232678321672,0.07452670069212473,-0.4649677728847725,-0.4597341137375312,nan
1740790130.4942765,-0.5925302051275542,0.1082630694596971,-0.5063144403366611,-0.48672861329829137,nan
1740790130.4981825,-0.6212037690067611,0.1386628403544093,-0.5437412889648405,-0.5099272689183114,nan
1740790130.5020885,-0.6446987282012246,0.1653716213824504,-0.5768021364713183,-0.5289681154704098,nan
1740790130.5059943,-0.662708834094551,0.18807182744613207,-0.6050832017371565,-0.5435222932293375,nan
1740790130.5099003,-0.6749705698828752,0.20648655810415575,-0.6282076049526986,-0.5532982042542826,nan
1740790130.5138063,-0.6812665964328664,0.2203831484545129,-0.6458396107388277,-0.5580453942776471,nan
1740790130.5177124,-0.6814288586626848,0.22957635503756132,-0.657688572645083,-0.5575581189006357,nan
1740790130.5216181,-0.675341318770402,0.23393114155281858,-0.6635125395912836,-0.5516785552922684,nan
1740790130.5255241,-0.6629422854662264,0.23336503243638929,-0.6631214873716245,-0.540299623369901,nan
1740790130.5294316,-0.6442263115072747,0.22785000593000054,-0.6563801412440393,-0.5233673835840937,nan
1740790130.5333376,-0.6192456352616305,0.21741390215764067,-0.6432103588599916,-0.5008829819128168,nan
1740790130.5372436,-0.5881111457141394,0.20214132587879857,-0.6235930463243894,-0.4729041164606265,nan
1740790130.5411494,-0.5509928542395789,0.18217402797274462,-0.5975695839831102,-0.4395460041253302,nan
1740790130.5450554,-0.5081198605766913,0.15771075428808426,-0.5652427425848872,-0.4009818301030176,nan
1740790130.5489614,-0.4597798047044702,0.12900655522582796,-0.5267770747210151,-0.3574426675146907,nan
1740790130.5528674,-0.40631780071356616,0.09637155427052814,-0.48239877087452226,-0.3092168591146963,nan
1740790130.5567732,-0.34813485324293053,0.06016917859940096,-0.4323949739720912,-0.2566488578413357,nan
1740790130.5606792,-0.2856857615758297,0.020813859839465057,-0.3771125509880696,-0.2001375278507508,nan
1740790130.5645852,-0.21947652102055865,-0.021231782037194558,-0.3169563248599371,-0.1401339125926371,nan
1740790130.5684912,-0.1500612356994516,-0.06546025383494676,-0.25238677469758997,-0.07713848139613728,nan
1740790130.572397,-0.0780385612950608,-0.11132298068270541,-0.18391721696344235,-0.011697870891708671,nan
1740790130.5763044,-0.00404770061486576,-0.15823454682726593,-0.11211048492514808,0.055598857644612226,nan
1740790130.5802104,0.07123602100343679,-0.20557735409651914,-0.03757512819682467,0.12412441931829797,nan
1740790130.5841162,0.1471059694532253,-0.252706662301836,0.03903884145234687,0.19321793487244115,nan
1740790130.5880222,0.22282937004967793,-0.29895597197205087,0.1170446276704025,0.2621899538197646,nan
1740790130.5919282,0.29765279192990746,-0.34364270625060817,0.19572371617907,0.3303278331518485,nan
1740790130.5958343,0.37080790725389307,-0.38607414557758246,0.27433129253655236,0.39690142968413833,nan
1740790130.59974,0.44151748093379245,-0.42555356595141147,0.35210196964508517,0.4611690607906756,nan
1740790130.603646,0.509001544108091,-0.4613865291501817,0.42825578058699376,0.5223836853483349,nan
1740790130.607552,0.572483702443505,-0.4928872713144244,0.5020043896757237,0.5797992541759635,nan
1740790130.611458,0.6311975286134957,-0.519385134774179,0.5725574722942671,0.6326771771450337,nan
1740790130.6153638,0.6843929869860039,-0.5402309869600936,0.6391292121849129,0.680292852477457,nan
1740790130.6192698,0.7313428376696082,-0.5548035696849346,0.7009448633703512,0.7219422025513436,nan
1740790130.6231768,0.7713489666278408,-0.5625157220271435,0.7572473228422227,0.756948159821021,nan
1740790130.6270828,0.8037485885833219,-0.5628204204966238,0.8073036595608518,0.7846670462334829,nan
1740790130.6309888,0.8279202699001235,-0.5552165811148699,0.8504115451768525,0.8044947897953955,nan
1740790130.6348948,0.8432897195539149,-0.5392545694925611,0.8859055322153713,0.8158729227140685,nan
1740790130.6388006,0.8493352976704113,-0.5145413669287988,0.9131631262566434,0.8182943067992376,nan
1740790130.6427066,0.8455931929251915,-0.48074534297401683,0.9316105998981096,0.811308533562569,nan
1740790130.6466126,0.8316622223395147,-0.4376005877754502,0.9407284979852244,0.7945269486764047,nan
1740790130.6505187,0.8072082096614117,-0.3849107608379478,0.9400567857381855,0.7676272531362377,nan
1740790130.6544244,0.7719679015690374,-0.32255241655787636,0.9291995939640426,0.73035763659221,nan
1740790130.6583304,0.7257523843507667,-0.2504777709939733,0.9078295185082271,0.6825404018491394,nan
1740790130.6622365,0.6684499674769714,-0.16871687879286568,0.8756914344432243,0.6240750434539017,nan
1740790130.6661425,0.6000285045519701,-0.07737919395172063,0.8326057891881544,0.5549407475615905,nan
1740790130.6700492,0.5205371264885873,0.023345506863553696,0.7784713427716469,0.4751982848625874,nan
1740790130.6739552,0.43010736634655344,0.13318685446152415,0.7132673277588492,0.38499127322335513,nan
1740790130.677861,0.3289536600821167,0.2517942812982098,0.6370550059263983,0.28454679180356174,nan
1740790130.681767,0.21737321242984595,0.37873808466226244,0.5499786035490549,0.17417533371794672,nan
1740790130.685673,0.09574522223744143,0.5135111581797116,0.45226561211877087,0.05427008976797892,nan
1740790130.689579,-0.03547053324226621,0.6555313852305751,0.3442264464100887,-0.07469443867070782,nan
1740790130.6934848,-0.1757357503746546,0.8041446821645406,0.22625345699214372,-0.2121644939018079,nan
1740790130.6973908,-0.324436277535407,0.9586286735577836,0.09881929952390932,-0.35750977397418465,nan
1740790130.7012968,-0.4808854047542262,1.1181969762176036,-0.0375253315886058,-0.5100267876470843,nan
1740790130.7052028,-0.6443277444150733,1.282004063265112,-0.18215459239081302,-0.6689428318468865,nan
1740790130.7091086,-0.8139436778760553,1.4491506744566032,-0.33437098353004885,-0.8334205658503142,nan
1740790130.7130146,-0.9888543381089357,1.6186897339879072,-0.49340942645922453,-1.002563151256485,nan
1740790130.7169213,-1.168127093914961,1.7896327324073997,-0.6584418939677662,-1.175419921868005,nan
1740790130.7208273,-1.3507814969896585,1.9609565249843688,-0.8285825626965011,-1.3509925429333145,nan
1740790130.724733,-1.5357956491219338,2.131610494979436,-1.0028934509245848,-1.5282416148502576,nan
1740790130.7286391,-1.722112943157064,2.300524026778724,-1.1803905008342566,-1.7060936724334046,nan
1740790130.7325451,-1.9086491280614073,2.4666142308160803,-1.3600500606981707,-1.8834485272409576,nan
1740790130.7364511,-2.0942996455279848,2.628793859646725,-1.5408157190266687,-2.059186897273947,nan
1740790130.740357,-2.277947183082675,2.7859793524760383,-1.7216054396878926,-2.2321782656299627,nan
1740790130.744263,-2.458469386612872,2.937098943909189,-1.901318944398366,-2.401288907441189,nan
1740790130.748169,-2.6347466736631775,3.081100771687057,-2.0788452867982326,-2.5653900226733066,nan
1740790130.752075,-2.8056700877405993,3.21696091772275,-2.253070560592786,-2.7233659111246706,nan
1740790130.755981,-2.9701491332560077,3.3436913168574107,-2.422885682975599,-2.8741221252567444,nan
1740790130.7598867,-3.1271195306057313,3.460347468415958,-2.587194193759646,-3.0165935363148546,nan
1740790130.7637947,-3.2755508312700363,3.5660358868595154,-2.7449200103387073,-3.1497522495662644,nan
1740790130.7677007,-3.414453833671834,3.6599212295937114,-2.8950150787850504,-3.2726153053889218,nan
1740790130.7716067,-3.5428877418937303,3.741233042288017,-3.0364668620600814,-3.3842521043830094,nan
1740790130.7755127,-3.6599670111842046,3.809272064873161,-3.168305607467032,-3.483791496637687,nan
1740790130.7794185,-3.764867826480262,3.8634160446895605,-3.289611337099838,-3.5704284777522006,nan
1740790130.7833245,-3.8568341629161536,3.9031250070329615,-3.399520507126633,-3.6434304371638246,nan
1740790130.7872305,-3.9351833804537217,3.927945937553636,-3.4972322842729753,-3.7021429077511794,nan
1740790130.7911365,-3.999311308334115,3.9375168355778416,-3.582014390817838,-3.7459947695321714,nan
1740790130.7950423,-4.048696778983765,3.9315701023968352,-3.6532084727604155,-3.774502864529409,nan
1740790130.7989483,-4.08290557527769,3.9099352338678415,-3.7102349495298297,-3.7872759844970036,nan
1740790130.8028543,-4.10159375963491,3.8725407922489374,-3.752597307662327,-3.7840181981526038,nan
1740790130.8067603,-4.104510358256624,3.819415637998641,-3.779885805227375,-3.7645314897958926,nan
1740790130.810668,-4.091499378877503,3.7506894082621507,-3.7917805584093682,-3.728717686675454,nan
1740790130.8145738,-4.06250114564212,3.6665922348888653,-3.7880539865064304,-3.676579658143762,nan
1740790130.8184798,-4.017552940098699,3.5674537010279552,-3.7685725966520445,-3.608221775467179,nan
1740790130.8223858,-3.956788942776015,3.453701041577517,-3.733298094756578,-3.5238496270848496,nan
1740790130.8262918,-3.880439475331153,3.3258565989649607,-3.682287814461338,-3.423768990087297,nan
1740790130.8301976,-3.788829548779531,3.1845345518587096,-3.6156944612532675,-3.3083840646614537,nan
1740790130.8341036,-3.682376728798547,3.0304369404014957,-3.5337651742596092,-3.178194984173513,nan
1740790130.8380096,-3.561588334486181,2.8643490173620347,-3.436839913584071,-3.033794619383767,nan
1740790130.8419156,-3.4270579922114863,2.687133960174673,-3.325349186315213,-2.8758647009595277,nan
1740790130.8458214,-3.2794615712710646,2.499726984127827,-3.199811129490267,-2.705171289924953,nan
1740790130.8497274,-3.119552532922095,2.3031289019257843,-3.060827973291245,-2.5225596309140164,nan
1740790130.8536334,-2.9481567289581734,2.0983991794420884,-2.9090819125436918,-2.3289484280307176,nan
1740790130.8575408,-2.7661666902906776,1.886648541666353,-2.7453304191428853,-2.125323587727129,nan
1740790130.8614469,-2.5745354499604036,1.6690311865838756,-2.570401032310436,-1.9127314773464383,nan
1740790130.8653529,-2.3742699485988124,1.4467366679862883,-2.385185667551521,-1.6922717518089712,nan
1740790130.8692586,-2.166424073556218,1.220981510963602,-2.1906344888074534,-1.465089804312365,nan
1740790130.8731647,-1.9520913856892106,0.9930006260492737,-1.9877493915510358,-1.2323688998442295,nan
1740790130.8770707,-1.732397590129257,0.7640385896611886,-1.7775771474274455,-0.9953220527426924,nan
1740790130.8809767,-1.5084928092200764,0.5353408595879644,-1.561202263479034,-0.7551837114671246,nan
1740790130.8848825,-1.2815437171982182,0.30814499480220797,-1.3397396109897006,-0.513201315142615,nan
1740790130.8887885,-1.052725597088858,0.08367194883544761,-1.1143268805286402,-0.27062678730643563,nan
1740790130.8926945,-0.8232143806906411,-0.1368824946761795,-0.8861169208531846,-0.02870803260646974,nan
1740790130.8966005,-0.5941787324273001,-0.35235607686560355,-0.656270019939267,0.2113194980212346,nan
1740790130.9005063,-0.3667722372518021,-0.5616281432802718,-0.4259461865426276,0.44824110893290847,nan
1740790130.904414,-0.14212575170723887,-0.7636273849622193,-0.1962974903553927,0.6808709646506169,nan
1740790130.9083197,0.07866002431203349,-0.9573391804641077,0.031539481983985374,0.9080599363834275,nan
1740790130.9122257,0.2945216995808765,-1.1418124816448012,0.25645099903516383,1.1287031308746176,nan
1740790130.9161317,0.5044400142989433,-1.3161661899050525,0.4773533305744978,1.341747045060719,nan
1740790130.9200377,0.7074462834305367,-1.4795949737828353,0.693199615349359,1.5461962932936715,nan
1740790130.9239435,0.9026284137719834,-1.6313744834919592,0.9029864009811869,1.7411198575719038,nan
1740790130.9278495,1.0891364515531332,-1.7708659230166426,1.1057598093678576,1.9256568153168372,nan
1740790130.9317555,1.266187621380162,-1.8975199457253884,1.3006212842330467,2.099021503682115,nan
1740790130.9356616,1.4330708216297205,-2.0108798450935685,1.4867328810972924,2.2605080841545893,nan
1740790130.9395673,1.5891505459723148,-2.110584017977368,1.6633220638702313,2.409494476257031,nan
1740790130.9434733,1.7338702054960844,-2.1963676839114807,1.8296859764514477,2.545445634448498,nan
1740790130.9473794,1.8667548308796102,-2.2680638500577297,1.9851951621418875,2.667916147793439,nan
1740790130.9512866,1.9874131391813312,-2.3256035176584495,2.1292967082706062,2.776552147587466,nan
1740790130.9551926,2.0955389550298062,-2.3690151320938226,2.2615167981929556,2.871092513837711,nan
1740790130.9590986,2.1909119812690108,-2.3984232848528912,2.381462657675526,2.951369377249864,nan
1740790130.9630044,2.2733979193914338,-2.4140466818505577,2.488823887608815,3.0173079191227945,nan
1740790130.9669104,2.3429479453343043,-2.41619539850542,2.5833731799389903,3.068925477246309,nan
1740790130.9708164,2.3995975513768304,-2.4052674477847917,2.664966418643667,3.1063299714894117,nan
1740790130.9747224,2.4434647699155305,-2.381744692974645,2.7335421724520153,3.129717668208365,nan
1740790130.9786282,2.4747477997688385,-2.346188142196519,2.78912059078643,3.139370307849868,nan
1740790130.9825342,2.4937220603306045,-2.299232666626415,2.8318017190419815,3.135651625131172,nan
1740790130.9864402,2.5007367033167154,-2.241581188930815,2.8617632537831,3.119003295904048,nan
1740790130.9903462,2.496210615993619,-2.1739983925844464,2.879257762688398,3.089940349214531,nan
1740790130.994252,2.480627953608622,-2.0973040064387556,2.8846093980800256,3.0490460871192226,nan
1740790130.998159,2.454533242228784,-2.0123657221389717,2.8782101366019974,2.996966558478884,nan
1740790131.002065,2.418526096310594,-1.9200918047150033,2.860515581033283,2.9344046361921974,nan
1740790131.005971,2.373255598042284,-1.821423458875484,2.832040363310236,2.862113750131428,nan
1740790131.009877,2.3194143878038798,-1.7173270151980726,2.7933531905655853,2.780891330376068,nan
1740790131.0137827,2.2577325169602998,-1.6087860015202486,2.7450715783483415,2.69157201719329,nan
1740790131.0176888,2.188971115626697,-1.4967931653859843,2.687856317153668,2.5950206955724067,nan
1740790131.0215948,2.1139159290139418,-1.3823425133922134,2.622405719951425,2.4921254129760544,nan
1740790131.0255008,2.0333707764703757,-1.2664214327074674,2.5494496995470217,2.3837902393197394,nan
1740790131.0294065,1.9481509873829788,-1.1500029589105885,2.4697437253330516,2.270928128034073,nan
1740790131.0333126,1.8590768676894083,-1.0340382526323195,2.384062709292572,2.154453836405642,nan
1740790131.0372186,1.7669672498894526,-0.9194493452934667,2.293194870996828,2.035276962242377,nan
1740790131.0411246,1.6726331781406059,-0.807122211541656,2.1979356308066467,1.9142951522810088,nan
1740790131.0450313,1.5768717782927086,-0.6979002228200886,2.099081579546821,1.7923875356658336,nan
1740790131.0489373,1.4804603605788482,-0.5925780328858424,1.997424571588571,1.67040843330095,nan
1740790131.0528433,1.3841508001558127,-0.4918959420657561,1.893745986562424,1.549181390938198,nan
1740790131.056749,1.2886642378021014,-0.3965347826317646,1.7888112028512242,1.429493580538901,nan
1740790131.060655,1.1946861398627895,-0.3071113629349265,1.6833643236022517,1.3120906107716444,nan
1740790131.0645611,1.10286175300898,-0.22417450290130345,1.5781231932730548,1.197671783515544,nan
1740790131.0684671,1.013791985588209,-0.14820168820860644,1.4737747397145096,1.0868858289666672,nan
1740790131.0723732,0.9280297433162673,-0.07959636497757577,1.370970673526038,0.9803271474341446,nan
1740790131.076279,0.8460767428373207,-0.018685891175233088,1.2703235729231004,0.8785325812039351,nan
1740790131.080185,0.7683808222966183,0.03427984481152605,1.1724033786687078,0.7819787349852637,nan
1740790131.084091,0.6953337635679029,0.07912913376330889,1.0777343197732123,0.6910798584817899,nan
1740790131.087997,0.6272696361963696,0.11576848449793593,0.986792286695111,0.6061862995914244,nan
1740790131.0919034,0.5644636684983513,0.1441819988834874,0.9000026647161826,0.5275835316806452,nan
1740790131.0958095,0.5071316466417054,0.1644300954949567,0.8177386360533079,0.4554917533461382,nan
1740790131.0997155,0.455429837956554,0.1766475999048718,0.7403199551432583,0.3900660541130909,nan
1740790131.1036212,0.4094554302344282,0.18104122489188126,0.668012197431963,0.3313971346689939,nan
1740790131.1075273,0.36924747440372335,0.1778864689032321,0.6010264779516529,0.27951256553652687,nan
1740790131.1114333,0.3347883137580541,0.16752396587438734,0.5395196320129743,0.23437856358941786,nan
1740790131.1153393,0.3060054788973177,0.1503553239515848,0.48359484650788365,0.19590226154952886,nan
1740790131.119245,0.28277402375264793,0.1268384947439247,0.43330272664529085,0.163934441607664,nan
1740790131.123151,0.26491927453741854,0.09748271841690469,0.3886427794551561,0.13827270061810118,nan
1740790131.127057,0.25221996022578086,0.0628430931993154,0.34956529212654686,0.11866501095775298,nan
1740790131.130963,0.24441169023393636,0.02351482068406973,0.31597358021704286,0.10481363814218414,nan
1740790131.1348689,0.24119074239045152,-0.019872819360944295,0.2877265780085786,0.09637937367600839,nan
1740790131.138777,0.2422181220501989,-0.06666270911100548,0.26464174080923947,0.09298603940420044,nan
1740790131.1426828,0.24712385134839143,-0.11617629082940835,0.2464982268299797,0.09422521783966423,nan
1740790131.1465888,0.25551144611961896,-0.16772006530746839,0.23304032441487924,0.09966116158307468,nan
1740790131.1504948,0.2669625369311912,-0.22059213255469654,0.2239810888856527,0.10883583403150894,nan
1740790131.1544008,0.2810415900061425,-0.27408871689571473,0.21900615208471674,0.12127403309679104,nan
1740790131.1583066,0.29730068354110156,-0.3275106193415596,0.2177776668721065,0.13648854962254298,nan
1740790131.1622126,0.31528429505627376,-0.38016954131372593,0.21993834835254947,0.15398531259662437,nan
1740790131.1661186,0.33453405594383656,-0.431394225495152,0.22511557347964756,0.17326847409467752,nan
1740790131.1700246,0.3545934302984455,-0.48053636174473374,0.2329255009005458,0.19384538814896313,nan
1740790131.1739304,0.37501227640707385,-0.526976208618181,0.24297717346010353,0.2152314393986714,nan
1740790131.1778364,0.39535125092969736,-0.5701278840614465,0.2548765666685018,0.2369546794241986,nan
1740790131.1817424,0.41518601779872844,-0.609444282253468,0.2682305476379332,0.2585602310756903,nan
1740790131.18565,0.43411122618214165,-0.6444215773391212,0.28265071049701795,0.27961442384968505,nan
1740790131.189556,0.45174422446865514,-0.6746032788745985,0.2977570560780709,0.29970862641816004,nan
1740790131.193462,0.46772848011642215,-0.6995838081669666,0.31318148572191096,0.31846274574049604,nan
1740790131.197368,0.4817366783304643,-0.7190115692859839,0.32857108133517965,0.3355283657571471,nan
1740790131.201274,0.49347347586774953,-0.7325914933163585,0.3435911463416677,0.3505915024386731,nan
1740790131.2051797,0.5026778897797304,-0.7400870393577107,0.35792798486594013,0.36337495590814034,nan
1740790131.2090857,0.5091253045566154,-0.7413216408220208,0.37129139934704936,0.37364024443029276,nan
1740790131.2129917,0.5126290849006017,-0.7361795906778924,0.3834168897737411,0.38118910922816956,nan
1740790131.2168977,0.5130417851913631,-0.7246063644010541,0.39406754083073164,0.38586458330712764,nan
1740790131.2208035,0.5102559505802245,-0.7066083844648855,0.40303558641826925,0.38755162169770385,nan
1740790131.2247095,0.5042045085238086,-0.6822522351976666,0.4101436442238519,0.38617729473270673,nan
1740790131.2286155,0.4948607534078458,-0.6516633417002087,0.4152456162552479,0.3817105501113192,nan
1740790131.232523,0.4822379306823373,-0.6150241312152851,0.4182272544575972,0.3741615535356831,nan
1740790131.236429,0.4663884305962646,-0.5725716998276073,0.41900639370479076,0.3635806215967483,nan
1740790131.240335,0.4474026051507845,-0.5245950116108635,0.41753285754763386,0.3500567643007882,nan
1740790131.244241,0.4254072252531273,-0.47143166129001246,0.41378804509077216,0.3337158581329448,nan
1740790131.2481468,0.400563598219713,-0.4134642351189247,0.4077842102305004,0.314718473818396,nan
1740790131.2520528,0.37306536871911106,-0.35111630795510723,0.3995634471915061,0.293257385936942,nan
1740790131.2559588,0.34313602893823625,-0.2848481174174795,0.3891963988291871,0.26955479424738926,nan
1740790131.2598648,0.3110261661762283,-0.21515195851667077,0.3767807064942244,0.2438592889614331,nan
1740790131.2637706,0.27701047819994046,-0.14254734423033114,0.36243922236857573,0.21644259425346649,nan
1740790131.2676766,0.24138458851603406,-0.0675759791430539,0.34631800706022187,0.18759612598676526,nan
1740790131.2715826,0.20446169521341628,0.009203405529921422,0.32858413687353377,0.15762740096527758,nan
1740790131.2754886,0.16656908819544955,0.08722030647117451,0.30942334654126946,0.12685633597476484,nan
1740790131.279396,0.1280445704464143,0.16589774299065757,0.2890375343037608,0.0956114754519423,nan
1740790131.2833018,0.08923281945678474,0.24465754277476937,0.26764215704434313,0.06422618681377665,nan
1740790131.2872078,0.05048172506597311,0.3229255700941357,0.24546354373370763,0.03303486229321136,nan
1740790131.2911139,0.01213873977135015,0.40013684897169194,0.2227361556985814,0.002369165567729272,nan
1740790131.2950199,-0.02545272299590092,0.4757405353032297,0.19969982221350063,-0.027445639457580523,nan
1740790131.2989256,-0.06195680800591231,0.5492046938239026,0.17659697962279025,-0.056094241627993514,nan
1740790131.3028316,-0.09704862135089204,0.6200208381051884,0.15366994163995656,-0.08327468280772665,nan
1740790131.3067377,-0.13041748562722708,0.687708194423033,0.13115822765285695,-0.1087015729006654,nan
1740790131.3106437,-0.16177001704271432,0.7518176533315488,0.10929597479695609,-0.13210908931315518,nan
1740790131.3145497,-0.19083299636825118,0.8119353760771373,0.0883094582595292,-0.15325373304911308,nan
1740790131.3184555,-0.2173560079543004,0.8676860265619426,0.06841474276084085,-0.171916816373378,nan
1740790131.3223615,-0.2411138235547415,0.9187356033775599,0.049815486441953126,-0.18790665994126846,nan
1740790131.3262687,-0.2619085104184959,0.9647938504424413,0.03270091649242175,-0.2010604804401443,nan
1740790131.3301747,-0.27957124599477123,1.005616228950305,0.017243993795780448,-0.2112459530900008,nan
1740790131.3340805,-0.2939638246222389,1.041005437631822,0.0035997816786860013,-0.21836243677148479,nan
1740790131.3379865,-0.3049798447057336,1.070812472706727,-0.008095968455790806,-0.22234185305666407,nan
1740790131.3418925,-0.31254556809554923,1.094937223316715,-0.01772800422475643,-0.22314921397572884,nan
1740790131.3457985,-0.31662044664278344,1.1133286026394458,-0.025202524165063415,-0.2207827969262754,nan
1740790131.3497043,-0.3171973141781314,1.1259842192493552,-0.030447889007417493,-0.21527396868607096,nan
1740790131.3536103,-0.3143022454196906,1.1329495975712245,-0.0334150894094583,-0.20668666399066318,nan
1740790131.3575163,-0.3079940865269316,1.1343169604281524,-0.03407796973458372,-0.19511652755014808,nan
1740790131.3614223,-0.298363665152799,1.1302235906786684,-0.03243320993055094,-0.18068973167231198,nan
1740790131.365328,-0.2855326908748053,1.1208497927320673,-0.028500069970335648,-0.16356148480094343,nan
1740790131.369234,-0.2696523597810246,1.1064164782925927,-0.022319903644218708,-0.14391424923895138,nan
1740790131.373141,-0.2509016797216655,1.0871824039801974,-0.013955450714943345,-0.12195568907853545,nan
1740790131.377047,-0.22948553528680302,1.0634410914794772,-0.0034899185462214854,-0.09791637187972431,nan
1740790131.380953,-0.20563251391305393,1.0355174635529973,0.008974133730084405,-0.0720472499013982,nan
1740790131.384859,-0.17959251663611345,1.0037642315980095,0.02331609364863447,-0.04461694867525896,nan
1740790131.3887649,-0.15163417887378677,0.9685580724071029,0.03939875997013596,-0.015908892405843502,nan
1740790131.3926709,-0.12204212822990193,0.9302956333979991,0.05706995546144648,0.01378170293568735,nan
1740790131.396577,-0.09111410764008594,0.889389406793307,0.07616426876665389,0.044150936890799776,nan
1740790131.400483,-0.05915799322561186,0.8462635140493828,0.09650490522578485,0.0748893994944291,nan
1740790131.4043887,-0.026488736973783344,0.8013494422500047,0.1179056257027402,0.10568538087956797,nan
1740790131.4082947,0.006574735182005235,0.7550817741947069,0.14017275191298878,0.13622808235470688,nan
1740790131.4122007,0.0397126391541222,0.7078939535265358,0.16310721639700776,0.16621079606168676,nan
1740790131.4161067,0.0726074317789988,0.6602141254666668,0.1865066351680926,0.19533402090641258,nan
1740790131.4200134,0.10494686303374083,0.6124610925643493,0.2101673811710419,0.22330848335799297,nan
1740790131.4239194,0.136426951967772,0.5650404233442191,0.23388663701741244,0.2498580329218735,nan
1740790131.4278255,0.166754857929318,0.5183407498567534,0.2574644060072849,0.27472238359526724,nan
1740790131.4317315,0.19565161993566424,0.4727302879322575,0.2807054611985255,0.29765967439156366,nan
1740790131.4356372,0.22285473855697407,0.42855361142811627,0.30342121323210314,0.31844882405487823,nan
1740790131.4395432,0.24812057643911933,0.38612870896951973,0.3254314787540395,0.33689165735446114,nan
1740790131.4434493,0.27122655556266934,0.34574434864460457,0.34656613257716123,0.35281478282721984,nan
1740790131.4473553,0.2919731315019406,0.3076577728569669,0.3666666281836228,0.36607120449898467,nan
1740790131.451261,0.31018552728745513,0.2720927420949441,0.3855873727653998,0.37654165293375275,nan
1740790131.455167,0.3257152119631589,0.2392379427823983,0.40319694471659906,0.38413562390586536,nan
1740790131.459073,0.3384411115410858,0.2092457706658734,0.41937914330952947,0.38879211603281355,nan
1740790131.462979,0.34827054276461744,0.18223149740442846,0.43403386218616685,0.39048006181517547,nan
1740790131.4668856,0.3551398628700415,0.15827282419841782,0.4470777802575022,0.38919844967380696,nan
1740790131.4707916,0.35901483135737566,0.13740982245919744,0.458444865604501,0.38497613772120487,nan
1740790131.4746976,0.3598906826177553,0.11964525772026108,0.4680866899949495,0.3778713631227176,nan
1740790131.4786036,0.35779191108846775,0.10494528925812245,0.4759725536493992,0.367970953963011,nan
1740790131.4825094,0.3527717733908078,0.09324053426394427,0.48208942188595055,0.35538925350386075,nan
1740790131.4864154,0.34491151462363373,0.08442748191876699,0.4864416772275108,0.3402667695718337,nan
1740790131.4903214,0.334319328611078,0.07837023940893192,0.4890506924467337,0.32276856452111874,nan
1740790131.4942274,0.3211290644115555,0.07490258880485617,0.4899542318343017,0.3030824037513955,nan
1740790131.4981332,0.30549869376372357,0.07383033084432279,0.48920568968780215,0.2814166830991285,nan
1740790131.5020392,0.28760855635147875,0.07493388903721454,0.4868731766145831,0.25799815754072297,nan
1740790131.5059452,0.26765940179433617,0.07797114516577046,0.48303846570738385,0.2330694955277513,nan
1740790131.5098512,0.24587024909345054,0.0826804752136839,0.47779581197256354,0.20688668490052387,nan
1740790131.5137591,0.22247608587099266,0.08878395303641423,0.4712506595552114,0.17971631768186427,nan
1740790131.517665,0.19772543111771373,0.09599068769839686,0.4635182523029914,0.15183278212604154,nan
1740790131.521571,0.17187778629872227,0.10400025936156386,0.45472216403262344,0.12351539117920919,nan
1740790131.525477,0.14520100055170818,0.11250621792149738,0.44499276550282807,0.09504547699127382,nan
1740790131.529383,0.11796857633841507,0.12119960825683726,0.4344656455505773,0.06670348130157355,nan
1740790131.5332887,0.09045694227505921,0.12977248598505464,0.42328000411087036,0.03876607140192474,nan
1740790131.5371947,0.06294271996910243,0.13792138800069942,0.41157703491321646,0.01150331096325465,nan
1740790131.5411007,0.03570001152939479,0.14535072280454134,0.3994983155317371,-0.01482408569809654,nan
1740790131.5450068,0.008997733997856062,0.15177604670420733,0.3871842221634947,-0.03996738833257144,nan
1740790131.5489128,-0.016902973720385225,0.15692719336619926,0.37477238602630947,-0.06369234813334887,nan
1740790131.5528185,-0.04175124676658268,0.16055122590978016,0.36239620760986757,-0.08578153298701016,nan
1740790131.5567245,-0.06530886956400579,0.16241518273627675,0.35018344419095715,-0.10603647757781409,nan
1740790131.5606322,-0.08735250823414839,0.1623085905615058,0.3382548850454436,-0.12427962731559522,nan
1740790131.5645382,-0.10767577962114773,0.16004572064015174,0.32672312766797407,-0.14035605725070124,nan
1740790131.568444,-0.12609113811330847,0.15546756691283153,0.31569146705846207,-0.15413494951203746,nan
1740790131.57235,-0.14243156338113774,0.148443527740962,0.3052529087667037,-0.1655108153316336,nan
1740790131.576256,-0.15655203423118794,0.13887277599148415,0.2954893149183807,-0.17440445037513994,nan
1740790131.580162,-0.16833077598251686,0.1266853054615351,0.2864706908938099,-0.18076361485503314,nan
1740790131.584068,-0.17767027108539954,0.11184264495990136,0.2782546187121072,-0.18456343273406045,nan
1740790131.5879738,-0.1844980250964828,0.09433823475421187,0.27088584150583217,-0.18580650720177444,nan
1740790131.5918798,-0.18876708257689345,0.07419746351669361,0.2643960017726467,-0.1845227524979734,nan
1740790131.5957859,-0.190456289965492,0.05147736732301463,0.25880353437937753,-0.18076894503437363,nan
1740790131.5996919,-0.1895703049738147,0.026265995644773107,0.25411371358844737,-0.17462799960106462,nan
1740790131.6035976,-0.18613935452795105,-0.0013185474066692798,0.2503188516948881,-0.1662079792090912,nan
1740790131.6075053,-0.18021874572137667,-0.031129375111102378,0.24739864522184388,-0.15564084978734022,nan
1740790131.611411,-0.17188813661812355,-0.06299238888722064,0.24532066304070096,-0.14308099349446818,nan
1740790131.615317,-0.1612505760347637,-0.09670813027691806,0.24404096927511462,-0.12870349679996337,nan
1740790131.619223,-0.14843132361082934,-0.1320538939530543,0.24350487243171043,-0.11270223170908764,nan
1740790131.6231291,-0.13357646352984529,-0.16878607902025974,0.2436477908885387,-0.09528775053286459,nan
1740790131.627035,-0.11685132715803587,-0.20664275360001869,0.24439622367866667,-0.07668501641692112,nan
1740790131.630941,-0.09843874160745773,-0.2453464056731666,0.24566881444242428,-0.057130993424469104,nan
1740790131.634847,-0.07853712278890426,-0.28460685141349085,0.2473774954982653,-0.03687212130402705,nan
1740790131.638753,-0.057358432883658696,-0.3241242708010927,0.2494286982078077,-0.016161701149266895,nan
1740790131.6426587,-0.035126023320058396,-0.36359233916617745,0.2517246151925649,0.0047427810333121965,nan
1740790131.6465647,-0.012072385281161438,-0.40270142249269647,0.2541644995038139,0.025582365300399167,nan
1740790131.6504707,0.011563169514033673,-0.4411418038132295,0.2566459855566718,0.04609933549014855,nan
1740790131.6543782,0.035536874526555115,-0.478606907854947,0.2590664165168083,0.06603991590980357,nan
1740790131.6582842,0.05960289712709254,-0.5147964912515272,0.261324162873574,0.08515691952828296,nan
1740790131.6621902,0.08351572683452468,-0.5494197661143841,0.2633199171450877,0.10321232079400772,nan
1740790131.666096,0.1070325397688575,-0.5821984255521913,0.26495795003564376,0.11997972705194236,nan
1740790131.670002,0.12991551646202362,-0.6128695408311514,0.26614731389881985,0.13524672364736695,nan
1740790131.673908,0.15193409082935963,-0.6411883012673135,0.26680298004400715,0.1488170691648973,nan
1740790131.677814,0.17286710897722557,-0.6669305696214972,0.2668468972516667,0.1605127188455054,nan
1740790131.6817198,0.19250487759784785,-0.6898952277089329,0.26620895982368814,0.17017565603481796,nan
1740790131.6856258,0.2106510829687576,-0.709906289119506,0.2648278745786597,0.1776695135239256,nan
1740790131.6895318,0.22712456301717576,-0.7268147583476351,0.26265191739536303,0.18288096882854493,nan
1740790131.6934378,0.24176091651373216,-0.7405002182287973,0.2596395711979922,0.18572089979115397,nan
1740790131.6973436,0.254413935207717,-0.7508721303460265,0.2557600386489341,0.18612528935957967,nan
1740790131.701251,0.26495684658930974,-0.7578708359763164,0.25099362425437854,0.18405587096940385,nan
1740790131.7051568,0.27328335694328215,-0.7614682481645365,0.24533198207856566,0.179500508610179,nan
1740790131.7090628,0.27930848642304984,-0.7616682286110358,0.23877822678791766,0.17247330835995767,nan
1740790131.7129688,0.28296919000248394,-0.7585066462075989,0.2313469072898788,0.1630144609017451,nan
1740790131.7168748,0.28422476033396193,-0.7520511172237463,0.2230638437763687,0.15118981726164843,nan
1740790131.7207806,0.283057010732695,-0.7424004303000977,0.2139658305115419,0.1370902027043281,nan
1740790131.7246866,0.27947023869762,-0.729683662516824,0.20410020820162766,0.12083047635996298,nan
1740790131.7285926,0.2734909725460947,-0.7140589958424622,0.19352431123484118,0.10254834671177322,nan
1740790131.7324986,0.2651675058620164,-0.6957122462021353,0.18230479646631456,0.08240295551901664,nan
1740790131.7364047,0.25456922651392233,-0.6748551202059239,0.17051686153176132,0.06057324506276798,nan
1740790131.7403104,0.24178574897110114,-0.6517232172208803,0.15824336189042906,0.03725612575799927,nan
1740790131.7442164,0.2269258605127449,-0.6265737969284747,0.14557383690974182,0.01266446315417351,nan
1740790131.7481234,0.21011629366997348,-0.5996833347598496,0.13260345629943193,-0.012975094871611201,nan
1740790131.7520294,0.19150033884639758,-0.5713448896226568,0.11943189907115354,-0.03942442835745133,nan
1740790131.7559354,0.17123631251519547,-0.5418653101067025,0.10616217793181347,-0.06643636922593751,nan
1740790131.7598412,0.1494958976757271,-0.5115623068645507,0.09289942260739248,-0.09375721417479166,nan
1740790131.7637472,0.1264623743592245,-0.48076142009396305,0.07974963603288657,-0.12112930084089928,nan
1740790131.7676532,0.10232875889125435,-0.4497929119905415,0.06681843762879963,-0.14829362100752508,nan
1740790131.7715592,0.07729587134076063,-0.41898861468317367,0.05420980801257288,-0.17499244430813354,nan
1740790131.775465,0.0515703511059079,-0.3886787645066997,0.042024849463464416,-0.2009719258321937,nan
1740790131.779371,0.025362640901925918,-0.3591888535034146,0.030360576272127043,-0.22598467125860677,nan
1740790131.783277,-0.0011150404757232608,-0.33083652877861824,0.019308748764053456,-0.2497922336279313,nan
1740790131.787183,-0.02765071633774523,-0.30392856976912463,0.008954764292849974,-0.27216751661011496,nan
1740790131.7910888,-0.054034641263862544,-0.27875797262425567,-0.0006233821393266005,-0.2928970601217191,nan
1740790131.7949958,-0.08006124176992505,-0.25560116975609476,-0.009356055753757033,-0.31178318538513,nan
1740790131.7989018,-0.10553098970049811,-0.23471541120190778,-0.017182847385962027,-0.32864597798899237,nan
1740790131.8028076,-0.13025219044532177,-0.21633633277171888,-0.02405333644821991,-0.3433250891888471,nan
1740790131.8067136,-0.15404266912872638,-0.20067573404555214,-0.02992774265191567,-0.3556813375622964,nan
1740790131.8106196,-0.1767313391332159,-0.1879195871574056,-0.03477745890922507,-0.36559809518476194,nan
1740790131.8145256,-0.19815963867844283,-0.178226294978563,-0.03858545914795256,-0.372982444699052,nan
1740790131.8184314,-0.2181828226696036,-0.1717252148149427,-0.04134657615618815,-0.3777660959918326,nan
1740790131.8223374,-0.23667109863881164,-0.16851546108705542,-0.04306764601000521,-0.37990605363919766,nan
1740790131.8262434,-0.25351059731171094,-0.16866499769353605,-0.0437675171120121,-0.3793850288167065,nan
1740790131.8301494,-0.2686041701214893,-0.17221002789768722,-0.04347692336532793,-0.3762115919610441,nan
1740790131.8340552,-0.28187200784443606,-0.17915468664965162,-0.042238222510300176,-0.3704200650946494,nan
1740790131.8379612,-0.29325207642595724,-0.18947103729370432,-0.04010500214377069,-0.362070155354721,nan
1740790131.8418694,-0.3027003679837344,-0.20309937164002506,-0.037141557406814824,-0.35124633387756643,nan
1740790131.8457754,-0.31019096689564596,-0.21994880943242295,-0.03342224575080915,-0.3380569667520374,nan
1740790131.8496811,-0.3157159327844562,-0.2398981903467058,-0.029030725558027166,-0.32263320724615346,nan
1740790131.8535872,-0.3192850040796102,-0.26279724883706135,-0.024059086686906372,-0.30512766090391397,nan
1740790131.8574932,-0.32092512764993025,-0.2884680594372211,-0.018606882219787457,-0.28571283738104847,nan
1740790131.8613992,-0.32067982174112913,-0.31670673754566825,-0.012780071799035739,-0.26457940501610167,nan
1740790131.865305,-0.31860838110164924,-0.34728537830440986,-0.006689887934137289,-0.24193426609597607,nan
1740790131.869211,-0.31478493472290403,-0.3799542139420761,-0.0004516375366618079,-0.21799847255306337,nan
1740790131.873117,-0.3092973680404292,-0.41444396791559324,0.005816548317600382,-0.1930050034070726,nan
1740790131.877023,-0.3022461227269439,-0.4504683823696092,0.011995002797699198,-0.16719642662282466,nan
1740790131.8809288,-0.2937428883445592,-0.48772689385607704,0.01796383584055526,-0.14082246918257305,nan
1740790131.8848348,-0.28390920110059215,-0.5259074309325974,0.02360425642698841,-0.11413752005657204,nan
1740790131.8887427,-0.2728749657606928,-0.5646893061990402,0.028799890101434755,-0.08739809139035237,nan
1740790131.8926487,-0.26077691740698994,-0.6037461745470717,0.033438077234894364,-0.06086026360529004,nan
1740790131.8965547,-0.24775704018236752,-0.6427490288929527,0.037411137696923565,-0.034777140227258745,nan
1740790131.9004605,-0.23396096043131892,-0.6813692044441187,0.04061758792471004,-0.009396338115606404,nan
1740790131.9043665,-0.2195363317315147,-0.7192813626155962,0.042963296852243114,0.015042461636890577,nan
1740790131.9082725,-0.20463122920871382,-0.7561664260611823,0.04436256778554579,0.038309877518436376,nan
1740790131.9121785,-0.1893925702431624,-0.7917144369120868,0.0447391340745756,0.06018908241604811,nan
1740790131.9160843,-0.17396457821244823,-0.8256273112146694,0.04402705733074795,0.08047792686760402,nan
1740790131.9199903,-0.1584873052798687,-0.8576214637191855,0.04217151796180245,0.09899090954701069,nan
1740790131.9238963,-0.1430952294365432,-0.8874302785802967,0.03912948893237343,0.11556097536173494,nan
1740790131.9278023,-0.12791594004929038,-0.9148064031724873,0.03487028489699579,0.13004112331822112,nan
1740790131.931708,-0.11306892506556465,-0.9395238440822503,0.029375980179721446,0.14230580826501854,nan
1740790131.9356158,-0.09866447179430235,-0.9613798463944557,0.02264169047669866,0.15225212273551111,nan
1740790131.9395218,-0.08480269183079206,-0.9801965396216433,0.014675714620513829,0.15980074736082522,nan
1740790131.9434278,-0.07157267923999888,-0.995822336008999,0.005499534252078984,0.16489666068570943,nan
1740790131.9473338,-0.05905180957190273,-1.0081330694603163,-0.004852329218498293,0.16750960167206927,nan
1740790131.9512396,-0.04730518567121486,-1.0170328659457855,-0.016332599432619048,0.1676342806916038,nan
1740790131.9551456,-0.036385234579913474,-1.0224547389444838,-0.028881669212317745,0.16529033736504503,nan
1740790131.9590516,-0.02633145813217981,-1.0243609062161023,-0.042428160001580874,0.1605220461751636,nan
1740790131.9629576,-0.017170338125940356,-1.0227428269600314,-0.05688961113772903,0.15339777333783206,nan
1740790131.9668634,-0.008915395241535161,-1.0176209611781808,-0.07217329203781973,0.14400919093445644,nan
1740790131.9707694,-0.0015673991844181692,-1.0090442557831178,-0.08817712902081049,0.13247025676436455,nan
1740790131.9746754,0.004885274126897918,-0.997089364658651,-0.10479073720530997,0.11891597074271551,nan
1740790131.9785814,0.010466144106576257,-0.9818596124593215,-0.1218965467393316,0.1035009209242295,nan
1740790131.9824889,0.015209993087650114,-0.9634837144033331,-0.139371011545388,0.0863976343529162,nan
1740790131.986395,0.019162108694893393,-0.9421142666460357,-0.15708588781354288,0.06779474990162666,nan
1740790131.9903007,0.02237741108663268,-0.9179260239956296,-0.1749095686572815,0.04789503205299166,nan
1740790131.9942067,0.02491947636647183,-0.8911139837282699,-0.19270846067145464,0.026913246167174883,nan
1740790131.9981127,0.026859468554708582,-0.8618912960571677,-0.2103483876061318,0.005073917165875791,nan
1740790132.0020187,0.02827499345686964,-0.8304870233925474,-0.2276960060009284,-0.017391005277662158,nan
1740790132.0059245,0.02924888856362367,-0.7971437718815964,-0.2446202174162185,-0.040244551027924146,nan
1740790132.0098305,0.02986796375434327,-0.7621152198274204,-0.26099356185326933,-0.06324717856045686,nan
1740790132.0137365,0.030221708049321467,-0.7256635684434243,-0.2766935770762304,-0.08615924369490982,nan
1740790132.0176425,0.03040097795866985,-0.6880569409971232,-0.2916041088344195,-0.1087434626897283,nan
1740790132.0215483,0.030496683106315287,-0.6495667567303143,-0.30561655743137645,-0.1307673444839661,nan
1740790132.0254543,0.03059848476445374,-0.6104651060086693,-0.31863104669366676,-0.15200556721135464,nan
1740790132.0293617,0.03079352271818347,-0.5710221529537517,-0.3305575021518618,-0.17224227470415052,nan
1740790132.0332677,0.03116518549452335,-0.5315035913473473,-0.34131662615122493,-0.19127326954325796,nan
1740790132.0371737,0.031791938439266434,-0.49216817887779224,-0.35084075865150394,-0.2089080802881405,nan
1740790132.0410798,0.03274622341531065,-0.4532653738289728,-0.3590746136437402,-0.22497188182412772,nan
1740790132.0449855,0.03409344303529592,-0.41503309710581837,-0.36597588239523904,-0.23930724928267547,nan
1740790132.0488915,0.03589104133908794,-0.37769564105862585,-0.3715156961191061,-0.2517757277064707,nan
1740790132.0527976,0.03818769169392853,-0.34146174492778064,-0.37567894213779535,-0.2622592015287105,nan
1740790132.0567036,0.0410226014444518,-0.30652285489808384,-0.3784644291559052,-0.2706610499949951,nan
1740790132.0606093,0.04442494148472048,-0.2730515847469464,-0.3798848988602201,-0.2769070768564835,nan
1740790132.0645154,0.04841340748007268,-0.2412003909146728,-0.37996688270785467,-0.28094620498159517,nan
1740790132.0684214,0.05299591794815348,-0.21110047353982264,-0.3787504044296167,-0.2827509289475754,nan
1740790132.0723274,0.05816945283310223,-0.18286091261251647,-0.3762885304474568,-0.28231752115768394,nan
1740790132.0762308,0.0639200345909491,-0.15656804592756904,-0.3726467720650268,-0.2796659895600477,nan
1740790132.0801368,0.07022285216604299,-0.13228509299353847,-0.3679023449208429,-0.2748397875940435,nan
1740790132.0840425,0.07704252659485518,-0.11005202649839037,-0.3621432927774966,-0.2679052795342404,nan
1740790132.0879486,0.0843335153433248,-0.08988569037417518,-0.35546748424028474,-0.25895096691406055,nan
1740790132.0918546,0.0920406508840409,-0.0717801609673763,-0.3479814924386289,-0.24808648416637555,nan
1740790132.0957606,0.10009980746795813,-0.055707345334600505,-0.3397993690475813,-0.23544137399096626,nan
1740790132.0996664,0.10843868855840527,-0.04161780826971777,-0.3310413252602003,-0.22116365522530915,nan
1740790132.1035724,0.11697772598946753,-0.029441817353167546,-0.3218323334305816,-0.2054181981322176,nan
1740790132.1074784,0.1256310806013996,-0.01909059311971636,-0.31230066407960333,-0.18838492400389542,nan
1740790132.1113844,0.13430773290719433,-0.010457749389835484,-0.3025763737796144,-0.1702568477965593,nan
1740790132.1152902,0.14291265126971367,-0.0034209069220911843,-0.2927897601008163,-0.15123798413452882,nan
1740790132.1191962,0.15134802412995516,0.0021565381614908475,-0.28306980030274287,-0.13154113844083182,nan
1740790132.1231031,0.15951454203437213,0.006423511231659444,-0.27354259078261206,-0.11138560614846119,nan
1740790132.1270092,0.1673127145717177,0.009539242637130971,-0.26432980444366255,-0.0909948039100298,nan
1740790132.1309152,0.17464420685479967,0.01167116023271249,-0.25554718311799535,-0.07059385744373198,nan
1740790132.134821,0.18141317987549876,0.012992714194606295,-0.24730308196884507,-0.050407171122709635,nan
1740790132.138727,0.18752761892608566,0.013681157953301333,-0.2396970824073323,-0.030656004628007508,nan
1740790132.142633,0.19290063431833648,0.013915309411413146,-0.23281868949137138,-0.011556081940011188,nan
1740790132.146539,0.1974517188443013,0.013873316698725411,-0.22674612903382235,0.006684742360485694,nan
1740790132.1504447,0.2011079468070338,0.013730452549677447,-0.22154525873980735,0.023868735069592643,nan
1740790132.1543508,0.20380510000280813,0.013656960971842373,-0.2172686066270049,0.039810431013589255,nan
1740790132.1582568,0.20548870675267447,0.013815979212879137,-0.21395454876799286,0.054338651827407866,nan
1740790132.1621628,0.20611498095396266,0.014361557135187697,-0.2116266370411057,0.06729837559154046,nan
1740790132.1660686,0.20565164914232095,0.015436794982374035,-0.2102930860992847,0.07855243756362014,nan
1740790132.1699755,0.20407865471219575,0.017172119181404055,-0.20994642717865536,0.08798304394858526,nan
1740790132.1738815,0.20138872972605815,0.019683714283800613,-0.21056333468611527,0.0954930825462609,nan
1740790132.1777875,0.19758782613735748,0.023072127424523185,-0.21210462974411498,0.10100721617873433,nan
1740790132.1816936,0.19269539974439345,0.02742105978666664,-0.21451546304896532,0.10447274701122528,nan
1740790132.1855993,0.1867445417668048,0.032796357523719295,-0.21772567753431432,0.10586024221724481,nan
1740790132.1895053,0.1797819545765347,0.03924521243018276,-0.22165034944301715,0.10516391387809486,nan
1740790132.1934114,0.17186776980396654,0.046795580388505655,-0.22619050451737946,0.10240174852378604,nan
1740790132.1973174,0.16307520875949516,0.055455823279170514,-0.2312340041394084,0.09761538429170012,nan
1740790132.2012231,0.15349008684311283,0.06521457764567125,-0.23665659440828657,0.09086973627512192,nan
1740790132.2051291,0.1432101653411275,0.07604085098212929,-0.24232310935142024,0.0822523732294777,nan
1740790132.2090352,0.13234435571170794,0.08788434408326404,-0.24808881774641345,0.07187265137394183,nan
1740790132.2129412,0.1210117831211168,0.10067599548989409,-0.25380090140293826,0.05986061354337344,nan
1740790132.2168477,0.10934071759270858,0.1143287417026315,-0.2593000512326327,0.046365664385217095,nan
1740790132.2207537,0.09746738265338734,0.12873848454662298,-0.2644221660388339,0.03155503463274287,nan
1740790132.2246597,0.08553465279108141,0.14378525487455876,-0.26900013770105885,0.015612049696251436,nan
1740790132.2285655,0.0736906523558372,0.15933455971644636,-0.2728657053261672,-0.001265780125335389,nan
1740790132.2324715,0.06208726973212874,0.1752388980441986,-0.2758513600013453,-0.01886882861969154,nan
1740790132.2363775,0.0508786016673229,0.19133942853690886,-0.2777922810247445,-0.036977560930112,nan
1740790132.2402835,0.04021934354907837,0.20746777112713094,-0.27852828391701717,-0.055364856732862615,nan
1740790132.2441895,0.03026314217226238,0.22344792269597177,-0.27790576013865714,-0.07379842566831443,nan
1740790132.2480953,0.021160928114850975,0.2390982660799322,-0.2757795882596779,-0.0920432903390924,nan
1740790132.2520013,0.013059245245097535,0.2542336505674454,-0.2720149963533709,-0.10986431140413744,nan
1740790132.2559073,0.006098595103688269,0.26866752130810556,-0.2664893556163162,-0.1270287287697615,nan
1740790132.2598133,0.0004118139409664203,0.28221407454034836,-0.2590938856522327,-0.14330869261354592,nan
1740790132.2637212,-0.0038774999606996713,0.2946904152690044,-0.24973525249491746,-0.15848375797763267,nan
1740790132.267627,-0.0066564913857889065,0.30591869399559374,-0.2383370412813147,-0.17234331693552535,nan
1740790132.271533,-0.007824468932377843,0.315728199321504,-0.2248410865127587,-0.1846889428688216,nan
1740790132.275439,-0.0072942253336752035,0.3239573837051174,-0.20920864405255737,-0.19533662218299588,nan
1740790132.279345,-0.004993242155136599,0.3304558003535727,-0.1914213903905455,-0.20411884983702358,nan
1740790132.2832508,-0.000864764707910679,0.3350859301609745,-0.17148223624826045,-0.21088656635073957,nan
