timestamps,TP9,AF7,AF8,TP10,Right AUX
1740790118.5768442,-0.08451426933273114,-0.1351729392546425,0.061554620306516525,-0.0896663974984751,nan
1740790118.5807502,-0.09885218356682357,-0.12775652290443043,0.11226565534250485,-0.0985616835406054,nan
1740790118.584656,-0.11173787999675092,-0.12181658827716499,0.16626880033803695,-0.10681374706664068,nan
1740790118.588562,-0.12302561435457669,-0.11743217177554587,0.22328189424233058,-0.11436269860586737,nan
1740790118.592468,-0.1325872546657123,-0.11466239619208556,0.2829906414799292,-0.12115886491048206,nan
1740790118.596374,-0.14031358637953142,-0.11354580104668895,0.34505049010295863,-0.12716326061294153,nan
1740790118.6002798,-0.1461154136189795,-0.11409988912891718,0.4090888072195517,-0.1323479288911426,nan
1740790118.6041858,-0.1499244454633357,-0.11632089427876655,0.4747073373125739,-0.13669614783628325,nan
1740790118.6080918,-0.15169395842668826,-0.12018377318314037,0.5414849262773248,-0.14020250072692367,nan
1740790118.6119978,-0.1513992286323814,-0.1256424216782373,0.6089804913450222,-0.142872809939481,nan
1740790118.6159036,-0.14903772958646178,-0.13263011375425066,0.6767362145473627,-0.144723935753542,nan
1740790118.6198096,-0.14462909389662917,-0.1410601591810018,0.7442809350413018,-0.1457834428235921,nan
1740790118.6237166,-0.1382148397421614,-0.1508267734345541,0.8111337134763599,-0.1460891385708426,nan
1740790118.6276226,-0.1298578653496954,-0.16180615142819244,0.8768075396714552,-0.1456884891836234,nan
1740790118.6315286,-0.11964171714443395,-0.17385773445827735,0.9408131531946902,-0.14463792028705805,nan
1740790118.6354344,-0.10766963960160604,-0.18682565778779006,1.0026629450259599,-0.14300201063746112,nan
1740790118.6393404,-0.09406341709464484,-0.20054036442793843,1.0618749073446958,-0.14085258840008014,nan
1740790118.6432464,-0.07896202020134441,-0.21482036895993692,1.1179765976367595,-0.1382677406675579,nan
1740790118.6471524,-0.06252007096482139,-0.22947415368255247,1.170509082766681,-0.1353307478585288,nan
1740790118.6510582,-0.04490614349174165,-0.24430217799198548,1.2190308284218208,-0.13212895549070514,nan
1740790118.6549642,-0.026300917986301676,-0.2590989807133897,1.2631214994093818,-0.12875259654087087,nan
1740790118.6588702,-0.006895207847423648,-0.27365535411983216,1.3023856366774669,-0.12529357817773148,nan
1740790118.6627762,0.013112119217447052,-0.28776056760502355,1.3364561776374495,-0.12184424707584002,nan
1740790118.666682,0.03351630399931532,-0.3012046184287031,1.3649977873829944,-0.11849614778515415,nan
1740790118.6705904,0.05410891957179627,-0.31378048663378866,1.3877099697248085,-0.11533878873786854,nan
1740790118.6744962,0.07468013246540803,-0.3252863711459384,1.4043299285802093,-0.11245843042050974,nan
1740790118.6784022,0.09502097724582921,-0.3355278842101043,1.4146351521606468,-0.1099369100250305,nan
1740790118.6823082,0.11492562035945772,-0.3443201816937507,1.4184456945733541,-0.10785051651975766,nan
1740790118.6862142,0.13419358920958593,-0.35149000738928976,1.4156261318777232,-0.10626892955299021,nan
1740790118.69012,0.1526319427762413,-0.356877630273036,1.4060871722927575,-0.10525423492414855,nan
1740790118.694026,0.17005736068876764,-0.36033865471656357,1.389786903116307,-0.10486002853651226,nan
1740790118.697932,0.1862981284970099,-0.36174568488869163,1.3667316599655996,-0.10513061978998368,nan
1740790118.701838,0.20119599795586815,-0.3609898260199121,1.336976507154816,-0.10610034429209313,nan
1740790118.7057438,0.21460790242867114,-0.3579820068119873,1.3006253213613839,-0.10779299457157153,nan
1740790118.7096498,0.22640750901412451,-0.3526541090474357,1.2578304741684283,-0.11022137618391564,nan
1740790118.7135558,0.2364865906944489,-0.3449598923691688,1.208792112575658,-0.11338699521596281,nan
1740790118.717464,0.24475620367173323,-0.33487570424053104,1.1537570401133603,-0.11727988174114874,nan
1740790118.7213697,0.25114765708639436,-0.322400967239918,1.0930172047417894,-0.12187855226429696,nan
1740790118.7252758,0.2556132644754952,-0.3075584380706925,1.0269078032385328,-0.12715011264050874,nan
1740790118.7291818,0.258126868607441,-0.29039423495383787,0.9558050152370281,-0.13305050137362662,nan
1740790118.7330878,0.25868413370001353,-0.2709776323947707,0.8801233834479503,-0.13952487161276705,nan
1740790118.7369936,0.2573026014665923,-0.2494006246536114,0.8003128598402677,-0.1465081085875932,nan
1740790118.7408996,0.25402150991577666,-0.22577726157639721,0.7168555406496007,-0.1539254776715008,nan
1740790118.7448056,0.24890137632697826,-0.20024276273981992,0.6302621159888353,-0.16169339675355401,nan
1740790118.7487116,0.24202334831322958,-0.17295241810078604,0.5410680625316773,-0.16972032515130397,nan
1740790118.7526174,0.2334883293367565,-0.1440802855018832,0.44982961019793355,-0.17790775992362784,nan
1740790118.7565234,0.22341588743739782,-0.11381769744276225,0.3571195159655937,-0.18615132916061033,nan
1740790118.7604294,0.21194295824391282,-0.08237159146457611,0.2635226798474279,-0.1943419706505885,nan
1740790118.7643373,0.19922235553951081,-0.04996268029030801,0.16963163967942826,-0.20236718326628367,nan
1740790118.768243,0.18542110472259318,-0.01682347949970422,0.07604198265829896,-0.21011233748440605,nan
1740790118.772149,0.1707186164199837,0.016803788023147952,-0.016652287478469748,-0.2174620306672552,nan
1740790118.776055,0.15530471925259431,0.05066939036372093,-0.10786338812449968,-0.2243014720999499,nan
1740790118.779961,0.13937757230412215,0.08451836600334155,-0.19701436056313845,-0.2305178823009477,nan
1740790118.783867,0.12314147918518777,0.11809286198126591,-0.2835435981443988,-0.23600189081265105,nan
1740790118.787773,0.10680462670406472,0.15113450775288545,-0.3669092606665135,-0.24064891653771947,nan
1740790118.791679,0.09057677203825316,0.18338680131265922,-0.4465935365589475,-0.24436051471795445,nan
1740790118.795585,0.07466690293888052,0.21459748399402784,-0.5221067156246355,-0.24704567485731696,nan
1740790118.7994907,0.05928089588467647,0.2445208804398635,-0.5929910366020218,-0.2486220542679061,nan
1740790118.8033967,0.04461919722930886,0.2729201805551771,-0.6588242756401513,-0.24901713246486534,nan
1740790118.8073027,0.03087455225271067,0.2995696408064229,-0.7192230439278255,-0.24816927234879954,nan
1740790118.8112104,0.01822980663421836,0.3242566830132596,-0.7738457651625545,-0.2460286749860625,nan
1740790118.8151162,0.006855804215755754,0.34678386978177184,-0.8223953062660366,-0.24255821582023035,nan
1740790118.8190222,-0.003090595977377642,0.3669707369431308,-0.8646212377266322,-0.23773415131266828,nan
1740790118.8229282,-0.011468361634109282,0.3846554647764628,-0.9003217031498921,-0.23154668630507605,nan
1740790118.8268342,-0.018153967525262913,0.39969637139552533,-0.9293448809974265,-0.2240003938096424,nan
1740790118.83074,-0.02304289548770256,0.4119732134496637,-0.9515900250621956,-0.21511448044904544,nan
1740790118.834646,-0.026050936969666774,0.42138828121287814,-0.9670080739327291,-0.20492289237374597,nan
1740790118.838552,-0.027115283066321137,0.42786727719157014,-0.9756018235065955,-0.1934742581617282,nan
1740790118.842458,-0.026195389125416406,0.431359969550934,-0.9774256604902456,-0.18083166693882885,nan
1740790118.8463638,-0.02327360329899039,0.4318406139204594,-0.972584858732929,-0.16707228172841285,nan
1740790118.8502698,-0.01835555083533186,0.42930813946768837,-0.961234444150977,-0.15228678982881783,nan
1740790118.8541758,-0.01147026842191959,0.4237860975029699,-0.94357763786963,-0.13657869380721643,nan
1740790118.8580832,-0.002670085479189207,0.41532237327236654,-0.9198638910069783,-0.12006344847031035,nan
1740790118.8619893,0.007969748059311346,0.4039886639869135,-0.8903865282133574,-0.1028674509067748,nan
1740790118.865895,0.020351685289313866,0.3898797284998652,-0.8554800206254305,-0.08512689237498766,nan
1740790118.869801,0.034356752361590116,0.37311241635535314,-0.815516912263959,-0.06698648241413444,nan
1740790118.873707,0.04984565753834151,0.3538244861683973,-0.7709044270663158,-0.04859805706960033,nan
1740790118.877613,0.06666012927538117,0.33217322543467015,-0.7220807866691964,-0.03011908452792292,nan
1740790118.8815188,0.08462447086117636,0.3083338858868218,-0.6695112717159298,-0.011711082736601207,nan
1740790118.8854249,0.10354731679341249,0.2824979503917532,-0.6136840618307797,0.006462035274956023,nan
1740790118.8893309,0.12322357386169672,0.25487124910059983,-0.5551058914568019,0.02423567166844009,nan
1740790118.8932369,0.14343652785480696,0.2256719441024757,-0.494297560474007,0.04144629213449801,nan
1740790118.8971426,0.16396009494435915,0.19512840317820096,-0.4317893398837851,0.05793319411673903,nan
1740790118.9010487,0.1845611951341266,0.16347698438703442,-0.36811631384981525,0.07354027627704511,nan
1740790118.904956,0.20500222372368027,0.1309597541358893,-0.3038137000144295,0.08811779028132281,nan
1740790118.908862,0.2250435955325645,0.09782216206661332,-0.239412190255532,0.10152405590400768,nan
1740790118.912768,0.24444633568070318,0.06431069654513147,-0.1754333539090365,0.11362712056696023,nan
1740790118.916674,0.26297469003326385,0.03067054474136984,-0.11238514495533307,0.12430634474481253,nan
1740790118.92058,0.2803987280026825,-0.0028567187518288386,-0.050757553759064336,0.13345389518339143,nan
1740790118.924486,0.2964969102627243,-0.03603539109949202,0.008981557333412434,0.14097612858741523,nan
1740790118.9283917,0.3110585940726844,-0.0686378250743848,0.06639039688444544,0.14679484933306153,nan
1740790118.9322977,0.3238864493344543,-0.10044651521528915,0.12105693008996239,0.15084842584329247,nan
1740790118.9362037,0.3347987592087782,-0.1312560649349691,0.17260227401997932,0.1530927515197943,nan
1740790118.9401097,0.34363158009423006,-0.16087501444348443,0.2206837717036482,0.15350203754416653,nan
1740790118.9440155,0.35024073701536484,-0.18912751078761883,0.26499771732511335,0.15206942642999677,nan
1740790118.9479215,0.3545036319641671,-0.21585480293887901,0.3052817079970672,0.14880741691217816,nan
1740790118.9518301,0.356320844478023,-0.24091654667477994,0.3413166010139466,0.143748092584489,nan
1740790118.9557362,0.3556175057020103,-0.2641919059730042,0.3729280591251154,0.13694314862378343,nan
1740790118.9596422,0.35234442935503474,-0.28558043975584846,0.3999876701768948,0.12846371295063655,nan
1740790118.963548,0.34647898537770216,-0.3050027650618114,0.4224136314161105,0.1183999602523716,nan
1740790118.967454,0.3380257045623304,-0.32240099005986156,0.44017099279068667,0.10686051941475792,nan
1740790118.97136,0.3270166051278451,-0.3377389127360817,0.45327145768742166,0.09397167705214562,nan
1740790118.975266,0.3135112349785937,-0.3510019835475722,0.4617727436753798,0.07987638197095312,nan
1740790118.9791718,0.2975964262491127,-0.36219703282949256,0.4657775099369597,0.06473305752635233,nan
1740790118.9830778,0.27938576165848095,-0.3713517662325663,0.4654318621293168,0.048714230915050706,nan
1740790118.9869838,0.25901875514887,-0.3785140339344497,0.460923449388254,0.032004990466447836,nan
1740790118.9908898,0.2366597522339188,-0.3837508817836977,0.452479172027786,0.01480128392904718,nan
1740790118.9947956,0.21249655840378315,-0.38714739487456484,0.44036252216494604,-0.002691927421829429,nan
1740790118.9987025,0.1867388067955446,-0.3888053462899838,0.42487058297619046,-0.020262642325049342,nan
1740790119.0026085,0.15961607911084624,-0.38884166586537017,0.40633071553589306,-0.0376939026334299,nan
1740790119.0065145,0.13137579641857378,-0.3873867457948974,0.38509696516773084,-0.0547659664837685,nan
1740790119.0104203,0.10228089899155646,-0.38458260170357517,0.3615462219275852,-0.07125855082772994,nan
1740790119.0143263,0.07260733666617566,-0.38058090942342016,0.3360741722057886,-0.08695312158528483,nan
1740790119.0182323,0.04264139335764571,-0.3755409391225419,0.3090910804638242,-0.10163520885838774,nan
1740790119.0221384,0.01267687128852205,-0.36962740962643953,0.2810174417859737,-0.11509672403418841,nan
1740790119.0260441,-0.01698783782751652,-0.36300828672770385,0.2522795472128755,-0.1271382552232376,nan
1740790119.0299501,-0.04605276597900772,-0.35585254999241805,0.22330500471837186,-0.13757131732551844,nan
1740790119.0338562,-0.07421943660955303,-0.34832795303005215,0.1945182591834785,-0.14622053310017633,nan
1740790119.0377622,-0.10119395625174975,-0.34059880239227136,0.16633615480593453,-0.1529257219358278,nan
1740790119.041668,-0.12669009880328885,-0.33282378020120484,0.13916358305827542,-0.15754387357699423,nan
1740790119.045575,-0.15043235095421062,-0.32515383527829195,0.11338925857340573,-0.1599509848562529,nan
1740790119.049481,-0.17215888733584378,-0.31773016695248973,0.08938166419958851,-0.16004373850611092,nan
1740790119.053387,-0.19162444433909495,-0.31068232487583003,0.0674852049359293,-0.15774100437232635,nan
1740790119.0572927,-0.20860306224161107,-0.30412644707191333,0.048016608547704925,-0.1529851448119079,nan
1740790119.0611987,-0.22289066628563325,-0.2981636570986622,0.03126160838487087,-0.1457431077227193,nan
1740790119.0651047,-0.2343074586540193,-0.29287863963249894,0.017471941306800996,-0.136007292503625,nan
1740790119.0690107,-0.24270009489047722,-0.28833841199174454,0.006862690675115648,-0.12379617626872663,nan
1740790119.0729165,-0.24794362018841562,-0.28459130712908903,-0.0003899988592042147,-0.10915468981870974,nan
1740790119.0768225,-0.2499431431148002,-0.281666181455549,-0.0041508115490707315,-0.0921543351872944,nan
1740790119.0807285,-0.24863522672216973,-0.2795718585321957,-0.004326736233671565,-0.07289303901027416,nan
1740790119.0846345,-0.24398897961209118,-0.27829681720379973,-0.0008681119519040081,-0.0514947384863561,nan
1740790119.0885403,-0.2360068323231611,-0.2778091301745345,0.00623076797521538,-0.028108699289461303,nan
1740790119.0924485,-0.22472498740011937,-0.27805665636559707,0.016931500634310877,-0.0029085674269166166,nan
1740790119.0963545,-0.21021353463001521,-0.278967487674478,0.031151869916081123,0.023908840308095876,nan
1740790119.1002603,-0.19257622617710835,-0.2804506480031582,0.048766593200731206,0.05212499999398273,nan
1740790119.1041663,-0.1719499096794455,-0.2823970396654952,0.06960851255782337,0.08150138843707001,nan
1740790119.1080723,-0.14850362075484072,-0.28468062955080814,0.09347022036532,0.1117814227588275,nan
1740790119.1119783,-0.12243733976954489,-0.2871598647392449,0.1201061050090724,0.14269261677282935,nan
1740790119.115884,-0.0939804211160275,-0.28967930466281466,0.1492347981978746,0.1739489368459197,nan
1740790119.11979,-0.06338970659357274,-0.29207145441136084,0.18054200145985053,0.20525333770697762,nan
1740790119.123696,-0.03094733775358767,-0.2941587814216122,0.2136836656114969,0.2363004565920984,nan
1740790119.127602,0.0030417147720606173,-0.2957558955851841,0.24828949344750958,0.26677944221910904,nan
1740790119.1315079,0.038252383928650026,-0.2966718707919341,0.2839667326220783,0.29637689338773504,nan
1740790119.135414,0.07434247701299551,-0.2967126841108281,0.32030422271273007,0.32477988052345147,nan
1740790119.1393218,0.11095585806114781,-0.2956837472218361,0.35687665780549715,0.351679022240148,nan
1740790119.1432278,0.14772581294319054,-0.2933925033678629,0.3932490236417024,0.3767715880042953,nan
1740790119.1471336,0.18427856611329546,-0.28965106201139385,0.4289811664454163,0.3997645972541763,nan
1740790119.1510396,0.22023691609812554,-0.28427884257019465,0.463632449026515,0.42037788487237865,nan
1740790119.1549456,0.25522395524291763,-0.2771051980810315,0.4967664486436782,0.4383471027361323,nan
1740790119.1588516,0.2888668379903292,-0.26797198940842654,0.527955650427079,0.4534266271836445,nan
1740790119.1627574,0.320800561057523,-0.25673608068240356,0.5567860899106423,0.4653923426379701,nan
1740790119.1666634,0.35067171831409044,-0.24327172701766334,0.5828618984131774,0.4740442723232775,nan
1740790119.1705694,0.37814219295617146,-0.22747282623622317,0.6058097056369962,0.47920902798877574,nan
1740790119.1744754,0.40289274972594546,-0.20925500728307156,0.6252828549182632,0.48074205181758106,nan
1740790119.1783812,0.424626490442688,-0.18855752928327957,0.6409653880576697,0.47852962523322606,nan
1740790119.1822872,0.4430721369903839,-0.1653449667302702,0.6525757585714357,0.4724906211143441,nan
1740790119.186195,0.45798710714260005,-0.1396086581062465,0.6598702345155462,0.46257797797486133,nan
1740790119.1901007,0.469160350189569,-0.11136789730229295,0.6626459547311022,0.4487798769466993,nan
1740790119.1940067,0.4764149112535366,-0.08067084950981715,0.660743605412683,0.43112060489614346,nan
1740790119.1979127,0.4796101954211791,-0.04759517577668888,0.6540496872881845,0.40966108969304244,nan
1740790119.2018187,0.47864390536815504,-0.012248353138237121,0.6424983473879765,0.3844990965111264,nan
1740790119.2057245,0.4734536289791335,0.025232319879334077,0.6260727533407484,0.35576907704341926,nan
1740790119.2096305,0.4640180565527873,0.0646800395540823,0.6048059923277394,0.32364166664275124,nan
1740790119.2135365,0.4503578104983271,0.10589913908554582,0.578781481218436,0.2883228276160575,nan
1740790119.2174425,0.43253587394884563,0.14866605732378124,0.5481328789595717,0.25005264018366924,nan
1740790119.2213483,0.41065760840553117,0.19273063161047924,0.5130434969539651,0.20910374593140324,nan
1740790119.2252543,0.38487035435224975,0.23781770891888118,0.4737452079036816,0.16577945190344176,nan
1740790119.2291603,0.3553626127071704,0.28362906617368794,0.4305168583596783,0.12041150677704289,nan
1740790119.2330678,0.32236280897062486,0.3298456273671205,0.3836821949733162,0.07335756379510254,nan
1740790119.2369738,0.2861376459491633,0.37612996189496767,0.3336073191398044,0.02499834827871007,nan
1740790119.2408795,0.2469900549468756,0.4221290454489412,0.280697689315813,-0.02426544943098518,nan
1740790119.2447855,0.20525675927850556,0.4674772618501348,0.22539469474005164,-0.07401653187371415,nan
1740790119.2486916,0.16130546783674804,0.5117996214232706,0.16817182854445398,-0.12382457678426602,nan
1740790119.2525976,0.1155317202008978,0.5547151689216228,0.10953049227424251,-0.17325001489275638,nan
1740790119.2565033,0.06835540836910485,0.5958405516456481,0.04999546759882057,-0.22184797201588696,nan
1740790119.2604094,0.020217003596413458,0.634793716279881,-0.009889905544182516,-0.26917234222944747,nan
1740790119.2643154,-0.02842648000838869,0.671197701126188,-0.06956880200620054,-0.3147799571726397,nan
1740790119.2682214,-0.07710575056441563,0.7046844888581353,-0.12847619056572687,-0.3582348150894883,nan
1740790119.2721272,-0.12534369499752931,0.734898883679567,-0.18604427166707496,-0.39911233207844915,nan
1740790119.2760332,-0.17265998763500312,0.7615023758563412,-0.24170802434066477,-0.43700357721259553,nan
1740790119.2799406,-0.21857580937779228,0.7841769560164187,-0.294910811386823,-0.4715194527208371,nan
1740790119.2838464,-0.26261863442025307,0.802628841389807,-0.3451099908634845,-0.5022947802938778,nan
1740790119.2877524,-0.304327040278719,0.8165920762929161,-0.3917824813461516,-0.5289922548024952,nan
1740790119.2916584,-0.3432554960803534,0.825831969654759,-0.43443022833444767,-0.5513062272924194,nan
1740790119.2955644,-0.3789790836637924,0.8301483332351505,-0.4725855195673699,-0.5689662800486374,nan
1740790119.2994702,-0.4110981060609344,0.8293784853939541,-0.5058160978786815,-0.5817405577982535,nan
1740790119.3033762,-0.439242538368923,0.8233999868286894,-0.5337300215698717,-0.5894388207376788,nan
1740790119.3072822,-0.4630762768828648,0.8121330765951202,-0.5559802240916345,-0.5919151870164245,nan
1740790119.3111882,-0.4823011436394532,0.7955427789481686,-0.5722687270924409,-0.5890705345725323,nan
1740790119.315094,-0.49666060521156546,0.7736406540720248,-0.5823504635968071,-0.5808545347770483,nan
1740790119.319,-0.505943166682634,0.7464861685886373,-0.5860366711946327,-0.5672672931874971,nan
1740790119.322906,-0.5099854042016924,0.7141876648203389,-0.5831978186308818,-0.548360575810804,nan
1740790119.3268132,-0.508674602356501,0.6769029111095488,-0.5737660330526855,-0.5242386026098197,nan
1740790119.330719,-0.5019509657805213,0.6348392190385338,-0.557736999365987,-0.49505839352741376,nan
1740790119.334625,-0.48980937790385504,0.5882531171147241,-0.5351713076403749,-0.4610296560188215,nan
1740790119.338531,-0.47230068353957094,0.5374495743599902,-0.506195229240133,-0.42241420694543397,nan
1740790119.342437,-0.4495324760333842,0.4827807712315702,-0.4710009073106886,-0.37952492565888535,nan
1740790119.3463428,-0.4216693739617173,0.4246444193726739,-0.4298459523694148,-0.3327242391589754,nan
1740790119.3502488,-0.3889327768043242,0.36348163580574866,-0.3830524389931056,-0.28242214430772977,nan
1740790119.3541548,-0.351600093603843,0.2997743813036769,-0.3310053049152093,-0.22907377618885183,nan
1740790119.3580608,-0.3100034433157114,0.23404247676621912,-0.2741501591967849,-0.17317653578083028,nan
1740790119.3619666,-0.26452783030607147,0.16684021545296104,-0.21299051146847797,-0.11526679412667641,nan
1740790119.3658726,-0.21560880323004467,0.09875259284243891,-0.14808443950873815,-0.055916194097680665,nan
1740790119.3697786,-0.16372961027505337,0.030391179663091197,-0.08004071757864502,0.004272425372872678,nan
1740790119.3736856,-0.10941786844042245,-0.03761033276075433,-0.009514432929332442,0.06466945410196463,nan
1740790119.3775914,-0.05324176910241201,-0.10460088232011171,0.06279787731133941,0.12462325262679408,nan
1740790119.3814974,0.004194153459206095,-0.16991704542364555,0.13616353212434415,0.1834651762757234,nan
1740790119.3854034,0.06225365966214947,-0.2328882672636739,0.20981941445759433,0.24051484338101065,nan
1740790119.3893094,0.12027381343657109,-0.29284227196337914,0.28297803603581567,0.29508560706561937,nan
1740790119.3932152,0.17757032360757843,-0.34911060930005666,0.3548339106471347,0.3464901877475197,nan
1740790119.3971212,0.23344317577212295,-0.4010342928326122,0.4245701842774514,0.3940464215588261,nan
1740790119.4010272,0.2871825095094394,-0.4479694827715096,0.49136546774034184,0.43708307829403165,nan
1740790119.4049332,0.33807469304640875,-0.48929316583333965,0.5544008151840063,0.4749457012988925,nan
1740790119.408839,0.3854085451786169,-0.5244087836341018,0.6128667900701562,0.5070024209031153,nan
1740790119.412745,0.42848165234856533,-0.5527517609054929,0.6659705589311212,0.5326496925967605,nan
1740790119.416651,0.4666067273248744,-0.5737948849737807,0.712942952434962,0.5513179111593615,nan
1740790119.4205592,0.4991179549270393,-0.5870534885240895,0.7530454330334959,0.5624768523759758,nan
1740790119.4244652,0.5253772697119892,-0.5920903886832709,0.7855769087400045,0.5656408948157773,nan
1740790119.428371,0.544780510489779,-0.5885205368873365,0.809880333382291,0.560373975402895,nan
1740790119.432277,0.5567633969705478,-0.5760153358460205,0.8253490349984528,0.5462942341688606,nan
1740790119.436183,0.5608072747633487,-0.5543065821652526,0.831432715878351,0.5230783056304751,nan
1740790119.440089,0.5564445763451282,-0.5231899958220418,0.8276430700897843,0.4904652166719652,nan
1740790119.4439948,0.543263947486542,-0.4825283006859671,0.8135589671469466,0.44825985360828813,nan
1740790119.4479008,0.5209149909472811,-0.432253823624175,0.788831153757558,0.3963359642463995,nan
1740790119.4518068,0.4891125820203013,-0.3723705833862315,0.7531864292978413,0.33463866421925564,nan
1740790119.4557128,0.44764071369050157,-0.3029558444120887,0.7064312547809121,0.2631864206162138,nan
1740790119.4596186,0.39635583275418523,-0.22416111490892748,0.6484547595702991,0.1820724899437388,nan
1740790119.4635246,0.33518963219231895,-0.13621257296595013,0.5792311149089142,0.09146579168970623,nan
1740790119.4674327,0.2641512693712427,-0.03941090908384069,0.49882124844456144,-0.008388796801157922,nan
1740790119.4713387,0.18332898422382526,0.06586942175126172,0.40737387929297075,-0.11717073384030476,nan
1740790119.4752445,0.09289109640415333,0.1791815404609399,0.3051258587430567,-0.2344847002828456,nan
1740790119.4791505,-0.006913634530949866,0.30000807382403466,0.192401807429455,-0.3598620799801952,nan
1740790119.4830565,-0.11575629662260425,0.42776366612770145,0.06961304562548405,-0.4927630291516991,nan
1740790119.4869626,-0.23322876603119436,0.5617980597421354,-0.0627441808041215,-0.6325791251912799,nan
1740790119.4908683,-0.35884530045922813,0.7013997269821097,-0.2040911703577595,-0.77863658062729,nan
1740790119.4947743,-0.4920447798590469,0.8458000308659644,-0.3537699174753271,-0.9302000032367423,nan
1740790119.4986804,-0.632193583318619,0.9941778877786127,-0.5110469257001258,-1.0864766787191873,nan
1740790119.5025864,-0.7785890855838334,1.1456649006303832,-0.6751176567705519,-1.2466213479002646,nan
1740790119.5064921,-0.9304637513435715,1.2993509269175438,-0.8451115845664072,-1.4097414461988058,nan
1740790119.5103981,-1.086989800221227,1.4542900421708314,-1.0200978176523714,-1.5749027690910757,nan
1740790119.514306,-1.2472844104289462,1.609506855660891,-1.1990912492631254,-1.7411355235764798,nan
1740790119.518212,-1.410415424292897,1.7640031319472869,-1.3810591890035735,-1.9074407222236462,nan
1740790119.522118,-1.575407514391678,1.916764668941191,-1.5649284263335752,-2.072796873284776,nan
1740790119.5260239,-1.7412487649055612,2.0667683806282464,-1.7495926721065103,-2.2361669176372256,nan
1740790119.5299299,-1.9068976189890277,2.2129895304917344,-1.9339203210682836,-2.396505360969397,nan
1740790119.533836,-2.071290139587431,2.3544090600074017,-2.1167624753278824,-2.5527655476946043,nan
1740790119.537742,-2.2333475281517035,2.490020955367273,-2.296961166408013,-2.7039070215701084,nan
1740790119.5416477,-2.3919838431903444,2.6188395948433087,-2.4733577115962593,-2.8489029169335236,nan
1740790119.5455537,-2.546113858559195,2.739907018931953,-2.644801138960821,-2.986747323856335,nan
1740790119.5494597,-2.6946609998462967,2.852300065632418,-2.8101566145826027,-3.1164625703615667,nan
1740790119.5533657,-2.83656529617694,2.9551373139055723,-2.968313805295466,-3.237106365162958,nan
1740790119.5572715,-2.9707912842536364,3.047585779533277,-3.118195110521521,-3.3477787451558094,nan
1740790119.5611792,-3.096335801463876,3.1288673092421853,-3.2587636976372836,-3.447628773120379,nan
1740790119.5650852,-3.2122356054369225,3.1982646210597716,-3.3890312767025725,-3.5358609327789075,nan
1740790119.5689912,-3.3175747585068756,3.2551269414178634,-3.508065552316265,-3.6117411704649123,nan
1740790119.572897,-3.4114917171355414,3.2988751924905455,-3.614997292815674,-3.674602535201982,nan
1740790119.576803,-3.4931860684534524,3.3290066866256436,-3.709026959989155,-3.7238503719297813,nan
1740790119.580709,-3.561924858674247,3.345099288474971,-3.789430845900027,-3.758967025933757,nan
1740790119.584615,-3.61704846120623,3.3468150095180227,-3.8555666672954896,-3.779516020206167,nan
1740790119.5885208,-3.657975935800246,3.3339030040732105,-3.906878572364307,-3.7851456714599214,nan
1740790119.5924268,-3.6842098340064964,3.306201940564145,-3.942901519275793,-3.7755921148012144,nan
1740790119.5963328,-3.695340410532237,3.2636417267170446,-3.9632649909405875,-3.750681711607282,nan
1740790119.6002388,-3.6910492047616064,3.2062445724683477,-3.967696015738845,-3.710332819914891,nan
1740790119.6041446,-3.6711119616791112,3.134125379616456,-3.956021469518952,-3.6545569115644287,nan
1740790119.6080523,-3.635400866688267,3.047491452614257,-3.928169639932946,-3.5834590254232745,nan
1740790119.611958,-3.583886074291983,2.946641530324388,-3.884171040094793,-3.497237551188661,nan
1740790119.615864,-3.516636516255792,2.8319641440017227,-3.824158464574636,-3.3961833435019684,nan
1740790119.61977,-3.4338199806611294,2.703935312180961,-3.7483662868254406,-3.2806781713500324,nan
1740790119.623676,-3.3357024591244557,2.5631155884858985,-3.65712900322657,-3.1511925129413556,nan
1740790119.6275818,-3.2226467653597277,2.410146483595538,-3.550879034970914,-3.008282711382927,nan
1740790119.6314878,-3.0951104341461977,2.2457462876563334,-3.4301438049670705,-2.8525875115041086,nan
1740790119.6353939,-2.953642915580967,2.0707053242766302,-3.29554211272623,-2.684824003036269,nan
1740790119.6392999,-2.7988820851966842,1.8858806718373056,-3.147779835805999,-2.505783000020011,nan
1740790119.6432056,-2.63155009606081,1.6921903921627257,-2.9876449917437733,-2.3163238907375763,nan
1740790119.6471117,-2.4524486042968228,1.4906073105813908,-2.8160021994856765,-2.1173689966194273,nan
1740790119.6510177,-2.2624534045345435,1.2821523950322065,-2.633786584061416,-1.9098974824168744,nan
1740790119.6549249,-2.0625085165630366,1.0678877851090092,-2.441997172631415,-1.6949388634350273,nan
1740790119.658831,-1.8536197688852196,0.848909524755259,-2.2416898340042217,-1.4735661587535966,nan
1740790119.662737,-1.6368479289204074,0.626340054698457,-2.0339698172569967,-1.2468887421010324,nan
1740790119.6666427,-1.4133014332356113,0.4013205226296543,-1.819983948161112,-1.01604494436803,nan
1740790119.6705487,-1.1841287743775337,0.17500297057084113,-1.6009125446940342,-0.7821944636303335,nan
1740790119.6744547,-0.9505106035980655,-0.0514575401800161,-1.377961114987116,-0.5465106399829138,nan
1740790119.6783607,-0.7136516109938961,-0.27691080568818743,-1.1523519026009257,-0.3101726534564998,nan
1740790119.6822665,-0.4747722462969341,-0.5002192968215338,-0.9253153450237395,-0.07435770378551679,nan
1740790119.6861725,-0.23510034474258612,-0.7202658572616754,-0.6980815117480349,0.1597667691797508,nan
1740790119.6900785,0.004137276902105998,-0.9359612229113011,-0.47187158819215425,0.39105076607416095,nan
1740790119.6939845,0.24172318895383987,-1.1462513050623513,-0.24788947110230308,0.6183692522089408,nan
1740790119.6978903,0.4764576173013026,-1.350124181704592,-0.02731353990089571,0.8406294693110022,nan
1740790119.7017975,0.7071665479578638,-1.5466167438257743,0.18871133324723566,1.0567779805979112,nan
1740790119.7057035,0.9327096053597366,-1.7348209464619118,0.39908147408291494,1.2658073972385528,nan
1740790119.7096093,1.1519876440937535,-1.9138896175739142,0.6027417397393711,1.4667627369253156,nan
1740790119.7135153,1.3639499962377446,-2.0830417815264832,0.7986924403483231,1.6587473683494278,nan
1740790119.7174213,1.5676013194688412,-2.2415674579947438,0.9859957976378253,1.840928498800734,nan
1740790119.7213273,1.7620079945146014,-2.388831901488825,1.1637818933894377,2.0125421658772225,nan
1740790119.725233,1.9463040243585485,-2.524279251328878,1.331254064985405,2.1728976983560373,nan
1740790119.729139,2.11969639183191,-2.6474355667830247,1.4876937099691527,2.3213816156117555,nan
1740790119.733045,2.2814698367901713,-2.7579112271564883,1.6324644665234966,2.4574609395328326,nan
1740790119.736951,2.430991018946701,-2.855402681848335,1.7650157419971095,2.5806858976445417,nan
1740790119.740857,2.567712037573772,-2.9396935407278506,1.8848855670357423,2.6906920010563886,nan
1740790119.744763,2.6911732846393517,-3.010655000580282,1.9917027584536944,2.7872014858725924,nan
1740790119.7486699,2.8010056134795565,-3.068245608785223,2.085188379665168,2.8700241117935845,nan
1740790119.7525759,2.8969318107641566,-3.112510370774345,2.165156493236024,2.9390573167521756,nan
1740790119.756482,2.9787673652471054,-3.143579213122716,2.231514205865148,2.9942857315272344,nan
1740790119.7603877,3.046420532556706,-3.1616648193146415,2.284261011812769,3.0357800633182803,nan
1740790119.7642937,3.0998917010213445,-3.1670598602469924,2.323487446412542,3.0636953622043994,nan
1740790119.7681997,3.1392720691977964,-3.160133646348098,2.3493730667881483,3.07826868920982,nan
1740790119.7721057,3.164741651321796,-3.1413282327580627,2.362183782198067,3.0798162093168684,nan
1740790119.7760115,3.176566632287791,-3.1111540132987594,2.362268561510356,3.0687297371673163,nan
1740790119.7799175,3.17509609894134,-3.070184842923177,2.3500555501212106,3.0454727673395587,nan
1740790119.7838235,3.160758179389896,-3.0190527319416365,2.3260476331378688,3.0105760249484486,nan
1740790119.7877295,3.1340556266649515,-2.9584421585471428,2.290817485811905,2.964632575856067,nan
1740790119.7916353,3.0955608873622467,-2.889084048977854,2.245002156000306,2.9082925389774155,nan
1740790119.7955422,3.0459106998118366,-2.811749477038745,2.1892972268193205,2.842257445990107,nan
1740790119.7994483,2.9858002698544555,-2.727243136638652,2.1244506106142236,2.767274296190093,nan
1740790119.803354,2.915977075396465,-2.6363966424682714,2.0512560278748717,2.6841293562581474,nan
1740790119.80726,2.8372343535584643,-2.5400617149388927,1.9705462267642182,2.5936417562997343,nan
1740790119.811166,2.750404326402046,-2.439103306014455,1.8831860004813743,2.4966569346832848,nan
1740790119.815072,2.656351222899106,-2.3343927225986887,1.7900650607425685,2.394039984921617,nan
1740790119.8189778,2.555964155986939,-2.2268008036869364,1.6920908262276364,2.286668958115223,nan
1740790119.8228838,2.4501499142226497,-2.117191206565014,1.590181184905515,2.1754281743049146,nan
1740790119.8267899,2.339825727709629,-2.006413855945625,1.4852572887232582,2.0612015954694,nan
1740790119.8306959,2.2259120676184905,-1.895298608090964,1.3782364382271355,1.944866311858873,nan
1740790119.8346016,2.109325537771267,-1.7846491796964987,1.2700251132934068,1.8272861918905778,nan
1740790119.8385077,1.9909719154113474,-1.6752373886276934,1.1615122042963577,1.7093057439619084,nan
1740790119.8424158,1.8717393964574454,-1.5677977505341059,1.05356249575213,1.5917442362797383,nan
1740790119.8463216,1.7524920982568142,-1.4630224719427576,0.9470104517721619,1.4753901181833253,nan
1740790119.8502276,1.634063870133873,-1.3615568766867057,0.8426543495668174,1.3609957834774113,nan
1740790119.8541336,1.5172524589020042,-1.2639952984898608,0.7412508037880243,1.2492727130195889,nan
1740790119.8580396,1.4028140729986405,-1.170877468242183,0.6435097207225718,1.140887030252227,nan
1740790119.8619454,1.291458385050105,-1.0826854199993696,0.5500897172806469,1.036455499566451,nan
1740790119.8658514,1.1838440085091642,-0.9998409350686072,0.4615940354051112,0.9365419933685171,nan
1740790119.8697574,1.080574479573573,-0.9227035387388405,0.37856697799553035,0.8416544495233715,nan
1740790119.8736634,0.9821947709287894,-0.8515690593231905,0.3014908877383619,0.7522423365136502,nan
1740790119.8775692,0.8891883590052526,-0.7866687542459577,0.230783685403244,0.668694639213146,nan
1740790119.8814752,0.8019748614440637,-0.7281690029707765,0.1667969792482298,0.5913383736708714,nan
1740790119.8853812,0.7209082563696938,-0.6761715616731534,0.10981475221733734,0.5204376347743618,nan
1740790119.8892891,0.6462756899200505,-0.6307143697526701,0.060052628655642946,0.45619317614810945,nan
1740790119.893195,0.578296873328664,-0.5917728935991965,0.017657717353094616,0.3987425171835852,nan
1740790119.897101,0.5171240657365157,-0.5592619885140052,-0.017290977099291782,0.34816056772923615,nan
1740790119.901007,0.4628426338770059,-0.5330382553793295,-0.04478158735717972,0.30446075672903056,nan
1740790119.904913,0.41547217487066423,-0.5129028646052027,-0.06486787802383163,0.2675966470220419,nan
1740790119.9088187,0.3749681836289107,-0.4986048160947524,-0.07766722358144061,0.23746401463697075,nan
1740790119.9127247,0.34122424183911726,-0.4898446004898594,-0.08335809521783193,0.21390336726624404,nan
1740790119.9166307,0.31407470122491843,-0.4862782238170374,-0.08217708602766338,0.19670287321389357,nan
1740790119.9205368,0.29329782978215346,-0.48752155487383864,-0.07441550757777474,0.18560166900681035,nan
1740790119.9244425,0.27861938601522435,-0.4931549523012196,-0.060415594005629215,0.18029351106453792,nan
1740790119.9283485,0.2697165828710915,-0.5027281262954758,-0.04056635264399173,0.18043073435979237,nan
1740790119.9322546,0.2662224001153991,-0.5157651883394061,-0.015299102613164823,0.18562847888875203,nan
1740790119.9361622,0.2677302013405291,-0.531769841187178,0.01491725512279145,0.19546914302175453,nan
1740790119.9400682,0.2737986096581311,-0.5502306606278988,0.049581191090883533,0.20950702143318245,nan
1740790119.943974,0.2839565944244568,-0.5706264202822912,0.08816367765791328,0.2272730843221731,nan
1740790119.94788,0.29770872008712257,-0.5924314108540834,0.13011344920595835,0.2482798540382135,nan
1740790119.951786,0.31454050743414597,-0.6151207058579969,0.17486234456181507,0.27202633501892487,nan
1740790119.955692,0.3339238571735379,-0.6381753268707534,0.2218306841444759,0.29800295312922753,nan
1740790119.9595978,0.355322485873437,-0.6610872627878656,0.2704326347486907,0.3256964610560324,nan
1740790119.9635038,0.3781973248438431,-0.6833642994009903,0.32008151574449695,0.35459476735159107,nan
1740790119.9674098,0.4020118335322635,-0.7045346178186853,0.3701950017296087,0.3841916480194821,nan
1740790119.9713159,0.42623718042417613,-0.7241511228146593,0.4202001783075434,0.4139913011845763,nan
1740790119.9752216,0.45035724626827656,-0.7417954650761555,0.4695384096599806,0.4435127073638803,nan
1740790119.9791276,0.4738734066656562,-0.757081724512179,0.5176699789147394,0.47229376013787827,nan
1740790119.983035,0.4963090536475589,-0.7696597252357242,0.5640784649556245,0.49989513458828555,nan
1740790119.986941,0.5172138187912528,-0.7792179565224471,0.6082748222496592,0.5259038636919664,nan
1740790119.990847,0.5361674636579193,-0.7854860779351369,0.6498011334508151,0.5499365959142579,nan
1740790119.9947531,0.5527834068479504,-0.7882369908518095,0.688234007945391,0.571642510498175,nan
1740790119.998659,0.5667118607228039,-0.7872884628072996,0.7231876030991055,0.5907058703676774,nan
1740790120.002565,0.5776425548020214,-0.782504295314741,0.7543162487148701,0.6068481961207493,nan
1740790120.006471,0.5853070269707853,-0.7737950301349393,0.781316659077158,0.6198300482480833,nan
1740790120.010377,0.5894804678879926,-0.7611181932685483,0.8039297209074775,0.6294524084414785,nan
1740790120.0142827,0.5899831083268884,-0.744478080218951,0.8219418495486727,0.6355576546183977,nan
1740790120.0181887,0.5866811435688689,-0.7239250902738232,0.8351859096969824,0.6380301280510222,nan
1740790120.0220947,0.5794871933652751,-0.6995546216427477,0.8435417009733895,0.6367962947156608,nan
1740790120.0260007,0.5683603003410366,-0.6715055432302817,0.8469360125342003,0.63182450663804,nan
1740790120.029908,0.5533054739979083,-0.6399582625836062,0.8453422547301289,0.6231243725694582,nan
1740790120.033814,0.5343727916447104,-0.6051324130981878,0.8387796795002075,0.6107457507567464,nan
1740790120.03772,0.5116560715997596,-0.5672841868629174,0.8273122046996609,0.5947773798357404,nan
1740790120.0416257,0.4852911378406769,-0.5267033425495886,0.8110468608798255,0.5753451669555898,nan
1740790120.0455317,0.45545369888495063,-0.4837099204746535,0.7901318821353007,0.5526101551037151,nan
1740790120.0494378,0.4223568670395818,-0.43865069936128703,0.764754465483761,0.5267661942248424,nan
1740790120.0533438,0.38624834723077084,-0.39189543138732075,0.7351382258242456,0.49803734309100534,nan
1740790120.0572495,0.34740732738888114,-0.34383289380332277,0.7015403758105696,0.46667503096391066,nan
1740790120.0611556,0.3061411047968502,-0.29486679673219,0.664248661960602,0.43295500988072777,nan
1740790120.0650616,0.262781484892013,-0.2454115877077665,0.6235780899857047,0.39717412987596645,nan
1740790120.0689676,0.21768099072579689,-0.19588819406955488,0.5798674736567369,0.3596469706155873,nan
1740790120.0728734,0.17120892262013843,-0.14671974450139966,0.5334758425162252,0.3207023637576841,nan
1740790120.0767806,0.12374730850481147,-0.09832731078574795,0.4847787443962352,0.28067984086292763,nan
1740790120.0806866,0.07568678597078403,-0.051125710246732674,0.4341644790070581,0.23992604185656424,nan
1740790120.0845923,0.027422457229725916,-0.0055194083836792055,0.3820302988253355,0.19879111889412268,nan
1740790120.0884984,-0.020650242068971578,0.03810144013640391,0.32877861313690326,0.1576251700103309,nan
1740790120.0924044,-0.0681396198388954,0.0793647756377052,0.2748132303880164,0.11677473614304475,nan
1740790120.0963104,-0.1146617110552815,0.11792020826271533,0.22053567298002713,0.07657939403221987,nan
1740790120.1002162,-0.15984412980222737,0.15344235129701858,0.16634159732132653,0.03736847611169951,nan
1740790120.1041222,-0.20332975363843447,0.18563388341587403,0.1126173503433422,-0.0005420531448952405,nan
1740790120.1080282,-0.24478020610035017,0.2142283131268641,0.05973669181393982,-0.036852536875132395,nan
1740790120.1119342,-0.2838791055175062,0.23899242175980634,0.008057709663398192,-0.07128235607359729,nan
1740790120.11584,-0.32033505095255227,0.25972836462811955,-0.04208004680115083,-0.10357242738980107,nan
1740790120.119746,-0.35388431897031586,0.2762754134226187,-0.09035819345180446,-0.13348744798216142,nan
1740790120.123653,-0.38429324805620535,0.2885113264657529,-0.13648187802906098,-0.1608178696402989,nan
1740790120.127559,-0.411360290812692,0.2963533371168636,-0.18018187017062093,-0.18538158723042417,nan
1740790120.131465,-0.4349177175300336,0.29975875434211546,-0.2212163609416344,-0.20702532946695074,nan
1740790120.1353707,-0.4548329583191798,0.29872517321053643,-0.25937246106486683,-0.22562574303881544,nan
1740790120.1392767,-0.4710095746754182,0.2932902968147889,-0.294467390137108,-0.24109016419168247,nan
1740790120.1431828,-0.4833878550745799,0.28353137480650886,-0.3263493522268588,-0.25335707495783094,nan
1740790120.1470888,-0.49194503295320413,0.26956426734691197,-0.3548980963477841,-0.2623962443044258,nan
1740790120.1509945,-0.496695129153712,0.2515421467702857,-0.38002516336301684,-0.26820855750908784,nan
1740790120.1549006,-0.49768842458953944,0.22965385260879406,-0.4016738238682842,-0.27082554004070586,nan
1740790120.1588066,-0.49501057246842123,0.20412191880111696,-0.41981871449915037,-0.2703085850958435,nan
1740790120.1627126,-0.4887813628706789,0.17520029487607774,-0.43446518288299674,-0.2667478966905555,nan
1740790120.1666183,-0.4791531557811094,0.14317178563905358,-0.44564835408461123,-0.2602611628090655,nan
1740790120.170525,-0.466309001787207,0.10834523636933861,-0.45343193385229796,-0.2509919755413387,nan
1740790120.174431,-0.4504604725544033,0.07105249273921353,-0.45790676623788734,-0.23910801737974433,nan
1740790120.178337,-0.43184522584437707,0.031645166571365846,-0.459189165219934,-0.22479903487134034,nan
1740790120.182243,-0.41072433223155325,-0.009508759855364597,-0.4574190417877296,-0.20827462261974963,nan
1740790120.186149,-0.38737939277455236,-0.052028456973962516,-0.4527578495303831,-0.18976184218428033,nan
1740790120.190055,-0.3621094786954596,-0.09552386366004736,-0.4453863731080572,-0.16950270172159035,nan
1740790120.193961,-0.3352279255953052,-0.13959936002308265,-0.43550238505256145,-0.1477515232470016,nan
1740790120.197867,-0.30705901587720263,-0.18385746150853788,-0.42331819714510827,-0.12477222515143435,nan
1740790120.2017727,-0.2779345838506908,-0.22790249865888093,-0.40905813314667366,-0.10083554809139077,nan
1740790120.2056787,-0.24819057844670073,-0.27134424731944096,-0.3929559499097103,-0.07621625257173231,nan
1740790120.2095847,-0.21816361858046657,-0.31380147484755855,-0.3752522338808899,-0.05119031646509774,nan
1740790120.2134907,-0.1881875759612239,-0.354905368980148,-0.35619179971719245,-0.02603216036134517,nan
1740790120.2173986,-0.15859021956756336,-0.3943028174230052,-0.3360211171890988,-0.0010119280215218852,nan
1740790120.2213047,-0.12968995509410025,-0.43165950792916835,-0.314985791744158,0.023607151667577896,nan
1740790120.2252107,-0.10179269144006542,-0.46666282061492953,-0.2933281230636141,0.04757129596920559,nan
1740790120.2291164,-0.07518886476795868,-0.49902448649967984,-0.27128476467806945,0.07063856889569359,nan
1740790120.2330225,-0.05015064882791442,-0.528482988726392,-0.2490845062313686,0.09258112880498623,nan
1740790120.2369285,-0.026929378140914142,-0.554805685597828,-0.22694619831289545,0.11318730245217223,nan
1740790120.2408345,-0.005753208284041933,-0.577790637422281,-0.20507683793697087,0.13226346691918772,nan
1740790120.2447402,0.013174965051569494,-0.5972681221731191,-0.18366983075495685,0.1496357229730429,nan
1740790120.2486463,0.029679309327802387,-0.6131018280985523,-0.16290344396342343,0.16515134566926448,nan
1740790120.2525523,0.043612564784878745,-0.6251897146409175,-0.1429394616435257,0.17868000039928272,nan
1740790120.2564583,0.05485724753092535,-0.6334645363067403,-0.12392205195666896,0.19011471505372915,nan
1740790120.260364,0.06332653638050369,-0.6378940274378353,-0.10597685325414385,0.19937260151312972,nan
1740790120.264272,0.06896483697952721,-0.6384807491376926,-0.08921028375854723,0.20639532225758475,nan
1740790120.268178,0.07174802004814378,-0.6352616028745408,-0.07370907706721107,0.21114930048222766,nan
1740790120.272084,0.07168333387595881,-0.6283070184815516,-0.05954004333721937,0.21362567468980548,nan
1740790120.2759898,0.06880899448280639,-0.6177198273751708,-0.04675005366192792,0.21384000128046285,nan
1740790120.2798958,0.06319346008088357,-0.603633834785317,-0.03536624286359869,0.2118317111469092,nan
1740790120.2838018,0.05493439960903012,-0.5862121076083031,-0.02539642372825909,0.20766332868680837,nan
1740790120.2877078,0.044157368126739815,-0.5656449971286222,-0.01682970361844344,0.20141946394049642,nan
1740790120.2916136,0.031014204725099314,-0.5421479182849174,-0.00963729243693699,0.19320559072934407,nan
1740790120.2955196,0.015681171306753623,-0.5159589093564123,-0.0037734890984327226,0.18314662568812565,nan
1740790120.2994256,-0.0016431469184541674,-0.4873359978989992,0.0008231679873736044,0.17138532493492034,nan
1740790120.3033316,-0.02074015610478844,-0.45655440044781576,0.0042286023934000735,0.15808051678773485,nan
1740790120.3072374,-0.04137375846582144,-0.42390358491082125,0.006531770370948133,0.14340519040317526,nan
1740790120.311145,-0.06329302008843975,-0.3896842256938935,0.007833119105352166,0.12754446146654208,nan
1740790120.315051,-0.08623497347821467,-0.35420508241322984,0.00824295174796512,0.11069343709394394,nan
1740790120.3189569,-0.10992752525908671,-0.3177798335595642,0.007879719100009777,0.09305500290720507,nan
1740790120.3228629,-0.13409243856366626,-0.2807238966777838,0.00686825826328261,0.07483755580546156,nan
1740790120.3267689,-0.1584483590738707,-0.24335126651512698,0.005337998790933499,0.05625270627986478,nan
1740790120.330675,-0.18271385340920257,-0.2059714021742069,0.003421156869321676,0.03751297419846254,nan
1740790120.3345807,-0.20661042861256196,-0.16888619358975981,0.0012509378421435065,0.018829501828395056,nan
1740790120.3384867,-0.22986550184905175,-0.13238703663901819,-0.0010402330440665633,0.00040980746547645885,nan
1740790120.3423927,-0.25221529010635557,-0.09675204490672794,-0.0033224324311052844,-0.017544397587003668,nan
1740790120.3462987,-0.27340759065783077,-0.062243424571303135,-0.005469894767764755,-0.034839306799798964,nan
1740790120.3502045,-0.29320442431018046,-0.029105037075278,-0.00736258496393949,-0.05129101013332311,nan
1740790120.3541105,-0.31138451499259645,0.0024398277898153033,-0.008887671576541202,-0.06672736012599301,nan
1740790120.358018,-0.3277455810368845,0.032190447995460524,-0.00994088566853709,-0.0809896942452224,nan
1740790120.361924,-0.342106415529309,0.05997041662314092,-0.01042775196775824,-0.09393439701281031,nan
1740790120.36583,-0.354308735363379,0.08562912507156721,-0.010264680560355694,-0.10543428719139751,nan
1740790120.369736,-0.364218781065078,0.10904296947083249,-0.009379909066316253,-0.11537981722776386,nan
1740790120.3736417,-0.3717286520730892,0.1301162704783701,-0.007714287041896686,-0.12368007417203794,nan
1740790120.3775477,-0.3767573649094353,0.14878189953831825,-0.005221896216007701,-0.13026357340825054,nan
1740790120.3814538,-0.379251624542762,0.165001607642159,-0.0018705020738769313,-0.13507883871934484,nan
1740790120.3853598,-0.3791863021981494,0.1787660556051695,0.0023581657690413867,-0.138094764446316,nan
1740790120.3892655,-0.3765646158740676,0.19009454784095212,0.007468305027910661,-0.13930075776391962,nan
1740790120.3931715,-0.3714180128587663,0.19903447454610765,0.01345010275530691,-0.13870666136151616,nan
1740790120.3970776,-0.36380575656469555,0.20566047007048768,0.020279964729853803,-0.13634245906442832,nan
1740790120.4009836,-0.3538142229903614,0.21007329801764546,0.027920907245518694,-0.1322577691362794,nan
1740790120.4048908,-0.34155591504475635,0.21239847626857977,0.036323104580256296,-0.1265211321444437,nan
1740790120.4087968,-0.3271682058011528,0.21278465762419763,0.04542458377747159,-0.11921910232781469,nan
1740790120.4127028,-0.3108118244569621,0.2114017840944436,0.05515205684004851,-0.11045515335867727,nan
1740790120.4166086,-0.29266910133783225,0.2084390350027431,0.06542187902978712,-0.10034841121954748,nan
1740790120.4205146,-0.2729419906723772,0.2041025910033229,0.07614112069882228,-0.08903222860397424,nan
1740790120.4244206,-0.2518498920556525,0.19861323780828527,0.08720873896616595,-0.0766526167813725,nan
1740790120.4283266,-0.2296272934937109,0.19220383487558124,0.09851683460231286,-0.0633665522257147,nan
1740790120.4322324,-0.20652126065928045,0.18511667550522848,0.10995197870652744,-0.04934017648363001,nan
1740790120.4361384,-0.1827887984734608,0.17760076571887937,0.12139659316165695,-0.03474690873866209,nan
1740790120.4400444,-0.15869411234632497,0.1699090499494514,0.1327303684347708,-0.019765491306286194,nan
1740790120.4439504,-0.13450579734932014,0.1622956119379982,0.14383170206138485,-0.004577988862319684,nan
1740790120.4478562,-0.11049398424578731,0.1550128793221284,0.15457914110713164,0.010632237438950629,nan
1740790120.4517634,-0.08692747166750915,0.14830886020473802,0.16485281204214686,0.02568255966349443,nan
1740790120.4556694,-0.06407087379187891,0.14242443951686132,0.17453582178695573,0.04039309539935494,nan
1740790120.4595752,-0.04218181264676048,0.13759076224027442,0.18351561418889212,0.05458868174211926,nan
1740790120.4634812,-0.02150818365123926,0.13402672954280684,0.19168526685807358,0.06810079054945907,nan
1740790120.4673872,-0.0022855221965287238,0.13193663261339458,0.1989447141228054,0.08076936525932618,nan
1740790120.4712932,0.015265502009021383,0.13150794747856978,0.20520188284541174,0.09244456047151849,nan
1740790120.475199,0.030941437451786596,0.13290931235325326,0.2103737289588592,0.10298836658337931,nan
1740790120.479105,0.04455822639816763,0.13628870714464666,0.21438716382869905,0.11227610303532273,nan
1740790120.483011,0.055953181599374,0.14177185260866698,0.21717986089897953,0.12019776514708698,nan
1740790120.486917,0.06498674420635311,0.14946084437569715,0.21870093452916187,0.12665921109590117,nan
1740790120.4908228,0.07154400522433527,0.15943303463958236,0.21891148445494474,0.13158317728665436,nan
1740790120.4947288,0.07553597524661063,0.1717401717655389,0.2177850008917964,0.13491011217386908,nan
1740790120.4986358,0.0769005897643054,0.1864078054444632,0.21530762692798014,0.13659882049711353,nan
1740790120.5025418,0.0756034400271892,0.20343496232946714,0.2114782765055958,0.13662691186580544,nan
1740790120.5064478,0.0716382222030624,0.22279409436224787,0.20630860794519454,0.13499104965606226,nan
1740790120.5103536,0.06502690042219111,0.24443129925919593,0.19982285461348429,0.13170699824059076,nan
1740790120.5142596,0.055819582170257225,0.2682668099071242,0.192057515946383,0.12680946864187825,nan
1740790120.5181656,0.04409410737965302,0.2941957467430095,0.18306091360351562,0.12035176475815254,nan
1740790120.5220716,0.029955355436059115,0.322089124587355,0.17289261902817452,0.11240523434026552,nan
1740790120.5259774,0.01353427713658429,0.3517951028922798,0.1616227601025023,0.10305853087535234,nan
1740790120.5298834,-0.005013338620462394,0.3831404659775786,0.14933121590607545,0.09241669444040297,nan
1740790120.5337894,-0.025508350992947522,0.41593231758385046,0.13610670979294998,0.08060006140676175,nan
1740790120.5376954,-0.04774999126570232,0.4499599719930833,0.1220458120849928,0.0677430145872641,nan
1740790120.5416012,-0.07151780754168968,0.484997022073567,0.10725186462638524,0.05399258700442859,nan
1740790120.5455081,-0.09657381057748729,0.5208035629157169,0.09183384024601152,0.03950693390563328,nan
1740790120.5494142,-0.12266479930159992,0.5571285482542885,0.07590515082259945,0.02445368894526235,nan
1740790120.5533202,-0.14952484278544137,0.5937122556340855,0.05958241813579928,0.009008221582467758,nan
1740790120.557226,-0.17687789390198533,0.6302888352820255,0.04298422201004009,-0.006648186304542931,nan
1740790120.561132,-0.20444050862087762,0.6665889169072273,0.026229840414297267,-0.02233022581950823,nan
1740790120.565038,-0.23192464386332223,0.7023422481687943,0.00943799616887043,-0.03785048912097587,nan
1740790120.568944,-0.2590405060849494,0.7372803383321517,-0.00727437526922336,-0.053021420445333034,nan
1740790120.5728498,-0.28549942227712316,0.7711390806800834,-0.023793322814681595,-0.06765727018007239,nan
1740790120.5767558,-0.3110167048808499,0.803661327552696,-0.04000902793286112,-0.08157603211011445,nan
1740790120.5806618,-0.3353144821939687,0.8345993924571857,-0.055816891023777446,-0.09460134418268824,nan
1740790120.5845678,-0.3581244662202531,0.8637174545070297,-0.07111854384937757,-0.10656433355598655,nan
1740790120.5884736,-0.37919063055427815,0.8907938415118932,-0.08582277678204635,-0.1173053873084512,nan
1740790120.5923817,-0.39827177181131207,0.9156231693326998,-0.09984637071710063,-0.12667583098233212,nan
1740790120.5962875,-0.4151439292877033,0.9380183166273237,-0.11311482466941897,-0.13453949810840082,nan
1740790120.6001935,-0.42960263896198375,0.9578122158253536,-0.12556297135064817,-0.14077417499792447,nan
1740790120.6040995,-0.44146499960566427,0.9748594430676447,-0.13713547438395046,-0.14527290638124052,nan
1740790120.6080055,-0.45057153064865,0.989037591908427,-0.14778720224229625,-0.14794514890596328,nan
1740790120.6119113,-0.4567878035183824,1.000248417783513,-0.15748347547760827,-0.14871776106715337,nan
1740790120.6158173,-0.46000583042333915,1.0084187425751792,-0.16620018532450923,-0.14753581981055308,nan
1740790120.6197233,-0.4601451969578876,1.0135011110291852,-0.1739237832969948,-0.14436325581126494,nan
1740790120.6236293,-0.457153927442566,1.0154741932775675,-0.18065114293128587,-0.13918330126592654,nan
1740790120.627535,-0.45100907455643124,1.0143429302673808,-0.186389296346187,-0.13199874592797417,nan
1740790120.631441,-0.44171702753986614,1.0101384214649016,-0.19115504977607478,-0.12283199904384598,nan
1740790120.6353471,-0.42931353602018224,1.0029175567714814,-0.19497448366439624,-0.11172495679355429,nan
1740790120.6392548,-0.4138634493110129,0.992762397125615,-0.197882344270909,-0.0987386767823875,nan
1740790120.6431608,-0.3954601738322577,0.9797793107509399,-0.19992133502837128,-0.0839528630522806,nan
1740790120.6470668,-0.37422485406260825,0.9640978744171392,-0.2011413170693382,-0.06746516696238963,nan
1740790120.6509728,-0.350305285144251,0.9458695513865484,-0.20159842941758027,-0.04939031110999643,nan
1740790120.6548786,-0.32387456788270225,0.9252661599010789,-0.20135414028924073,-0.029859045207155134,nan
1740790120.6587846,-0.2951295193980272,0.9024781481005547,-0.20047424176508846,-0.009016944478164752,nan
1740790120.6626906,-0.2642888550625744,0.8777126931350394,-0.199027800767786,0.012976937317947673,nan
1740790120.6665967,-0.23159115958143855,0.8511916439220946,-0.19708607979910345,0.035951546722349924,nan
1740790120.6705024,-0.19729266711369195,0.8231493284890588,-0.19472144125526605,0.0597254264769789,nan
1740790120.6744084,-0.1616648721751818,0.7938302481160578,-0.19200624933973373,0.08410841257645586,nan
1740790120.6783144,-0.12499199468959361,0.7634866815458298,-0.18901178362907672,0.1089034155965386,nan
1740790120.6822205,-0.08756832394794656,0.7323762233415383,-0.18580717821841441,0.13390826863512792,nan
1740790120.6861281,-0.049695467384441194,0.7007592810464884,-0.18245840007921776,0.1589176235910434,nan
1740790120.690034,-0.01167953096777986,0.6688965561249506,-0.17902727980702787,0.18372487707892773,nan
1740790120.69394,0.026171741366558,0.6370465337387329,-0.17557060732451385,0.20812410703932108,nan
1740790120.697846,0.06355184146166863,0.6054630062398394,-0.1721393043428208,0.2319120010527895,nan
1740790120.701752,0.10015835599842433,0.5743926548378497,-0.16877768447939104,0.25488975750600434,nan
1740790120.7056577,0.1356957831959481,0.5440727132367597,-0.1655228108933424,0.2768649410835172,nan
1740790120.7095637,0.16987827994346796,0.5147287361370404,-0.16240396014116418,0.2976532745680332,nan
1740790120.7134697,0.2024323128824401,0.4865724943744929,-0.15944219968879667,0.31708034961822146,nan
1740790120.7173758,0.23309918794517465,0.45980001712982976,-0.15665008515495515,0.3349832400492557,nan
1740790120.7212815,0.2616374340918373,0.4345898001058371,-0.1540314819198989,0.35121200215805154,nan
1740790120.7251875,0.2878250184588726,0.41110119684841795,-0.1515815142298681,0.3656310478018426,nan
1740790120.7290936,0.3114613718238605,0.3894730085013005,-0.14928664337667802,0.3781203772432438,nan
1740790120.733001,0.33236920518715274,0.3698222852513185,-0.1471248749521868,0.3885766602035124,nan
1740790120.736907,0.3503961003506195,0.35224335056223427,-0.14506609358602268,0.3969141551039438,nan
1740790120.740813,0.36541585961729844,0.33680705703234864,-0.14307252199036993,0.40306545810717737,nan
1740790120.7447188,0.3773296021204572,0.3235602803672314,-0.14109929957571257,0.4069820752791587,nan
1740790120.7486248,0.38606659679270133,0.3125256555574683,-0.13909517438407115,0.4086348129612908,nan
1740790120.7525308,0.3915848245803653,0.3037015569166455,-0.13700330062918128,0.40801398325283317,nan
1740790120.7564368,0.3938712651698915,0.2970623211909344,-0.1347621327529334,0.4051294233379364,nan
1740790120.7603426,0.3929419061946863,0.2925587105234011,-0.13230640562081067,0.40001032923109087,nan
1740790120.7642486,0.38884147560656923,0.2901186096673574,-0.12956818930096697,0.39270490634114236,nan
1740790120.7681546,0.3816429005984157,0.2896479495177323,-0.12647800581660032,0.38327984104896656,nan
1740790120.7720606,0.37144649912749284,0.2910318467904318,-0.12296599434201211,0.3718195992397273,nan
1740790120.7759664,0.3583789126860517,0.2941359475491572,-0.11896311054105037,0.3584255594100291,nan
1740790120.7798738,0.34259179147158114,0.29880796027815715,-0.1144023451323752,0.34321498956678564,nan
1740790120.7837799,0.32426024549922994,0.3048793623475188,-0.10921994631764984,0.32631987863251616,nan
1740790120.7876859,0.3035810774499305,0.31216726203296885,-0.10335663043294671,0.3078856344565941,nan
1740790120.791592,0.2807708151379294,0.3204763967511657,-0.09675876508515632,0.2880696617901938,nan
1740790120.7954977,0.25606356339032904,0.32960124686859477,-0.08937950911692807,0.26703983470232423,nan
1740790120.7994037,0.2297086968406702,0.33932824335002293,-0.08117989400658493,0.24497287888472347,nan
1740790120.8033097,0.20196841663191104,0.3494380466412869,-0.07212983175254752,0.2220526801053879,nan
1740790120.8072157,0.17311519528730898,0.35970787353926786,-0.062209034912075294,0.19846853571671721,nan
1740790120.8111215,0.14342913502868598,0.3699138483949388,-0.05140783525665408,0.1744133665988145,nan
1740790120.8150275,0.11319526559079722,0.37983335482698055,-0.039727888464281554,0.15008190721736972,nan
1740790120.8189335,0.08270080809113692,0.3892473641946115,-0.02718275338348553,0.1256688915965539,nan
1740790120.8228395,0.05223243176192526,0.39794271738778003,-0.013798335664712644,0.10136725294994968,nan
1740790120.8267465,0.022073530333523588,0.4057143370369091,0.00038681305049994023,0.07736635447808521,nan
1740790120.8306525,-0.007498455423174475,0.412367348017122,0.015321347677072914,0.053850268432781026,nan
1740790120.8345585,-0.03621464303022899,0.4177190851147795,0.03094113964499697,0.030996119971042017,nan
1740790120.8384645,-0.06381721634408306,0.4216009679270492,0.04716944823453958,0.008972511581221695,nan
1740790120.8423703,-0.09006181218042816,0.4238602244652456,0.0639172554737023,-0.012061957030198496,nan
1740790120.8462763,-0.11471976267681677,0.424361446515582,0.08108376495118239,-0.03196005974202256,nan
1740790120.8501823,-0.13758017204825662,0.4229879615603144,0.09855706303238446,-0.050587192835471015,nan
1740790120.8540883,-0.15845180809864226,0.41964300796012793,0.11621493908696116,-0.06782249044249931,nan
1740790120.857994,-0.17716479074788052,0.4142507021257589,0.13392585946396138,-0.08355979664438329,nan
1740790120.8619,-0.19357206190150478,0.40675678854236585,0.15155008810551412,-0.0977084857341809,nan
1740790120.865806,-0.20755062320580378,0.39712916573272816,0.16894094489201064,-0.11019412372882652,nan
1740790120.869712,-0.2190025305743367,0.3853581835320854,0.18594619108139107,-0.12095896584987256,nan
1740790120.873619,-0.22785563681803578,0.37145670937556935,0.2024095295613923,-0.12996228636981658,nan
1740790120.8775249,-0.2340640762358794,0.35545996364489946,0.21817220609584811,-0.13718053892594131,nan
1740790120.8814309,-0.23760848760163614,0.3374251264610424,0.23307469633161884,-0.14260734711873851,nan
1740790120.8853369,-0.2384959745881432,0.3174307206200211,0.2469584620589363,-0.14625332691933682,nan
1740790120.889243,-0.23675980527853427,0.2955757776271058,0.2596677590997308,-0.14814574409314019,nan
1740790120.8931487,-0.23245885499739413,0.27197879596739444,0.2710514782505675,-0.1483280114876558,nan
1740790120.8970547,-0.22567679922873002,0.24677650283662048,0.2809649999410103,-0.1468590326151947,nan
1740790120.9009607,-0.21652106584649927,0.2201224325239837,0.2892720426957636,-0.14381239946953203,nan
1740790120.9048667,-0.20512155824319248,0.19218533646938699,0.29584648511816647,-0.13927545393506938,nan
1740790120.9087725,-0.19162916317914858,0.16314744169237583,0.3005741409506842,-0.13334822346316075,nan
1740790120.9126785,-0.17621405926807557,0.13320257579283712,0.30335446681939515,-0.12614224289037188,nan
1740790120.9165845,-0.15906384394196563,0.10255417803914056,0.3041021825368486,-0.11777927534555828,nan
1740790120.9204912,-0.1403814984825706,0.07141321717509204,0.3027487843212844,-0.10838994612662814,nan
1740790120.9243972,-0.12038321224970829,0.03999603748173626,0.2992439319882653,-0.09811230421456003,nan
1740790120.9283032,-0.0992960885641285,0.008522155315043835,0.29355669207908,-0.08709032672444697,nan
1740790120.9322093,-0.07735575580160728,-0.022787971200795797,0.2856766200025591,-0.07547238206511576,nan
1740790120.936115,-0.054803908114955266,-0.05371517641671212,0.27561466557465486,-0.06340966788616328,nan
1740790120.940021,-0.03188580081374713,-0.0840438024353834,0.26340388783264485,-0.05105464003165981,nan
1740790120.943927,-0.008847725792048238,-0.11356387275453858,0.2490999666655802,-0.038559448692419736,nan
1740790120.947833,0.014065507500486095,-0.1420732020764197,0.2327815006248904,-0.026074397754919428,nan
1740790120.9517388,0.03661306019991561,-0.16937942077359508,0.21455008224278044,-0.013746442986998415,nan
1740790120.9556448,0.058560496342342436,-0.19530189340908766,0.19453014427294807,-0.001717744183236378,nan
1740790120.9595509,0.07968213506627252,-0.21967351182455105,0.17286857245912482,0.009875714278114279,nan
1740790120.9634569,0.0997632993143695,-0.24234234462205492,0.1497340827108404,0.02090542083146686,nan
1740790120.9673648,0.11860243877521716,-0.26317312635988394,0.12531636290124892,0.03125153939214655,nan
1740790120.9712708,0.13601310615556278,-0.28204857144494827,0.09982498187572689,0.0408040056952804,nan
1740790120.9751768,0.15182576743038753,-0.29887049951723726,0.07348807064916583,0.04946350689904233,nan
1740790120.9790828,0.16588942846554242,-0.3135607610666238,0.04655078315040931,0.057142335342722665,nan
1740790120.9829886,0.17807306232801398,-0.3260619540794814,0.01927354622030338,0.06376510873498299,nan
1740790120.9868946,0.18826682367212114,-0.33633792466115553,-0.008069889138911969,0.0692693505057165,nan
1740790120.9908006,0.19638303879525187,-0.3443740467985207,-0.03519458105400179,0.07360592557097316,nan
1740790120.9947066,0.2023569622713067,-0.3501772786921013,-0.06180669829465781,0.07673932831808719,nan
1740790120.9986124,0.2061472934706759,-0.35377599537678944,-0.08760597171299166,0.07864782120146721,nan
1740790121.0025184,0.2077364487375398,-0.35521959964059774,-0.11228827547663615,0.07932342393141524,nan
1740790121.0064244,0.20713058749408464,-0.3545779155193087,-0.13554831629692188,0.0787717548226026,nan
1740790121.0103304,0.20435939305108428,-0.3519403708680854,-0.1570824073737187,0.07701172742851412,nan
1740790121.0142384,0.199475611400315,-0.3474149776669009,-0.176591302502255,0.0740751071073743,nan
1740790121.0181444,0.1925543537208788,-0.34112712078299984,-0.19378306473016665,0.07000593362769088,nan
1740790121.0220501,0.18369217072426697,-0.3332181678699448,-0.20837594312842597,0.06485981731274833,nan
1740790121.0259562,0.17300590926751877,-0.32384391490908376,-0.2201012306591369,0.05870311752846969,nan
1740790121.0298622,0.16063136385725424,-0.3131728835773409,-0.22870607579530336,0.05161201352484805,nan
1740790121.0337682,0.14672173772739938,-0.30138448813798735,-0.23395622047936868,0.04367147873507768,nan
1740790121.037674,0.13144593007960856,-0.28866709088326886,-0.23563863720271142,0.03497417060746409,nan
1740790121.04158,0.11498666780856703,-0.27521596629612066,-0.23356403844896828,0.025619248883267654,nan
1740790121.045486,0.09753850157721816,-0.26123119503101544,-0.227569232469264,0.01571113593037139,nan
1740790121.049392,0.07930568744416515,-0.24691550953207916,-0.2175193003434584,0.005358233291018388,nan
1740790121.0532978,0.0604999763637619,-0.23247211360256673,-0.20330957052241955,-0.005328391003441029,nan
1740790121.0572038,0.041338334767587526,-0.2181024985086571,-0.1848673685334321,-0.01623632956086138,nan
1740790121.0611115,0.022040620085583922,-0.2040042782396944,-0.16215352125291324,-0.02725316233223058,nan
1740790121.0650172,0.0028272354695132035,-0.19036906635584336,-0.1351635970943023,-0.03826776810663936,nan
1740790121.0689232,-0.01608321186290317,-0.17738041643483948,-0.10392886560824441,-0.04917160625428973,nan
1740790121.0728292,-0.034476224339413324,-0.16521184748604306,-0.06851696232924714,-0.05985995457234534,nan
1740790121.0767353,-0.05214367581987184,-0.1540249748390649,-0.02903224720762656,-0.0702330896375509,nan
1740790121.080641,-0.06888599806637907,-0.14396776594429336,0.014384152383871446,-0.08019739676422095,nan
