timestamps,TP9,AF7,AF8,TP10,Right AUX
1740789330.9293914,-0.1433751934518294,0.2739326255977858,-0.31275690455257266,-0.2431490508319742,nan
1740789330.9332974,-0.14056775820151637,0.24170090415569348,-0.3046564897111861,-0.23315156651822277,nan
1740789330.9372032,-0.13632549558331203,0.2067922424296711,-0.29358873933228063,-0.22097625079993521,nan
1740789330.941109,-0.13064280862920583,0.16942372881478976,-0.27963795300580596,-0.20666681608398457,nan
1740789330.945015,-0.12352983922760045,0.12983681404754097,-0.2629166173197413,-0.1902894842532921,nan
1740789330.9489207,-0.11501244947473721,0.08829544564763428,-0.2435644265949354,-0.17193262332372364,nan
1740789330.9528265,-0.10513202967686737,0.04508396551907466,-0.22174703843721585,-0.15170615729018563,nan
1740789330.9567325,-0.09394513489707973,0.0005047891475299267,-0.19765457532401073,-0.12974075378287478,nan
1740789330.9606383,-0.08152295377410458,-0.04512411283262304,-0.17149988594191248,-0.10618679640005209,nan
1740789330.964544,-0.06795061513475908,-0.09147190778541332,-0.14351658236421042,-0.0812131507670254,nan
1740789330.96845,-0.053326339658652425,-0.13819774409174942,-0.11395687138017171,-0.05500573547059887,nan
1740789330.9723558,-0.037760445514717036,-0.1849537175068753,-0.08308920033844183,-0.027765911012637687,nan
1740789330.9762645,-0.021374218457208185,-0.2313879328900565,-0.05119573972511664,0.00029129820424482787,nan
1740789330.9801705,-0.004298658327069522,-0.2771476321766922,-0.018569726343934733,0.02893913212076249,nan
1740789330.9840763,0.013326884761708374,-0.32188235858438824,0.014487307614658607,0.05794115519305365,nan
1740789330.987982,0.03135617007648179,-0.3652471264609017,0.04766839315191807,0.08705342880517243,nan
1740789330.991888,0.049637606243362865,-0.4069055659005738,0.08066404330021032,0.11602677504013763,nan
1740789330.9957938,0.06801585514899604,-0.446533011281759,0.11316520417828614,0.14460910993772,nan
1740789330.9996996,0.08633348265875838,-0.4838195032119394,0.1448662098294434,0.17254782359157936,nan
1740789331.0036056,0.104432638513507,-0.5184726740084545,0.17546771229746677,0.19959218388550584,nan
1740789331.0075114,0.1221567474220346,-0.5502204877860358,0.20467955856017872,0.2254957403443352,nan
1740789331.0114172,0.13935219321029144,-0.5788138074601392,0.232223586381938,0.2500187044834012,nan
1740789331.0153232,0.15586997792297147,-0.6040287624964682,0.25783631186048545,0.2729302831825471,nan
1740789331.019229,0.1715673379982186,-0.6256688930286489,0.28127148242425065,0.29401094198596833,nan
1740789331.0231373,0.18630930004979093,-0.6435670480111081,0.302302470274317,0.3130545758341814,nan
1740789331.027043,0.1999701593891649,-0.6575870173541308,0.32072448274966386,0.32987056556392796,nan
1740789331.030949,0.21243486519657828,-0.6676248804810011,0.3363565678107919,0.344285699557858,nan
1740789331.034855,0.22360029719740118,-0.6736100564297737,0.34904339476964,0.35614594117883364,nan
1740789331.0387607,0.23337641980861182,-0.6755060434685017,0.3586567925241642,0.36531802407138425,nan
1740789331.0426667,0.2416873009785548,-0.6733108391755512,0.36509702986408404,0.3716908590416077,nan
1740789331.0465724,0.24847198433853496,-0.6670570350267395,0.36829382487786205,0.37517673802071344,nan
1740789331.0504782,0.25368520480306295,-0.6568115826984741,0.36820707308649725,0.37571232255920556,nan
1740789331.054384,0.25729793938106316,-0.6426752325096533,0.3648272866321199,0.3732594063693792,nan
1740789331.05829,0.25929778667643766,-0.6247816476531624,0.35817573963276944,0.36780544361334166,nan
1740789331.0621958,0.2596891703454136,-0.6032962010783673,0.3483043176520027,0.359363836900555,nan
1740789331.0661016,0.258493363621618,-0.5784144650471247,0.3352950720959432,0.3479739812910921,nan
1740789331.0700097,0.25574833389881513,-0.5503604064657577,0.31925948321290226,0.33370106297506313,nan
1740789331.0739157,0.2515084082562541,-0.5193843040633497,0.3003374382042517,0.3166356136920293,nan
1740789331.0778215,0.245843762702956,-0.4857604063123867,0.27869593373189927,0.29689282434272063,nan
1740789331.0817273,0.23883973978540562,-0.44978435164262215,0.2545275148006288,0.2746116236056899,nan
1740789331.0856333,0.23059600102847094,-0.41177037495570795,0.2280484645761026,0.24995352968007087,nan
1740789331.089539,0.22122552244300114,-0.37204832668132864,0.19949676214633463,0.2231012855096251,nan
1740789331.0934448,0.21085344301686357,-0.33096053260198116,0.16912982752166375,0.1942572899804563,nan
1740789331.0973506,0.19961577769159466,-0.28885852439216547,0.13722207527321212,0.16364183960384793,nan
1740789331.1012566,0.18765800779754413,-0.24609967225024393,0.10406230011154008,0.131491197076583,nan
1740789331.1051624,0.17513356326086052,-0.20304375213184475,0.06995091938685621,0.09805550483479578,nan
1740789331.1090682,0.16220221209163665,-0.1600494809097427,0.035197098932828984,0.06359656326683315,nan
1740789331.1129742,0.14902837370101832,-0.11747105327684294,0.0001157898632504424,0.028385494609834812,nan
1740789331.1168904,0.1357793734651122,-0.07565471436980002,-0.03497529514749746,-0.00729968528964932,nan
1740789331.1207964,0.12262365664520389,-0.03493540191741629,-0.0697587369226892,-0.04317656423086695,nan
1740789331.1247022,0.10972898027972063,0.004366508789524969,-0.1039204666381064,-0.07896087609501183,nan
1740789331.128608,0.09726060197742191,0.04194832464886599,-0.1371527948528991,-0.11436906414556602,nan
1740789331.132514,0.08537948465972767,0.07752798792288267,-0.1691573833049234,-0.14912084063204623,nan
1740789331.1364198,0.0742405362209525,0.11084683302157519,-0.19964813055406855,-0.18294171813308363,nan
1740789331.1403255,0.06399090279860216,0.14167211885493092,-0.22835394333410972,-0.21556548831271538,nan
1740789331.1442316,0.05476833387401225,0.16979931078059063,-0.2550213665254879,-0.24673662424095827,nan
1740789331.1481373,0.0466996367605702,0.19505408850512032,-0.27941704597860473,-0.27621258314193325,nan
1740789331.152043,0.039899237188730736,0.21729405887418463,-0.301329999987467,-0.30376598737338295,nan
1740789331.155949,0.034467861672105866,0.23641015528511658,-0.32057367702196204,-0.3291866626014342,nan
1740789331.159855,0.030491356146844416,0.25232770844843466,-0.33698777935689705,-0.3522835135029107,nan
1740789331.1637683,0.02803965402919546,0.2650071763841427,-0.350439834467551,-0.37288621889112283,nan
1740789331.1676743,0.02716590534653301,0.27444452483414455,-0.36082649847399795,-0.39084672990491115,nan
1740789331.17158,0.02790577698036537,0.2806712526718988,-0.3680745784864188,-0.4060405568076108,nan
1740789331.1754858,0.03027693233172116,0.2837540603618341,-0.3721417634067019,-0.4183678319943331,nan
1740789331.1793919,0.034278696897436255,0.2837941630301449,-0.37301705555158843,-0.427754138982111,nan
1740789331.1832976,0.039891914348453635,0.28092625322118303,-0.3707208983525506,-0.43415109943706837,nan
1740789331.1872034,0.0470789957475372,0.27531712189523583,-0.36530499832942076,-0.4375367126532402,nan
1740789331.1911094,0.05578416255368281,0.26716394963969237,-0.3568518425001777,-0.43791544431598695,nan
1740789331.1950152,0.06593388205420096,0.2566922833825419,-0.3454739153493554,-0.4353180638351625,nan
1740789331.198921,0.07743749186360566,0.24415371708178996,-0.3313126224035353,-0.4298012319951964,nan
1740789331.202827,0.0901880081515269,0.22982329788473255,-0.3145369303258616,-0.42144684311673986,nan
1740789331.2067327,0.10406311033038652,0.21399668207664505,-0.29534173621438725,-0.4103611283331458,nan
1740789331.2106397,0.11892629306750299,0.1969870677405852,-0.27394598144433363,-0.39667352893111335,nan
1740789331.2145455,0.1346281747050622,0.17912193340200433,-0.2505905279059032,-0.3805353509648331,nan
1740789331.2184513,0.151007949493702,0.160739614009302,-0.225535816832346,-0.3621182145045482,nan
1740789331.2223573,0.16789496948893748,0.14218574738266723,-0.1990593325646784,-0.34161231290208754,nan
1740789331.226263,0.18511044054081874,0.12380962572939488,-0.17145289553811635,-0.3192244993274187,nan
1740789331.2301688,0.2024692155413107,0.10596048795838771,-0.14301981048201265,-0.29517621953283185,nan
1740789331.2340746,0.21978166699445847,0.08898378931700399,-0.11407189728255526,-0.26970131131792674,nan
1740789331.2379806,0.23685562005367541,0.07321748531002162,-0.08492643315110923,-0.24304369248375296,nan
1740789331.2418864,0.2534983264385954,0.0589883669373888,-0.055903035658810836,-0.2154549601649484,nan
1740789331.2457922,0.26951845910932154,0.04660848400173653,-0.027320516830173742,-0.18719192530329795,nan
1740789331.2496982,0.28472810724508624,0.036371692589379855,0.0005062611714426293,-0.1585141066657101,nan
1740789331.253604,0.2989447509515328,0.0285503618240561,0.027269498189729315,-0.12968120920756293,nan
1740789331.2575135,0.3119931952084658,0.0233922736388877,0.052671505729012594,-0.10095061173432181,nan
1740789331.2614193,0.32370744286813935,0.02111774762037802,0.07642766434029462,-0.07257488871838003,nan
1740789331.2653253,0.3339324870208518,0.021917020963394505,0.0982692598033247,-0.04479939078483832,nan
1740789331.269231,0.34252600375586073,0.025947911255941605,0.11794617029013249,-0.01785990779241906,nan
1740789331.2731369,0.34935992725508674,0.03333378720817291,0.13522937808988883,0.00801956239071182,nan
1740789331.2770429,0.35432189025648725,0.044161869575365664,0.1499132811288829,0.032628917373739456,nan
1740789331.2809486,0.35731651420324323,0.05848188142599581,0.1618177814175139,0.05577390522842596,nan
1740789331.2848544,0.3582665348417652,0.07630506360263208,0.1707901296802323,0.07727791169524563,nan
1740789331.2887604,0.35711375063219547,0.09760356774614667,0.17670650775431918,0.09698356201363736,nan
1740789331.2926662,0.3538197830741617,0.12231023563560138,0.17947333285697045,0.1147541216379339,nan
1740789331.296572,0.34836663991084527,0.15031876987170484,0.17902827049325046,0.13047468211821395,nan
1740789331.300478,0.3407570741378712,0.18148429713649258,0.17534094558440347,0.1440531205825475,nan
1740789331.3043792,0.33101473379066126,0.2156243214324344,0.1684133443098697,0.15542082353265116,nan
1740789331.308285,0.3191840995941219,0.25252006087764917,0.15827990214873455,0.1645331680361116,nan
1740789331.312191,0.30533020971116503,0.2919181578473464,0.14500727664864616,0.1713697558419172,nan
1740789331.3160968,0.2895381729994634,0.33353274854222115,0.12869380651262285,0.17593439843736963,nan
1740789331.3200026,0.2719124743574269,0.377047874468569,0.10946866164715234,0.17825485357911464,nan
1740789331.3239083,0.25257607788834613,0.4221202148680091,0.08749069182866406,0.17838231634357887,nan
1740789331.3278143,0.23166933571412385,0.46838211587107953,0.06294698459045713,0.17639067022766225,nan
1740789331.33172,0.20934871230538413,0.5154448891013095,0.03605114577980667,0.17237550626398032,nan
1740789331.335626,0.18578533614193568,0.5629023496553212,0.0070413189570648765,0.16645292047190985,nan
1740789331.339532,0.16116339235632451,0.6103345608586556,-0.02382203762126949,0.15875810222234377,nan
1740789331.3434377,0.1356783717242279,0.6573117509722015,-0.05625859530105195,0.14944372822756274,nan
1740789331.3473434,0.1095351929306419,0.7033983651235756,-0.08997079728456724,0.1386781788563465,nan
1740789331.3512523,0.08294621644339821,0.7481572141817375,-0.1246466735456891,0.12664359529802557,nan
1740789331.355158,0.05612916955045113,0.7911536810982917,-0.1599628013855295,0.1135337977390186,nan
1740789331.3590639,0.029305003150964844,0.8319599444190827,-0.19558738314181526,0.09955208615448903,nan
1740789331.3629699,0.0026957017209916574,0.8701591782345508,-0.2311834113736482,0.08490894654123318,nan
1740789331.3668756,-0.02347793150720111,0.9053496877932901,-0.26641189093858736,0.06981968641288686,nan
1740789331.3707814,-0.04899849171492142,0.9371489403528828,-0.300935086770544,0.05450202413437814,nan
1740789331.3746874,-0.07365416940602669,0.9651974515840482,-0.33441976586130234,0.039173657181125386,nan
1740789331.3785932,-0.09724090450099115,0.9891624889734708,-0.36654040194923176,0.024049834663837498,nan
1740789331.382499,-0.1195644753473451,1.0087415551784906,-0.3969823117266121,0.009340959458756347,nan
1740789331.3864048,-0.1404425008911298,1.0236656161607065,-0.4254446919894886,-0.004749754975023949,nan
1740789331.3903108,-0.15970633499164202,1.0337020411492905,-0.45164352806592806,-0.01802854852304759,nan
1740789331.3942165,-0.17720283281764557,1.0386572240389667,-0.47531434506160597,-0.030313275284170646,nan
1740789331.398125,-0.19279597042911567,1.0383788586892773,-0.49621477494476113,-0.04143543858528593,nan
1740789331.4020307,-0.20636830001402318,1.032757843735069,-0.5141269142418322,-0.051242078590145464,nan
1740789331.4059367,-0.2178222248022152,1.021729795914321,-0.5288594491140374,-0.05959749241639226,nan
1740789331.4098425,-0.22708107940363534,1.005276154537206,-0.5402495268148895,-0.06638476834992786,nan
1740789331.4137483,-0.23409000319962986,0.9834248635259651,-0.5481643549677604,-0.07150711761338775,nan
1740789331.4176543,-0.23881659643607384,0.9562506214132431,-0.552502512727942,-0.07488898918785998,nan
1740789331.42156,-0.24125135080596702,0.9238746937597608,-0.5531949606798633,-0.07647695538390806,nan
1740789331.4254658,-0.24140784854627792,0.8864642866019875,-0.5502057392403961,-0.07624035818795463,nan
1740789331.4293716,-0.23932272638726987,0.8442314837275178,-0.5435323483653527,-0.07417170885021487,nan
1740789331.4332776,-0.23505540305954206,0.7974317547600231,-0.5332058044589415,-0.07028683570634456,nan
1740789331.4371834,-0.22868757146104818,0.7463620451768458,-0.5192903735350372,-0.06462477781174088,nan
1740789331.4410892,-0.2203224589895269,0.6913584634406268,-0.5018829828439475,-0.057247424589190736,nan
1740789331.4450002,-0.2100838619309362,0.6327935843623052,-0.4811123163280186,-0.04823890432087739,nan
1740789331.448906,-0.198114962137441,0.5710733915882426,-0.45713760237306683,-0.03770472692832459,nan
1740789331.452812,-0.18457693650551835,0.5066338856819266,-0.4301471053499258,-0.025770689052121334,nan
1740789331.4567177,-0.16964737195225893,0.4399373876154539,-0.40035633536133114,-0.012581551941184268,nan
1740789331.4606235,-0.15351850066351133,0.3714685705645905,-0.3680059933953734,0.0017004949365936831,nan
1740789331.4645295,-0.13639527232936433,0.3017302556827598,-0.33335967171003805,0.01689756936887527,nan
1740789331.4684353,-0.11849328187009185,0.23123900998563965,-0.296701331707932,0.032818013627645026,nan
1740789331.472341,-0.10003657277008526,0.16052058658408658,-0.2583325837819108,0.049258474150032996,nan
1740789331.476247,-0.08125533756093224,0.09010524923679446,-0.21856979559856038,0.06600612258474985,nan
1740789331.4801528,-0.06238353821196375,0.02052302453703458,-0.177741057017447,0.08284099553924883,nan
1740789331.4840586,-0.043656470183542656,-0.047701074014865764,-0.13618303130199141,0.0995384290071552,nan
1740789331.4879644,-0.025308294663418357,-0.11405180528096322,-0.0942377234478525,0.11587156233742885,nan
1740789331.4918725,-0.0075695640302419,-0.17802839822775682,-0.05224919732451651,0.13161388573878063,nan
1740789331.4957783,0.009335234136350972,-0.23914914360140951,-0.010560273886121347,0.14654180470505426,nan
1740789331.499684,0.025190089157420607,-0.2969558357523528,0.030490757048000514,0.1604371944070918,nan
1740789331.50359,0.039789810359536416,-0.35101802200188925,0.07057337901718524,0.1730899170289931,nan
1740789331.5074959,0.05294227656205583,-0.40093701853148006,0.10936801311574657,0.18430027523375367,nan
1740789331.5114017,0.06447056806626592,-0.44634965376200786,0.146569072839952,0.19388137542455156,nan
1740789331.5153077,0.07421495825249377,-0.4869317025585776,0.18188787928433803,0.20166137522017688,nan
1740789331.5192134,0.0820347431168156,-0.5224009773255688,0.21505540770758808,0.20748559058020277,nan
1740789331.5231192,0.08780988853296468,-0.5525200451226016,0.24582483809881256,0.21121843928893527,nan
1740789331.527025,0.09144247669483345,-0.5770985433071867,0.27397388425977787,0.2127451990255936,nan
1740789331.530931,0.09285793506564284,-0.5959950698635218,0.2993068780597565,0.21197355999783937,nan
1740789331.5348368,0.09200603321444623,-0.6091186284757594,0.32165658789700896,0.20883495408060185,nan
1740789331.538744,0.08886163514013526,-0.6164296125121638,0.3408857529917991,0.20328564456365159,nan
1740789331.54265,0.08342519704684377,-0.617940316365857,0.35688831791556325,0.19530756294925494,nan
1740789331.5465558,0.07572300302018303,-0.6137149670083841,0.36959035470265555,0.18490888173307765,nan
1740789331.5504615,0.06580713363749473,-0.6038692731128952,0.37895066296667496,0.17212431472343132,nan
1740789331.5543675,0.05375516520225883,-0.5885694936518041,0.38496104162282563,0.15701513918046198,nan
1740789331.5582733,0.03966959999728446,-0.5680310324264861,0.3876462290703244,0.13966893686144374,nan
1740789331.562179,0.023677030676800055,-0.5425165695005664,0.387063511982742,0.12019905391344218,nan
1740789331.566085,0.005927044637158319,-0.5123337449405035,0.3833020061570828,0.09874378243194444,nan
1740789331.5699909,-0.013409123107444637,-0.47783241457504544,0.37648161615199127,0.07546526937512198,nan
1740789331.5738966,-0.03414017739101883,-0.4394015016271207,0.36675168366934063,0.05054816135941821,nan
1740789331.5778027,-0.056056577010022576,-0.39746547200771487,0.35428933776970334,0.024197996634582948,nan
1740789331.5817084,-0.07893255936426354,-0.35248046475283445,0.33929756302965675,-0.00336064178302514,nan
1740789331.5856154,-0.10252835721237674,-0.30493011249565577,0.3220030046173894,-0.03188619527841189,nan
1740789331.5895212,-0.12659258700067533,-0.2553210899624825,0.30265353195386824,-0.061122402150664695,nan
1740789331.5934272,-0.1508647862788731,-0.20417843123247909,0.2815155851126894,-0.09080075226841004,nan
1740789331.597333,-0.17507807597571706,-0.15204065887939516,0.2588713303674608,-0.12064310061483186,nan
1740789331.6012387,-0.19896192179097685,-0.09945477009435062,0.23501565329793134,-0.15036441463399894,nan
1740789331.6051447,-0.22224496768457008,-0.0469711264515508,0.21025301959441203,-0.17967562869123752,nan
1740789331.6090505,-0.24465791342371757,0.0048617048933625,0.18489423513611508,-0.20828657761496158,nan
1740789331.6129563,-0.26593640739730173,0.055502110102410025,0.1592531380475371,-0.23590898021109877,nan
1740789331.616862,-0.2858239254330922,0.10442053895797175,0.13364325624545045,-0.26225944284680824,nan
1740789331.620768,-0.3040746061654385,0.15110451811189035,0.10837446446805378,-0.2870624526976698,nan
1740789331.6246738,-0.320456013602981,0.19506351952084636,0.08374967492125869,-0.31005333004924573,nan
1740789331.6285796,-0.33475179793975923,0.23583363746108124,0.06006159548189667,-0.3309811091442821,nan
1740789331.632492,-0.34676422633771586,0.27298202911600983,0.03758958886425146,-0.3496113174723313,nan
1740789331.636398,-0.356316556380096,0.30611107576498914,0.016596665288326054,-0.36572862410771073,nan
1740789331.6403039,-0.36325522614699884,0.33486222405324745,-0.00267336000733879,-0.37913932870995287,nan
1740789331.6442096,-0.36745183638675266,0.3589194696705023,-0.019998514578627113,-0.38967366410084164,nan
1740789331.6481156,-0.3688049020377442,0.37801244898397446,-0.0351810939022171,-0.3971878869133754,nan
1740789331.6520214,-0.3672413523799185,0.3919191077316318,-0.04804983790821307,-0.40156613265733165,nan
1740789331.6559272,-0.3627177613460741,0.40046791975144624,-0.05846183538569824,-0.40272201364767624,nan
1740789331.659833,-0.35522129198068214,0.4035396328670901,-0.06630413534851462,-0.400599940577322,nan
1740789331.663739,-0.3447703416762683,0.40106852343181704,-0.07149504729142687,-0.3951761510638006,nan
1740789331.6676447,-0.3314148776206771,0.3930431456100106,-0.07398511530533336,-0.3864594312371117,nan
1740789331.6715505,-0.3152364548271273,0.37950656620753803,-0.07375775422547481,-0.3744915193382132,nan
1740789331.6754565,-0.29634791216559786,0.3605560807036322,-0.0708295393281599,-0.35934718333724636,nan
1740789331.6793659,-0.2748927449404778,0.33634241104323825,-0.06525014453739741,-0.3411339677292965,nan
1740789331.6832716,-0.251044155735886,0.307068390673444,-0.05710192761973638,-0.3199916078932906,nan
1740789331.6871777,-0.225003788446468,0.27298714720433087,-0.04649916439951482,-0.2960911136758864,nan
1740789331.6910834,-0.1970001535970595,0.23439979789677687,-0.03358693758305857,-0.26963352715523936,nan
1740789331.6949892,-0.16728675619842479,0.19165267788157525,-0.01853968930419517,-0.24084836281758085,nan
1740789331.6988952,-0.13613994045759512,0.1451341255505133,-0.0015594499602182364,-0.20999174161039325,nan
1740789331.702801,-0.10385646862966155,0.09527085388722288,0.01712624073724075,-0.17734423348793432,nan
1740789331.7067068,-0.07075085413365155,0.042523940581617084,0.037266701351446246,-0.14320842610645493,nan
1740789331.7106125,-0.037152471729495394,-0.012615526443060394,0.058590742751583165,-0.10790624022730513,nan
1740789331.7145185,-0.003402470038752078,-0.06963110800443764,0.080809543532006,-0.07177601511665359,nan
1740789331.7184243,0.030149486037210405,-0.1279859339555137,0.10361973913813072,-0.035169389762869985,nan
1740789331.72233,0.06314861341562951,-0.18712783891704474,0.12670669464378187,0.0015519919596859496,nan
1740789331.7262392,0.09523851808983785,-0.24649466528474862,0.14974792903044495,0.03801992199302034,nan
1740789331.730145,0.1260647786973342,-0.30551968351206044,0.17241665702603132,0.07386318268906443,nan
1740789331.734051,0.15527857235667256,-0.3636370782969086,0.194385413088991,0.10871118182299394,nan
1740789331.7379568,0.18254030785061515,-0.42028744840803395,0.21532972098942457,0.1421976333664974,nan
1740789331.7418625,0.20752323067631687,-0.4749232674834853,0.23493177165565932,0.17396424849536696,nan
1740789331.7457683,0.22991696425971392,-0.5270142532274403,0.25288407153266285,0.20366440077382877,nan
1740789331.7496743,0.24943095174632648,-0.5760525930229942,0.26889302364428824,0.230966729268258,nan
1740789331.75358,0.26579776323720283,-0.6215579750650728,0.2826824038679689,0.25555864350046353,nan
1740789331.7574859,0.27877623413585845,-0.6630823756913694,0.293996695617654,0.2771496946573457,nan
1740789331.7613919,0.28815440140619786,-0.7002145556379421,0.30260424718460727,0.2954747783279498,nan
1740789331.7652977,0.29375220600532054,-0.7325842204529206,0.30830021739872954,0.3102971352360041,nan
1740789331.7692034,0.29542393153871005,-0.7598658032455239,0.3109092770343324,0.3214111179677537,nan
1740789331.773112,0.2930603512751708,-0.7817818313027494,0.310288035479416,0.3286446935499661,nan
1740789331.7770178,0.28659055803875905,-0.7981058418434058,0.30632716459885223,0.3318616538968975,nan
1740789331.7809236,0.275983454145496,-0.8086648162653008,0.29895319442861223,0.3309635086001183,nan
1740789331.7848296,0.2612488814520968,-0.8133411066399936,0.28812995831658034,0.32589103726098045,nan
1740789331.7887354,0.24243837470762886,-0.8120738328807743,0.2738596683490268,0.3166254815389913,nan
1740789331.7926412,0.21964552472025858,-0.8048597339110748,0.256183605341444,0.30318936028456056,nan
1740789331.796547,0.1930059413410322,-0.791753461247607,0.2351824112969079,0.2856468945136072,nan
1740789331.800453,0.16269680989424504,-0.7728673086383512,0.21097597601113205,0.2641040325340756,nan
1740789331.8043587,0.128936038417039,-0.7483703767119005,0.18372291339603955,0.23870806921874743,nan
1740789331.8082645,0.09198099687576543,-0.7184871769522417,0.15361962706665086,0.2096468572012345,nan
1740789331.8121705,0.0521268533687277,-0.6834956846618307,0.12089896875218083,0.17714761161826156,nan
1740789331.8160763,0.009704516168929518,-0.6437248558657184,0.08582849711337992,0.14147531389556592,nan
1740789331.8199844,-0.034921805729343586,-0.5995516282906316,0.04870834853618742,0.10293072394104219,nan
1740789331.8238902,-0.08135740715546522,-0.5513974315763179,0.009868735388391585,0.06184801393067039,nan
1740789331.8277962,-0.12918023635832593,-0.49972423669420646,-0.03033290896658063,0.018592040614170698,nan
1740789331.831702,-0.1779443661160655,-0.4450301791145089,-0.07151511544341517,-0.026444723307594002,nan
1740789331.8356078,-0.22718375949949443,-0.3878447945331056,-0.11327586836188168,-0.07284557470766793,nan
1740789331.8395138,-0.2764163003117374,-0.3287239099026073,-0.15519636873028936,-0.12017325514609582,nan
1740789331.8434196,-0.3251480553459766,-0.2682442360691384,-0.19684503897567782,-0.16797388518563822,nan
1740789331.8473253,-0.3728777329883257,-0.20699771146253396,-0.2377817336777629,-0.21578112470197586,nan
1740789331.851231,-0.419101300370428,-0.14558564899112947,-0.2775621184385017,-0.26312052343443165,nan
1740789331.855137,-0.4633167192710282,-0.08461274052543391,-0.31574217692744955,-0.30951402378065873,nan
1740789331.859043,-0.5050287592989134,-0.024680975094471477,-0.3518828044073519,-0.3544845759230334,nan
1740789331.8629487,-0.5437538455803878,0.03361647185471906,-0.38555444468406447,-0.3975608238066306,nan
1740789331.8668568,-0.5790248972382596,0.08970132008410597,-0.41634172645579653,-0.438281819286381,nan
1740789331.8707626,-0.6103961123988821,0.14301617886456405,-0.44384805447133685,-0.47620172093903357,nan
1740789331.8746684,-0.637447655307949,0.19303039611263154,-0.4677001107540633,-0.5108944336049601,nan
1740789331.8785744,-0.6597902013801868,0.2392457054463539,-0.487552221413139,-0.5419581446934935,nan
1740789331.8824801,-0.6770692966546451,0.2812016156957735,-0.503090545246469,-0.5690197136573631,nan
1740789331.886386,-0.688969489174343,0.3184804893817476,-0.5140370414390335,-0.5917388718173593,nan
1740789331.890292,-0.6952181912511778,0.35071225916427773,-0.5201531751683781,-0.6098121908943366,nan
1740789331.8941977,-0.6955892334053538,0.37757873423844157,-0.5212433218359969,-0.6229767801750685,nan
1740789331.8981035,-0.68990607297049,0.3988174520975487,-0.5171578329347254,-0.6310136741906537,nan
1740789331.9020092,-0.6780446229151166,0.4142250349602568,-0.5077957292202427,-0.6337508751069384,nan
1740789331.9059153,-0.6599356693289606,0.42366001443781987,-0.49310698985792656,-0.6310660166980304,nan
1740789331.909821,-0.6355668492356968,0.4270450926622649,-0.4730944095399221,-0.6228886197754303,nan
1740789331.9137285,-0.6049841638970819,0.42436881306548135,-0.44781499918340795,-0.609201912252333,nan
1740789331.9176345,-0.5682930065380375,0.4156866192491056,-0.4173809096990602,-0.5900441906081061,nan
1740789331.9215403,-0.5256586874173539,0.40112128586905765,-0.38195986242514124,-0.5655097033518882,nan
1740789331.925446,-0.47730644336079725,0.3808627111277115,-0.3417750741218689,-0.5357490411342546,nan
1740789331.9293518,-0.423520923227128,0.35516706626990074,-0.2971046688749885,-0.5009690223873289,nan
1740789331.9332578,-0.36464514525569314,0.32435530336404,-0.2482805738274469,-0.46143206775008605,nan
1740789331.9371636,-0.3010789268083455,0.2888110285630284,-0.19568690030303704,-0.4174550610187179,nan
1740789331.9410694,-0.23327679162869658,0.24897775392750768,-0.13975781656416156,-0.36940769891251435,nan
1740789331.9449754,-0.16174536435791412,0.20535554670249265,-0.08097492311528347,-0.3177103365234157,nan
1740789331.9488811,-0.08704026662753926,0.15849710061392172,-0.019864146081668553,-0.26283133988146895,nan
1740789331.952787,-0.009762533555495797,0.10900325924184884,0.04300783128249721,-0.20528396157781628,nan
1740789331.956693,0.06944542613888659,0.05751802678071047,0.10703757451329667,-0.14562275980084669,nan
1740789331.9606,0.1499042989509788,0.004723106465348512,0.17158931262703211,-0.08443958541945744,nan
1740789331.9645057,0.23090273284851895,-0.04866798842262237,0.23599972892644575,-0.022359165850751088,nan
1740789331.9684117,0.311702565672874,-0.10191620179370989,0.29958309152384466,0.03996568166008304,nan
1740789331.9723175,0.3915443768443975,-0.15426352721745595,0.3616366837254873,0.10185917107881819,nan
1740789331.9762232,0.4696533202908223,-0.20493986921114737,0.42144649128720246,0.16262796331385193,nan
1740789331.980129,0.54524519360704,-0.25317011404230916,0.4782931007692508,0.22156683397246976,nan
1740789331.984035,0.6175326959030748,-0.29818134835100807,0.5314577608164058,0.27796454777724144,nan
1740789331.9879408,0.6857318246297996,-0.339210162052339,0.580228556191484,0.3311098919534122,nan
1740789331.9918466,0.7490683599109667,-0.3755099706935117,0.6239066428178227,0.3802978189688028,nan
1740789331.9957526,0.8067843835739765,-0.4063582917282486,0.6618124909556866,0.4248356474936627,nan
1740789331.9996583,0.8581447791754522,-0.43106390904313446,0.6932920829623826,0.464049269365808,nan
1740789332.0035641,0.9024436588723896,-0.44897386053028454,0.7177230118754221,0.49728930970887636,nan
1740789332.007474,0.939010663002616,-0.4594801845470139,0.734520427317238,0.5239371871676514,nan
1740789332.0113797,0.9672170787130331,-0.4620263627297371,0.7431427759500194,0.5434110214991151,nan
1740789332.0152857,0.9864817249098524,-0.4561133988242863,0.7430972849066383,0.5551713364920706,nan
1740789332.0191915,0.996276552197149,-0.4413054759414625,0.7339451382811738,0.5587265073787562,nan
1740789332.0230973,0.9961319083098338,-0.41723513792286904,0.7153062988685781,0.5536379035416638,nan
1740789332.0270033,0.9856414218219315,-0.38360794428128364,0.6868639298818802,0.5395246793966109,nan
1740789332.030909,0.9644664596043383,-0.34020655243052395,0.6483683743275734,0.5160681688338715,nan
1740789332.0348148,0.9323401165977641,-0.28689418560626145,0.5996406530620517,0.48301584150396437,nan
1740789332.0387206,0.889070699932492,-0.2236174499617269,0.5405754462573203,0.4401847825209465,nan
1740789332.0426266,0.8345446732397471,-0.15040846975722763,0.4711435270424544,0.38746466079771424,nan
1740789332.0465324,0.7687290311294226,-0.0673863153030946,0.39139362042505277,0.3248201551955662,nan
1740789332.0504382,0.6916730782224226,0.025242295687652853,0.301453665198155,0.25229281193184216,nan
1740789332.0543475,0.6035095917869941,0.12718303648015364,0.20153146136407424,0.17000231120970127,nan
1740789332.0582533,0.5044553518989555,0.2380547562251383,0.09191469061658684,0.0781471257756219,nan
1740789332.0621593,0.39481102808536267,0.3573910117419535,-0.027029697425679126,-0.022995440966725914,nan
1740789332.066065,0.27496041657804543,0.4846423400448629,-0.15485673529302074,-0.13306984459427423,nan
1740789332.0699708,0.14536902755437223,0.6191792590189424,-0.2910453208028241,-0.2516435192013909,nan
1740789332.0738769,0.0065820270334470705,0.7602959772677964,-0.4350007247115588,-0.3782087237689304,nan
1740789332.0777826,-0.1407784566179855,0.9072147879050962,-0.5860577090615519,-0.5121850070755081,nan
1740789332.0816884,-0.29601664637911973,1.059091115001363,-0.7434842372200716,-0.6529222776736602,nan
1740789332.0855944,-0.45836703013503693,1.2150191755806037,-0.906485751555063,-0.7997044603466954,nan
1740789332.0895002,-0.6269988487656515,1.374038214540522,-1.074209989813176,-0.9517537154798753,nan
1740789332.093406,-0.8010211286032053,1.5351392646947104,-1.2457523066043288,-1.1082351929653265,nan
1740789332.097312,-0.9794882234973322,1.697272379352212,-1.4201614619940242,-1.2682622876557792,nan
1740789332.1012206,-1.1614058273887422,1.8593542805025156,-1.5964458350990032,-1.4309023590281267,nan
1740789332.1051266,-1.3457374142546883,2.02027636180192,-1.7735800168099802,-1.5951828736522697,nan
1740789332.1090324,-1.531411058587004,2.178912982195871,-1.950511732360919,-1.7600979253196078,nan
1740789332.1129382,-1.7173265862289884,2.3341299831923097,-2.126169041458094,-1.924615084302155,nan
1740789332.1168442,-1.90236300246042,2.4847933605495665,-2.299467761101269,-2.087682524217885,nan
1740789332.12075,-2.085386141706455,2.6297780194802876,-2.4693190540972463,-2.248236372397478,nan
1740789332.1246557,-2.2652564811789375,2.7679765414164117,-2.6346371246025106,-2.4052082275057423,nan
1740789332.1285617,-2.440837059156399,2.8983078899401655,-2.7943469608524136,-2.5575327864873474,nan
1740789332.1324675,-2.61100143748686,3.0197259836678723,-2.9473920645508183,-2.704155521697087,nan
1740789332.1363733,-2.77464164726624,3.1312280646769275,-3.092742106213548,-2.844040348351453,nan
1740789332.1402793,-2.930676056511501,3.2318627924861087,-3.229400446084303,-2.976177222208633,nan
1740789332.144185,-3.0780570990141767,3.320737995624378,-3.356411461071357,-3.0995896076515264,nan
1740789332.1480935,-3.2157788044247133,3.3970280154371935,-3.4728676194814683,-3.213341757112253,nan
1740789332.1519995,-3.3428840709753067,3.459980579960414,-3.5779162471437753,-3.3165457440317296,nan
1740789332.1559052,-3.458471624088247,3.5089231494136675,-3.6707659308066916,-3.4083681932850283,nan
1740789332.159811,-3.561702606423961,3.5432686790960037,-3.750692507436112,-3.48803665520877,nan
1740789332.1637168,-3.6518067476795717,3.562520750170961,-3.8170445912213533,-3.554845572023342,nan
1740789332.1676228,-3.728088065632687,3.566278023965632,-3.869248593679647,-3.6081617885287303,nan
1740789332.1715286,-3.7899300535104596,3.554237980934968,-3.906813196210929,-3.6474295624431754,nan
1740789332.1754344,-3.836800312721372,3.5261999113109113,-3.92933323875893,-3.672175033619879,nan
1740789332.1793404,-3.868254594284215,3.4820671306155777,-3.9364929928461994,-3.6820101155869094,nan
1740789332.1832461,-3.883940216889933,3.4218483996154605,-3.928068792130578,-3.676635777374114,nan
1740789332.187152,-3.88359883439939,3.3456585348742935,-3.9039309987380753,-3.6558446883809257,nan
1740789332.191058,-3.8670685306732593,3.2537182027689884,-3.8640452889185455,-3.6195232040602563,nan
1740789332.194966,-3.8342852249070565,3.146352896607925,-3.808473247001646,-3.567652675404448,nan
1740789332.1988719,-3.7852833760607623,3.023991103275177,-3.7373722621551675,-3.500310070575775,nan
1740789332.2027776,-3.7201959804837776,2.887161672559503,-3.650994728019375,-3.4176679024813974,nan
1740789332.2066836,-3.639253862395949,2.7364904089545097,-3.5496865508622015,-3.319993461605327,nan
1740789332.2105894,-3.5427842624481056,2.5726959121794017,-3.4338849774242126,-3.2076473589313914,nan
1740789332.2144952,-3.4312087351045735,2.396584698911893,-3.3041157590521726,-3.0810813892753783,nan
1740789332.2184012,-3.3050403710195493,2.2090456441924946,-3.160989674010276,-2.9408357307452055,nan
1740789332.222307,-3.164880365874046,2.0110437866009563,-3.005198434963989,-2.787535501320093,nan
1740789332.2262127,-3.0114139622563005,1.803613546572343,-2.83751001350991,-2.621886698638908,nan
1740789332.2301188,-2.8454057960637607,1.5878514120670477,-2.6587634182354467,-2.444671553971663,nan
1740789332.2340245,-2.6676946835384543,1.3649081501940004,-2.469862967095459,-2.2567433359756435,nan
1740789332.2379303,-2.4791878893816763,1.1359806072722578,-2.271772098853851,-2.0590206441703245,nan
1740789332.2418382,-2.2808549203925654,0.9023031631695917,-2.065506771923199,-1.8524812360670249,nan
1740789332.2457442,-2.0737208927058712,0.6651389085494629,-1.8521285021154918,-1.6381554355270878,nan
1740789332.24965,-1.858859523937206,0.42577061586617015,-1.6327370935657728,-1.4171191731661508,nan
1740789332.2535558,-1.6373858043533434,0.18549157655375292,-1.4084631193857449,-1.1904867124452632,nan
1740789332.2574618,-1.4104484035480578,-0.05440362215564497,-1.1804602104277337,-0.9594031174692295,nan
1740789332.2613676,-1.1792218710020508,-0.29262830698153136,-0.949897211876776,-0.7250365204294492,nan
1740789332.2652733,-0.9448986903237919,-0.527912841369232,-0.7179502682298297,-0.48857024806758476,nan
1740789332.2691793,-0.7086812478962904,-0.7590135886257687,-0.4857948975606338,-0.2511948674865035,nan
1740789332.273085,-0.47177377708627055,-0.9847216442491421,-0.2545981158051312,-0.01410021208939941,nan
1740789332.276991,-0.23537433910497405,-1.2038712683764992,-0.025510671138607093,0.2215325516159585,nan
1740789332.2808967,-0.0006669010458380312,-1.415347951950462,0.20034055264086514,0.45453875615139533,nan
1740789332.2848027,0.23118642943000672,-1.6180960534323152,0.4218599064459856,0.6837779049757126,nan
1740789332.2887127,0.45905295482374503,-1.8111259466466525,0.637990064777719,0.9081411265119277,nan
1740789332.2926185,0.6818366680073188,-1.9935206245906416,0.8477187805232772,1.1265583546191982,nan
1740789332.2965245,0.898485208419817,-2.1644417087444436,1.0500852560235339,1.3380051822607695,nan
1740789332.3004303,1.1079964436326912,-2.323134818535432,1.2441860841268668,1.5415093379720468,nan
1740789332.304336,1.309424628935048,-2.4689342610925396,1.42918071667998,1.7361567379865148,nan
1740789332.308242,1.5018861012306597,-2.601267007229633,1.6042964219719131,1.9210970705027066,nan
1740789332.3121479,1.6845644675166827,-2.7196559256672317,1.7688326970091834,2.0955488725409968,nan
1740789332.3160536,1.8567152524953598,-2.8237222537867335,1.9221651051193374,2.25880406410971,nan
1740789332.3199596,2.017669974417172,-2.9131872896555095,2.063748514216607,2.410231908938741,nan
1740789332.3238654,2.166839623027319,-2.987873296608454,2.193119716074575,2.54928237580624,nan
1740789332.3277712,2.3037175184459775,-3.0477036182647868,2.3098994120932357,2.675488879438532,nan
1740789332.3316772,2.427881534913957,-3.092702008440814,2.4137935562771142,2.788470385062873,nan
1740789332.3355844,2.5389956785353602,-3.122991186932993,2.504594051412063,2.8879328658930064,nan
1740789332.3394902,2.636811013403541,-3.1387906385348443,2.5821787996959222,2.973670108084502,nan
1740789332.343396,2.7211659357613933,-3.1404136788610657,2.646511114297389,3.0455638629657527,nan
1740789332.3473017,2.791985801077459,-3.1282638165295897,2.6976385034440518,3.1035833515868094,nan
1740789332.3512077,2.84928191407154,-3.1028304469463786,2.735690843631223,3.147784131787721,nan
1740789332.3551135,2.8931498967545197,-3.064683918300243,2.7608779633563967,3.17830634302767,nan
1740789332.3590193,2.9237674544151604,-3.014470015360923,2.773486663379494,3.1953723490938284,nan
1740789332.3629253,2.941391564151623,-2.9529039112414384,2.773877203849129,3.1992838034842994,nan
1740789332.366831,2.9463551149692284,-2.8807636413975852,2.762479292683903,3.1904181666942932,nan
1740789332.3707368,2.9390630326127023,-2.798883157759953,2.7397876133231773,3.1692247087926924,nan
1740789332.3746428,2.919987926137527,-2.7081450239977216,2.7063569333335873,3.1362200345239777,nan
1740789332.3785486,2.889665296720653,-2.609472815474726,2.6627968383499168,3.0919831716773576,nan
1740789332.3824582,2.848688352338461,-2.5038232894568906,2.6097661384185518,3.037150266603436,nan
1740789332.386364,2.79770247467564,-2.3921783925522213,2.5479669959795825,2.972408933504732,nan
1740789332.39027,2.7373993869519415,-2.2755371732005485,2.478138826454273,2.89849230645911,nan
1740789332.3941758,2.6685110732482635,-2.154907667276169,2.401052023686569,2.8161728450379884,nan
1740789332.3980815,2.5918035013659124,-2.0312988245237795,2.3175015633132268,2.7262559458407902,nan
1740789332.4019876,2.5080702022546357,-1.905712542622925,2.2283005375035603,2.629573413274597,nan
1740789332.4058933,2.418125759590776,-1.7791358741802163,2.1342736744174937,2.5269768434580655,nan
1740789332.409799,2.322799263176025,-1.6525334698983851,2.036250895184235,2.4193309752203622,nan
1740789332.413705,2.222927779462396,-1.5268403185881816,1.9350609602122344,2.307507061802039,nan
1740789332.417611,2.119349891697426,-1.4029548415992166,1.8315252552166674,2.1923763160522496,nan
1740789332.4215167,2.0128993609358456,-1.2817323956794462,1.726451765509837,2.074803480666277,nan
1740789332.4254224,1.904398957494534,-1.1639792342645743,1.6206292848624249,1.9556405733333644,nan
1740789332.429332,1.7946545103547054,-1.0504469727863355,1.514821902632774,1.8357208545855872,nan
1740789332.4332378,1.6844492195602445,-0.9418275988139602,1.409763809903536,1.7158530636752594,nan
1740789332.4371438,1.5745382738487537,-0.8387490627507727,1.3061544620894672,1.5968159649860083,nan
1740789332.4410496,1.4656438126096756,-0.7417714794447253,1.2046541319185924,1.47935324432873,nan
1740789332.4449553,1.3584502678221615,-0.6513839654872776,1.1058798828755108,1.3641687910186566,nan
1740789332.4488611,1.253600117916828,-0.5680021312200194,1.010401989166404,1.251922397906348,nan
1740789332.4527671,1.151690081564986,-0.49196624059519156,0.9187408240579121,1.1432259075786282,nan
1740789332.456673,1.0532677752628234,-0.4235400460975517,0.8313642340954995,1.0386398287918692,nan
1740789332.4605787,0.9588288542844273,-0.3629102999840445,0.7486854122611023,0.938670442887788,nan
1740789332.4644847,0.8688146521654286,-0.31018693718736906,0.6710612786251026,0.8437674155101828,nan
1740789332.4683905,0.7836103293882766,-0.26540391941206093,0.5987913725246425,0.7543219244298435,nan
1740789332.4722962,0.7035435374108442,-0.22852072427811057,0.5321172557993897,0.6706653097344265,nan
1740789332.476205,0.6288835996523633,-0.19942445788693974,0.4712224221768436,0.5930682480907942,nan
1740789332.480111,0.5598412065644444,-0.17793256394503673,0.4162327035611813,0.52174044827909,nan
1740789332.4840167,0.49656861750920955,-0.16379609762669878,0.3672171597800477,0.45683086076995083,nan
1740789332.4879227,0.4391603578794447,-0.15670352773109286,0.32418943431868513,0.39842838980686446,nan
1740789332.4918284,0.3876543957637957,-0.15628502642908054,0.2871095547546052,0.34656309230171345,nan
1740789332.4957342,0.3420337785183917,-0.16211720203715302,0.2558861530304312,0.3012078438878912,nan
1740789332.4996402,0.3022287058877928,-0.1737282268307497,0.2303790773972443,0.2622804487352889,nan
1740789332.503546,0.26811901285355205,-0.1906033089444698,0.2104023648523104,0.2296461662456021,nan
1740789332.5074518,0.2395370322060456,-0.2121904549250504,0.19572754020737973,0.20312062454300722,nan
1740789332.5113578,0.21627080395991632,-0.2379064675229119,0.18608720557736116,0.1824730877797681,nan
1740789332.5152636,0.1980675961878683,-0.2671431218431927,0.1811788820915208,0.16743004171113474,nan
1740789332.5191693,0.18463769965083526,-0.2992734620364669,0.18066906401422111,0.15767905977819138,nan
1740789332.523078,0.17565845677058858,-0.33365816029687834,0.1841974442300305,0.15287291008707535,nan
1740789332.5269837,0.17077848403614068,-0.36965188005048766,0.19138126920548756,0.1526338622005738,nan
1740789332.5308895,0.16962204586670124,-0.4066095858537528,0.20181978109001492,0.15655815157247216,nan
1740789332.5347955,0.17179353727689656,-0.4438927436710312,0.21509870456090913,0.16422055876155572,nan
1740789332.5387013,0.17688203240616007,-0.4808753568460086,0.2307947363478319,0.17517906026240532,nan
1740789332.542607,0.18446585608185162,-0.5169497852058562,0.2484799960831183,0.18897950788245063,nan
1740789332.546513,0.19411713607946884,-0.5515322973152631,0.267726398204455,0.2051602940734759,nan
1740789332.5504189,0.20540629461434803,-0.5840683089029117,0.28810990607152426,0.22325696148226112,nan
1740789332.5543246,0.21790643883551347,-0.6140372638843957,0.30921463123069404,0.2428067162068621,nan
1740789332.5582304,0.23119761167828537,-0.6409571181685969,0.33063674285110295,0.26335280581685083,nan
1740789332.5621364,0.24487086634966854,-0.6643883905215743,0.3519881547384466,0.2844487250991378,nan
1740789332.5660422,0.25853212994795566,-0.6839377491330283,0.37289995998361025,0.3056622147043575,nan
1740789332.5699503,0.2718058242316959,-0.6992611071428008,0.3930255861941485,0.3265790203683498,nan
1740789332.573856,0.2843382143267139,-0.7100662051944127,0.4120436473575229,0.3468063831425779,nan
1740789332.577762,0.2958004591649965,-0.7161146640434983,0.42966047166449495,0.3659762340579325,nan
1740789332.581668,0.3058913406555115,-0.7172234953143033,0.44561228804616476,0.3837480698379508,nan
1740789332.5855737,0.31433965196278457,-0.7132660636198077,0.45966705771503874,0.3998114896381892,nan
1740789332.5894794,0.3209062287810171,-0.7041724983929474,0.47162594061449264,0.41388837628518016,nan
1740789332.5933852,0.3253856111058806,-0.6899295588704886,0.48132439033716257,0.42573470908711747,nan
1740789332.5972912,0.3276073266880762,-0.6705799606809434,0.4886328747361399,0.43514199895450634,nan
1740789332.601197,0.3274367910674705,-0.6462211773679841,0.49345722308862416,0.44193834026760376,nan
1740789332.6051028,0.3247758227992114,-0.6170037348873831,0.4957386042458831,0.4459890776237714,nan
1740789332.6090088,0.31956277615913503,-0.583129021606658,0.49545314368277654,0.44719708925742835,nan
1740789332.6129146,0.3117722972211774,-0.5448466405728367,0.49261119071286735,0.44550269251436087,nan
1740789332.6168225,0.30141471270155756,-0.5024513347582217,0.48725625033092856,0.4408831802480719,nan
1740789332.6207283,0.2885350643315751,-0.45627951961288366,0.4794635971548164,0.4333520003571432,nan
1740789332.624634,0.2732118047229788,-0.4067054605153177,0.46933859173689557,0.4229575938695033,nan
1740789332.62854,0.2555551736988641,-0.35413713559230037,0.45701472207709354,0.40978190997398145,nan
1740789332.6324458,0.23570527685277437,-0.29901182685225325,0.44265139547374643,0.3939386191758274,nan
1740789332.6363516,0.21382989064538266,-0.24179148462418587,0.4264315078755355,0.3755710482873667,nan
1740789332.6402576,0.1901220206304903,-0.18295791190141764,0.4085588196319692,0.3548498632366569,nan
1740789332.6441634,0.16479724140154137,-0.12300781634496845,0.38925516796787357,0.33197052766764373,nan
1740789332.6480691,0.13809084855057097,-0.06244777839910701,0.368757547619062,0.30715056699935006,nan
1740789332.651975,0.1102548543208038,-0.0017891842089675617,0.3473150918549729,0.28062666899665506,nan
1740789332.655881,0.08155485970213618,0.05845682819065128,0.3251859865757169,0.2526516529717573,nan
1740789332.6597867,0.052266836458930724,0.11778436161871497,0.3026343503052018,0.22349134047719657,nan
1740789332.6636941,0.022673852988424226,0.1756976447408152,0.2799271127114027,0.19342136076516026,nan
1740789332.6676,-0.0069372220146592094,0.23171576416909384,0.2573309237751411,0.1627239243737602,nan
1740789332.6715057,-0.03627900436319409,0.2853772004754469,0.23510912490874983,0.13168459796214826,nan
1740789332.6754117,-0.06506683450261638,0.3362441272588429,0.21351881220738944,0.1005891129589994,nan
1740789332.6793175,-0.093021940694138,0.3839064351026334,0.19280802061306215,0.06972023972216589,nan
1740789332.6832232,-0.11987449418477794,0.4279854452844565,0.1732130561016451,0.03935475774331296,nan
1740789332.6871293,-0.14536652677043468,0.46813728142807975,0.15495600108605112,0.009760550984874489,nan
1740789332.691035,-0.1692546829061071,0.5040558708791225,0.1382424160857379,-0.018806144274956638,nan
1740789332.6949408,-0.19131278051586467,0.5354755514085972,0.1232592583679113,-0.04610331367047995,nan
1740789332.6988466,-0.21133415688248205,0.5621732628614068,0.11017303574446943,-0.07190553781173387,nan
1740789332.7027526,-0.2291337784289421,0.5839703075315089,0.09912821103791393,-0.09600614332465043,nan
1740789332.7066584,-0.24455009581572368,0.6007336673206513,0.09024586993739038,-0.1182191135642614,nan
1740789332.7105656,-0.2574466285419392,0.6123768700818043,0.08362266208169668,-0.13838074339853712,nan
1740789332.7144713,-0.2677132661266626,0.6188604019198921,0.07933002225934851,-0.1563510252809104,nan
1740789332.718377,-0.275267275930066,0.620191666579387,0.0774136756365827,-0.1720147567400594,nan
1740789332.722283,-0.28005401072237246,0.6164244973495794,0.07789342794268792,-0.18528236238653897,nan
1740789332.726189,-0.28204731219200874,0.607658231123504,0.0807632385880184,-0.19609042653744635,nan
1740789332.7300947,-0.2812496096723653,0.5940363583165625,0.08599157179283384,-0.20440193556263064,nan
1740789332.7340004,-0.27769171642930396,0.5757447662482768,0.09352201799306893,-0.21020623202936983,nan
1740789332.7379065,-0.27143232885937607,0.5530095972799779,0.10327417508967081,-0.21351868563796375,nan
1740789332.7418122,-0.2625572368729313,0.5260947464492542,0.1151447765471974,-0.21438008877004888,nan
1740789332.745718,-0.25117825654923265,0.49529902651812024,0.12900905094922813,-0.21285578718764003,nan
1740789332.749624,-0.23743189882593765,0.46095303122836123,0.144722295405416,-0.20903455899819243,nan
1740789332.7535298,-0.2214777904980948,0.4234157301096788,0.1621216431980448,-0.20302725741521072,nan
1740789332.7574394,-0.20349686612905185,0.3830708303928256,0.18102800427305593,-0.1949652350729134,nan
1740789332.7613451,-0.18368935159638258,0.3403229434229909,0.20124815563742007,-0.18499856967683834,nan
1740789332.7652512,-0.16227256189123823,0.2955935944341183,0.2225769574347864,-0.1732941125720844,nan
1740789332.769157,-0.1394785374428736,0.24931711562214093,0.244799669445121,-0.16003338337139203,nan
1740789332.7730627,-0.11555154463749821,0.20193646313764183,0.26769434199947484,-0.1454103350933483,nan
1740789332.7769685,-0.09074546733057552,0.1538989989034315,0.2910342548231742,-0.12962901530605073,nan
1740789332.7808745,-0.06532111700554234,0.10565227805101927,0.3145903771218689,-0.11290114954574841,nan
1740789332.7847803,-0.03954348980361861,0.05763988226682121,0.338133822304466,-0.09544367377819689,nan
1740789332.788686,-0.01367899893575953,0.010297338452735364,0.3614382710916328,-0.07747624289030436,nan
1740789332.792592,0.012007289011519278,-0.03595183915126814,0.3842823373821891,-0.059218742141679846,nan
1740789332.7964978,0.03725438564738749,-0.08069994684708647,0.4064518521335305,-0.04088882817301617,nan
1740789332.8004036,0.061808052556769355,-0.12355869477381555,0.42774204164490315,-0.02269952556680622,nan
1740789332.804313,0.0854233864522106,-0.16416258329378466,0.447959578000122,-0.0048569040942402645,nan
1740789332.8082187,0.10786729195167859,-0.20217202269627518,0.46692448101313505,0.01244213932870398,nan
1740789332.8121247,0.12892081757476495,-0.23727616925924294,0.4844718528075269,0.029011971299517127,nan
1740789332.8160305,0.14838133212000915,-0.2691954537546838,0.5004534281296628,0.04468016409190956,nan
1740789332.8199363,0.1660645203710227,-0.29768378172869464,0.5147389256227946,0.059289269982061694,nan
1740789332.8238423,0.18180617905936725,-0.32253038829942415,0.5272171875530981,0.0726984103488903,nan
1740789332.827748,0.19546379616678755,-0.3435613337601557,0.5377970978536654,0.08478466427164941,nan
1740789332.8316538,0.2069178989556947,-0.3606406299149515,0.546408270813706,0.09544424359953653,nan
1740789332.8355598,0.21607315855096096,-0.37367099077427585,0.5530015052614425,0.10459344383391606,nan
1740789332.8394656,0.22285924143299918,-0.3825942049610835,0.5575490016439588,0.11216936261927526,nan
1740789332.8433714,0.2272314008160102,-0.3873911308874944,0.5600443419688056,0.11813038015853343,nan
1740789332.8472774,0.22917080354977115,-0.3880813194222335,0.560502235114019,0.12245639842562404,nan
1740789332.851186,0.2286845908717209,-0.38472227234417333,0.558958032509021,0.12514883861710363,nan
1740789332.8550918,0.22580567402161175,-0.37740834833341463,0.5554670216132187,0.12623039883868192,nan
1740789332.8589978,0.2205922683871476,-0.366269331555607,0.5501035069471293,0.1257445765360419,nan
1740789332.8629036,0.21312717244970872,-0.3514686810167109,0.5429596906391989,0.12375496262690902,nan
1740789332.8668094,0.20351680031921973,-0.3332014817752666,0.5341443665177692,0.1203443166484819,nan
1740789332.8707151,0.19188997906203303,-0.31169212177079175,0.5237814436814191,0.11561343447767611,nan
1740789332.8746212,0.17839652431222547,-0.28719172043629637,0.5120083172032652,0.10967982228906803,nan
1740789332.878527,0.1632056097932557,-0.2599753373887602,0.49897410514896723,0.10267619236636079,nan
1740789332.8824327,0.14650394834329253,-0.2303389913155319,0.48483777239937303,0.09474879815875518,nan
1740789332.8863387,0.12849380381550785,-0.19859652068194045,0.4697661628545485,0.08605562755683745,nan
1740789332.8902445,0.10939085479781221,-0.1650763190639534,0.45393196244626294,0.07676447473854096,nan
1740789332.8941503,0.08942193245072855,-0.13011797875105544,0.43751161599326377,0.06705091209163519,nan
1740789332.898059,0.06882265588540674,-0.09406887676353227,0.4206832212928329,0.057096184644675196,nan
1740789332.9019647,0.047834989386556226,-0.05728073758327312,0.4036244239506251,0.0470850501252568,nan
1740789332.9058704,0.026704746420198454,-0.020106206709893413,0.38651033630889536,0.03720358820728055,nan
1740789332.9097764,0.0056790657488117935,0.01710453137058564,0.36951150344342026,0.027637002704542658,nan
1740789332.9136822,-0.014996114895296385,0.05400705807049708,0.3527919385671778,0.018567440415872462,nan
1740789332.917588,-0.035078562253538496,0.0902659168751788,0.3365072493117061,0.010171850029120008,nan
1740789332.921494,-0.05433220315389893,0.12555767071684695,0.32080287526518486,0.002619903951986532,nan
1740789332.9253998,-0.07252950796866894,0.1595737922148214,0.3058124558420884,-0.003927994836169583,nan
1740789332.9293056,-0.08945377845403377,0.19202336047166532,0.2916563460572439,-0.009322599816532962,nan
1740789332.9332116,-0.10490131759811645,0.22263554037915248,0.2784402960937483,-0.01342758196518798,nan
1740789332.9371173,-0.11868346040961945,0.2511618228693029,0.2662543087079165,-0.01612114632118861,nan
1740789332.941023,-0.13062844608645566,0.2773780072170129,0.2551716865250373,-0.017297487218290365,nan
1740789332.9449313,-0.14058311369647253,0.3010859093335911,0.2452482791686706,-0.01686806707615316,nan
1740789332.9488373,-0.14841440536266406,0.32211478295464474,0.23652193795598447,-0.01476270556144148,nan
1740789332.952743,-0.15401066295359844,0.3403224436902798,0.229012183605759,-0.010930467972079557,nan
1740789332.9566488,-0.15728270641542827,0.355596089038606,0.22272009006831267,-0.0053403438476023486,nan
1740789332.9605548,-0.15816468412270224,0.36785281063279707,0.21762838522244626,0.0020182909575984795,nan
1740789332.9644606,-0.1566146879485775,0.37703979816512645,0.21370176681835998,0.011135433206484252,nan
1740789332.9683664,-0.15261512813718084,0.3831342375762546,0.21088742970225338,0.02198043435338581,nan
1740789332.9722724,-0.14617286547793115,0.3861429091830226,0.2091157980624396,0.03450220555111727,nan
1740789332.9761782,-0.1373191007093698,0.3861014944122626,0.20830145421228563,0.04862964304844465,nan
1740789332.980084,-0.12610902349426487,0.38307360268219465,0.20834425329524642,0.06427226913598623,nan
1740789332.9839897,-0.11262122568456787,0.3771495326984732,0.2091306112839416,0.08132108155791358,nan
1740789332.9878957,-0.09695688591082849,0.3684447849825768,0.21053495176939002,0.09964960214711813,nan
1740789332.9918036,-0.07923873476328021,0.35709834480148583,0.21242129531766088,0.11911511338479683,nan
1740789332.9957094,-0.05960981195924964,0.34327075679714303,0.21464497362709278,0.1395600696523439,nan
1740789332.9996154,-0.038232028893312404,0.32714201450221536,0.21705444936577956,0.16081366815342385,nan
1740789333.0035212,-0.015284551823596775,0.3089092895579817,0.21949322142010608,0.18269356285487906,nan
1740789333.007427,0.009037977357915002,0.2887845268061251,0.22180179435264988,0.20500770334302898,nan
1740789333.011333,0.03452736430713067,0.26699193249739805,0.22381969016116668,0.22755627923104374,nan
1740789333.0152388,0.060963909573980464,0.24376538363775174,0.22538747995688527,0.25013374969581914,nan
1740789333.0191445,0.08811855920615237,0.21934578697118598,0.22634881294477427,0.272530936879351,nan
1740789333.0230505,0.11575513679891496,0.19397841627572582,0.2265524200930555,0.294537161267862,nan
1740789333.0269563,0.1436326344970677,0.1679102565252805,0.22585407012386696,0.3159423967676801,nan
1740789333.030862,0.17150754000040533,0.1413873830493124,0.22411845593906407,0.33653942303343015,nan
1740789333.0347679,0.19913617640043796,0.11465240311118421,0.221220990309466,0.3561259526724486,nan
1740789333.0386755,0.22627703168442664,0.08794198633418228,0.21704949059504844,0.3745067112481534,nan
1740789333.0425813,0.2526930549816609,0.06148450914428152,0.2115057334177336,0.3914954485307034,nan
1740789333.046487,0.27815389709268057,0.0354978368857477,0.20450686156567827,0.4069168601896259,nan
1740789333.050393,0.302438073528882,0.0101872655174361,0.19598662695401228,0.420608400082027,nan
1740789333.0542989,0.32533502918959323,-0.014256357165908196,0.18589645518601575,0.4324219644511137,nan
1740789333.0582047,0.34664708490608226,-0.03765831299974937,0.17420631913271575,0.4422254307006965,nan
1740789333.0621107,0.3661912473749771,-0.05986148214160887,0.16090541095857358,0.4499040349378299,nan
1740789333.0660164,0.38380086547324893,-0.08072758599665221,0.14600260414546143,0.4553615741617115,nan
1740789333.0699222,0.39932711757759065,-0.10013819397134888,0.12952669928445215,0.4585214208048808,nan
1740789333.073828,0.41264031628558745,-0.11799548632473571,0.11152644969217888,0.4593273392834968,nan
1740789333.077734,0.42363101883595505,-0.1342227681221193,0.09207036524204026,0.4577440962669563,nan
1740789333.0816398,0.43221093353068424,-0.1487647320622082,0.07124629515592716,0.453757858512016,nan
1740789333.085547,0.43831361455256823,-0.16158747071652654,0.04916079285542456,0.4473763743010038,nan
1740789333.0894527,0.44189493972589083,-0.17267824146008048,0.025938268297809892,0.43862893675500914,nan
1740789333.0933585,0.44293336796417615,-0.1820449900561069,0.0017199354977528274,0.4275661295383641,nan
1740789333.0972643,0.4414299753646785,-0.18971564145720682,-0.023337434863233558,0.41425935770722644,nan
1740789333.1011703,0.43740827112231256,-0.19573716887319195,-0.04906294573386521,0.39880016865978174,nan
1740789333.105076,0.4309137966240408,-0.20017445450701757,-0.07527317290645587,0.381299370296216,nan
1740789333.1089818,0.422013513226446,-0.2031089575499562,-0.101773917311822,0.3618859555710528,nan
1740789333.1128879,0.4107949862931191,-0.2046372070333538,-0.1283620928757758,0.34070584459783776,nan
1740789333.1167936,0.39736537505424097,-0.2048691389366444,-0.1548277309088915,0.3179204573263895,nan
1740789333.1206994,0.3818502397288709,-0.20392629853156496,-0.18095608068577695,0.29370513153710975,nan
1740789333.1246054,0.3643921791026671,-0.2019399302851279,-0.20652978476141445,0.26824740246772244,nan
1740789333.1285112,0.345149313363217,-0.19904897873557026,-0.23133110668204293,0.24174516178965022,nan
1740789333.132421,0.32429362844647,-0.1953980245858988,-0.2551441880863136,0.21440471486971613,nan
1740789333.1363268,0.3020091994270784,-0.19113518082098332,-0.27775731176625795,0.1864387562760489,nan
1740789333.1402326,0.27849031158107107,-0.18640997394161543,-0.29896514707197386,0.15806428430460656,nan
1740789333.1441386,0.2539394986508768,-0.18137123542063927,-0.31857095410132,0.12950047590666044,nan
1740789333.1480443,0.22856551854251753,-0.17616502822307253,-0.33638872341637627,0.10096654378191468,nan
1740789333.1519501,0.20258128717667215,-0.17093263269797773,-0.3522452285694277,0.07267959756308279,nan
1740789333.1558561,0.17620179149542065,-0.1658086153513412,-0.36598196949803996,0.04485253095422996,nan
1740789333.159762,0.1496420026932182,-0.16091900295589784,-0.3774569858538801,0.017691956398033733,nan
1740789333.1636677,0.1231148105943541,-0.15637958315767483,-0.38654652055390243,-0.008603791660697548,nan
1740789333.1675735,0.0968289997424466,-0.15229435121481202,-0.39314651527328776,-0.033846564570817785,nan
1740789333.1714795,0.07098728720517639,-0.14875412076877578,-0.39717392122321776,-0.05786019891605199,nan
1740789333.1753852,0.045784441336073754,-0.14583531462069294,-0.3985678103572127,-0.080482189316205,nan
1740789333.1792948,0.021405499783630523,-0.14359894938732765,-0.3972902741094178,-0.10156521761768371,nan
1740789333.1832006,-0.0019758960932195384,-0.14208982566507491,-0.39332709886765493,-0.12097852299007789,nan
1740789333.1871064,-0.02419903454271086,-0.14133593296073582,-0.3866882096021685,-0.13860909909046107,nan
1740789333.1910124,-0.045117520062141356,-0.1413480761803952,-0.37740787538571774,-0.1543627062425057,nan
1740789333.1949182,-0.06460050054483976,-0.14211972792918293,-0.3655446729288475,-0.16816468848524216,nan
1740789333.198824,-0.08253372382356516,-0.14362710829235828,-0.35118120669178204,-0.17996058735683051,nan
1740789333.2027297,-0.09882041431527214,-0.14582949116992586,-0.33442358659692795,-0.18971654637145782,nan
1740789333.2066357,-0.1133819623699728,-0.1486697336507271,-0.31540066682863493,-0.19741950230112287,nan
1740789333.2105415,-0.1261584208885825,-0.15207502236548703,-0.2942630516447232,-0.20307716156667135,nan
1740789333.2144473,-0.13710880578107365,-0.15595782827895935,-0.2711818765126594,-0.20671776225158722,nan
1740789333.2183533,-0.14621119886621176,-0.16021705899574046,-0.24634737519786118,-0.20838962445529197,nan
1740789333.222259,-0.1534626538470245,-0.1647393953880679,-0.21996724564895,-0.2081604938776558,nan
1740789333.2261677,-0.1588789080110588,-0.16940079723142387,-0.19226482962199393,-0.20611668565078536,nan
1740789333.2300737,-0.16249390428114205,-0.17406816057770003,-0.1634771229416418,-0.20236203748655784,nan
1740789333.2339795,-0.16435913016074977,-0.17860110782728492,-0.1338526350911543,-0.19701668316770796,nan
1740789333.2378852,-0.16454278195887057,-0.1828538898995899,-0.10364911843729606,-0.19021565925676023,nan
1740789333.2417912,-0.16312876442410876,-0.18667737856335537,-0.07313118881292972,-0.18210735961189284,nan
1740789333.245697,-0.16021553754922402,-0.18992112588790822,-0.04256786038514605,-0.1728518538644842,nan
1740789333.2496028,-0.15591482380929628,-0.1924354669266089,-0.012230018717062464,-0.1626190874137193,nan
1740789333.2535088,-0.15035019045433728,-0.19407364115338652,0.01761214332365317,-0.15158698171487286,nan
1740789333.2574146,-0.14365552267738466,-0.19469390784912843,0.046691701654968325,-0.13993945466746405,nan
1740789333.2613204,-0.13597340451006806,-0.19416163058087596,0.07474756366285017,-0.12786438173665463,nan
1740789333.2652264,-0.12745342514976826,-0.19235130613409915,0.101526992069942,-0.11555151905778772,nan
1740789333.2691321,-0.11825042908762542,-0.1891485137451811,0.12678806483903501,-0.10319041017340697,nan
1740789333.2730405,-0.10852272887884785,-0.18445176123293014,0.1503020464660814,-0.09096829823027627,nan
1740789333.2769463,-0.09843029967202477,-0.17817420563705033,0.17185564677148135,-0.07906806541909522,nan
1740789333.280852,-0.08813297469033499,-0.1702452272279277,0.19125314429342405,-0.06766622117193286,nan
1740789333.284758,-0.07778866073478215,-0.16061183724310066,0.2083183526141008,-0.05693096014465405,nan
1740789333.2886639,-0.06755159245989642,-0.14923990141612936,0.22289640939712344,-0.04702031030854469,nan
1740789333.2925696,-0.05757064365977321,-0.13611516327575768,0.23485536956891673,-0.03808039056393204,nan
1740789333.2964756,-0.04798771310290005,-0.12124405328751708,0.24408758592237587,-0.030243796178093033,nan
1740789333.3003814,-0.03893620157591584,-0.10465427216469043,0.2505108624400255,-0.02362812905110582,nan
1740789333.3042872,-0.030539595748814388,-0.08639513906736912,0.2540693678068209,-0.018334688339704964,nan
1740789333.3081932,-0.022910173268832712,-0.06653769791242675,0.25473429888851595,-0.014447335335427806,nan
1740789333.312099,-0.016147842140010943,-0.04517457760745572,0.25250428636777583,-0.01203154471575244,nan
1740789333.3160048,-0.01033912596497832,-0.02241960467098313,0.24740553723335476,-0.01113365238355739,nan
1740789333.319913,-0.005556305030336089,0.0015928306180198974,0.23949171138313063,-0.011780308100139792,nan
1740789333.323819,-0.0018567215241615661,0.026708650714564342,0.22884353220444922,-0.013978139020563237,nan
1740789333.3277247,0.0007177445986444902,0.05275520346042016,0.21556813360938848,-0.017713628078389696,nan
1740789333.3316305,0.0021410244215827974,0.07954260180413178,0.1997981486024064,-0.02295320896173983,nan
1740789333.3355365,0.0024030307370280553,0.10686527897231474,0.1816905470176447,-0.029643577196374612,nan
1740789333.3394423,0.0015096496755234116,0.13450374505915066,0.1614252325574362,-0.03771221462666131,nan
1740789333.343348,-0.0005174457107928553,0.16222652871731172,0.1392034116675529,-0.04706812238440597,nan
1740789333.347254,-0.0036411570304534695,0.189792285507907,0.11524574907428785,-0.05760275528082917,nan
1740789333.3511598,-0.007809492571894346,0.21695205252235547,0.08979032696072609,-0.06919114847046517,nan
1740789333.3550656,-0.012956263237850924,0.24345162714663318,0.06309042675280895,-0.08169322523844488,nan
1740789333.3589714,-0.01900193415391799,0.26903404631719113,0.03541215429983262,-0.09495527287506698,nan
1740789333.3628774,-0.02585462208260832,0.2934421413349631,0.0070319308505368845,-0.10881157184276781,nan
1740789333.3667853,-0.03341122725488142,0.3164211422738959,-0.02176612637185184,-0.12308616182871948,nan
1740789333.3706913,-0.04155868683542675,0.3377213052551657,-0.050692909018512644,-0.13759472682773055,nan
1740789333.374597,-0.05017533598039456,0.35710053536721564,-0.07945708197814373,-0.1521465801298244,nan
1740789333.3785028,-0.0591323613393297,0.37432697780121665,-0.10776788066257237,-0.1665467290079187,nan
1740789333.3824089,-0.06829533090821845,0.3891815498454164,-0.13533791419971083,-0.1805979980246903,nan
1740789333.3863146,-0.07752578336704523,0.4014603867406121,-0.16188594735833706,-0.1941031892130522,nan
1740789333.3902204,-0.08668285944107121,0.41097717504066383,-0.18713963413468826,-0.20686725693898894,nan
1740789333.3941264,-0.09562495741577545,0.417565348041238,-0.21083817630162574,-0.21869947503333048,nan
1740789333.3980322,-0.1042113947152713,0.42108011902911746,-0.2327348808547148,-0.2294155737835284,nan
1740789333.401938,-0.11230405742468882,0.42140032955233725,-0.2525995911801363,-0.23883982460742298,nan
1740789333.4058437,-0.11976901979885123,0.4184300916049757,-0.2702209679093283,-0.2468070506870933,nan
1740789333.4097497,-0.12647811615026852,0.4121002045432315,-0.2854085968038873,-0.25316454251738923,nan
1740789333.413657,-0.13231044804541817,0.40236932968332695,-0.29799490261897554,-0.25777385821489396,nan
1740789333.417563,-0.13715381045338396,0.3892249078557911,-0.30783684970903563,-0.26051248952971906,nan
1740789333.4214687,-0.14090602137776334,0.37268380768228293,-0.3148174121489874,-0.261275375794704,nan
1740789333.4253745,-0.1434761405516554,0.35279269497558313,-0.31884679832802476,-0.25997624952111215,nan
1740789333.4292803,-0.14478556397564143,0.32962811641473155,-0.319863417310898,-0.25654879899288974,nan
1740789333.4331863,-0.1447689824170711,0.3032962934879684,-0.31783457673054555,-0.2509476350064008,nan
