timestamps,TP9,AF7,AF8,TP10,Right AUX
1740374172.9865613,0.08757517732477453,-0.019817515041663025,-0.48130886089191494,0.023304169439421346,nan
1740374172.9904668,0.08958031959325156,-0.016150508284813354,-0.5055375596532792,0.01912603363800114,nan
1740374172.9943726,0.0907372243004583,-0.012134740227699477,-0.5275710742323423,0.01436308471013078,nan
1740374172.9982781,0.0909954546492235,-0.007837602976652595,-0.5471736848804716,0.009035816440557714,nan
1740374173.002184,0.09031342873036753,-0.0033292938104861436,-0.5641337872352765,0.0031708074832985525,nan
1740374173.0060894,0.08865898606374614,0.0013179284752907268,-0.5782661066526459,-0.0031994653504392075,nan
1740374173.0099952,0.08600986129740057,0.006030510036220871,-0.5894136472065136,-0.010036871502247677,nan
1740374173.0139008,0.08235405972620027,0.010734383784125731,-0.5974493556763147,-0.017297926604253357,nan
1740374173.0178065,0.07769013027990579,0.015355758900655311,-0.6022774837088455,-0.024934145237698983,nan
1740374173.021712,0.0720273326634635,0.01982191034737839,-0.6038346343736429,-0.032892443294928554,nan
1740374173.0256178,0.0653856963992844,0.0240619606504864,-0.6020904824985661,-0.04111558624755462,nan
1740374173.0295234,0.05779597061133473,0.028007646300826042,-0.5970481614435353,-0.049542679179582216,nan
1740374173.0334313,0.04929946449331428,0.0315940612445033,-0.5887443123126544,-0.05810969403994614,nan
1740374173.0373368,0.03994777950669487,0.034760370144571694,-0.5772487949848765,-0.06675002920849164,nan
1740374173.0412426,0.029802435448195278,0.03745048436828052,-0.5626640637274379,-0.07539509615610418,nan
1740374173.0451481,0.018934393599043572,0.039613693994509064,-0.5451242135108292,-0.08397492771668523,nan
1740374173.049054,0.007423481209780323,0.041205249539040166,-0.5247937064356953,-0.09241880227829094,nan
1740374173.0529594,-0.004642277426321418,0.0421868875575922,-0.5018657908782721,-0.10065587804520942,nan
1740374173.0568652,-0.017167417110698007,0.042527294803695805,-0.4765606290299923,-0.10861583142333092,nan
1740374173.0607708,-0.03004986800116242,0.04220250618567331,-0.44912315141835846,-0.1162294935389069,nan
1740374173.0646765,-0.0431818640952665,0.041196232379112754,-0.41982065972139687,-0.1234294789160318,nan
1740374173.068582,-0.056450915295177276,0.03950011360245141,-0.3889402016998946,-0.1301508004107382,nan
1740374173.0724878,-0.06974083376178167,0.03711389674776088,-0.3567857443455777,-0.13633146462865514,nan
1740374173.0763934,-0.08293280470573614,0.03404553377017852,-0.3236751733568388,-0.14191304223763118,nan
1740374173.080301,-0.09590649130065548,0.030311199971161232,-0.28993714878690857,-0.1468412078244824,nan
1740374173.0842066,-0.10854116304326805,0.025935231556096807,-0.2559078481453328,-0.1510662442340308,nan
1740374173.0881124,-0.12071683663059303,0.020949982599026012,-0.22192762935831226,-0.15454350666573474,nan
1740374173.092018,-0.13231541827757232,0.015395602299411122,-0.1883376467958476,-0.1572338421854857,nan
1740374173.0959237,-0.1432218363614065,0.00931973416106121,-0.15547645404589897,-0.15910396073345953,nan
1740374173.0998292,-0.15332515335153338,0.0027771394549296236,-0.1236766272535534,-0.16012675416955027,nan
1740374173.103735,-0.1625196461658364,-0.004170751961454319,-0.09326144264507759,-0.16028156039095254,nan
1740374173.1076405,-0.1707058443825638,-0.011456359710847634,-0.06454164132501963,-0.15955437007754725,nan
1740374173.1115463,-0.17779151613045963,-0.019006535441191533,-0.03781231357461739,-0.15793797416440494,nan
1740374173.1154518,-0.1836925919730219,-0.026743204828193614,-0.013349933700140317,-0.1554320507019973,nan
1740374173.1193576,-0.1883340176914723,-0.03458406344757081,0.008590425007424579,-0.15204319033797692,nan
1740374173.1232631,-0.19165052754921233,-0.04244332041112508,0.02777766742020721,-0.1477848602341712,nan
1740374173.1271734,-0.19358733038135015,-0.050232483197395386,0.04400702010306794,-0.1426773068130692,nan
1740374173.131079,-0.19410070168893095,-0.057861176702777205,0.05710211780938441,-0.13674739830408783,nan
1740374173.1349847,-0.19315847582024254,-0.06523798919661461,0.06691681206937856,-0.13002840862549958,nan
1740374173.1388903,-0.19074043328230306,-0.07227133758660123,0.07333668374584973,-0.12255974468790075,nan
1740374173.142796,-0.18683857923462452,-0.07887034419180249,0.07628024436003608,-0.11438661973400083,nan
1740374173.1467016,-0.18145731026477327,-0.0849457170812948,0.0756998140684914,-0.10555967583233343,nan
1740374173.1506073,-0.17461346762068095,-0.09041062596832296,0.07158206736985048,-0.09613455911443582,nan
1740374173.154513,-0.16633627616748953,-0.09518156565354757,0.0639482409065726,-0.08617145178149417,nan
1740374173.1584187,-0.1566671694362645,-0.09917919908639208,0.05285400106862277,-0.07573456530340675,nan
1740374173.1623242,-0.14565950222720445,-0.10232917226012926,0.03838897247058849,-0.06489159958673987,nan
1740374173.1662297,-0.13337815331046587,-0.1045628933728608,0.02067593172770759,-0.05371317319493739,nan
1740374173.1701355,-0.11989902182257929,-0.10581826897099947,-0.00013032573353549974,-0.042272229961438576,nan
1740374173.174045,-0.10530842197556127,-0.10604039014190546,-0.023844434860732806,-0.030643427541695637,nan
1740374173.1779509,-0.08970238166906831,-0.10518216223475199,-0.05025221206179148,-0.01890251360155121,nan
1740374173.1818564,-0.07318585151397455,-0.10320487205991148,-0.07911269111077268,-0.007125695435752101,nan
1740374173.1857622,-0.05587183162948755,-0.10007868704313039,-0.11016042397427386,0.004610991149394897,nan
1740374173.1896677,-0.03788042435728033,-0.09578308138664009,-0.14310802403800882,0.01623230787116376,nan
1740374173.1935735,-0.019337821737295913,-0.09030718491041095,-0.17764892681413558,0.027664429177376278,nan
1740374173.197479,-0.00037523720441402564,-0.08365005090716311,-0.2134603410567269,0.03883554100627041,nan
1740374173.2013848,0.018872208513087144,-0.0758208400391017,-0.25020636132660695,0.049676417661413376,nan
1740374173.2052903,0.038266636888099365,-0.06683891802618386,-0.2875412114463836,0.06012097159654498,nan
1740374173.209196,0.05766858575458973,-0.05673386561909737,-0.32511258698736734,0.07010677118766474,nan
1740374173.2131016,0.07693819718706738,-0.045545400108178404,-0.3625650639452713,0.07957552189854682,nan
1740374173.2170074,0.09593640804239638,-0.03332320838594162,-0.3995435401004627,0.088473506618197,nan
1740374173.2209167,0.11452613210253816,-0.020126692348719857,-0.43569667522794164,0.0967519813604262,nan
1740374173.2248223,0.13257342285995205,-0.006024628185747171,-0.4706802963249722,0.10436752296299816,nan
1740374173.2287278,0.14994860619633799,0.008905258145102787,-0.5041607343607927,0.11128232590176838,nan
1740374173.2326336,0.16652737251816682,0.02457679622299068,-0.5358180597192508,0.11746444583959335,nan
1740374173.2365391,0.18219181832546383,0.04089595351136317,-0.5653491844953774,0.12288798805506027,nan
1740374173.240445,0.19683142769949302,0.05776149032977074,-0.5924708011108035,0.12753323943744754,nan
1740374173.2443504,0.21034398479498728,0.07506568239276384,-0.6169221283176946,0.1313867432861438,nan
1740374173.2482562,0.22263640910729252,0.09269510526018973,-0.6384674375508738,0.13444131670965337,nan
1740374173.2521617,0.23362550604738616,0.110531474492225,-0.6568983347441073,0.13669601097591888,nan
1740374173.2560675,0.24323862619034328,0.12845253480385005,-0.6720357751282212,0.13815601571621725,nan
1740374173.259973,0.2514142274572728,0.1463329910709911,-0.683731791151827,0.13883250842427713,nan
1740374173.2638788,0.2581023354379287,0.16404547365848665,-0.6918709164843938,0.13874245121492595,nan
1740374173.2677877,0.2632648980517331,0.18146153022126849,-0.6963712920482485,0.13790833730752197,nan
1740374173.2716935,0.26687603176898433,0.1984526358776634,-0.6971854431515572,0.13635789017380653,nan
1740374173.275599,0.26892215766129485,0.21489121346947798,-0.6943007200275637,0.1341237187327999,nan
1740374173.2795048,0.2694020266105696,0.23065165550921699,-0.6877393973946271,0.13124293238291937,nan
1740374173.2834103,0.26832663406853013,0.24561133937120508,-0.6775584320042055,0.1277567200294316,nan
1740374173.287316,0.265719025813414,0.25965162731107705,-0.66384888050704,0.12370989759025929,nan
1740374173.2912216,0.26161399718682954,0.2726588429965293,-0.6467349833081893,0.11915042874189757,nan
1740374173.2951274,0.25605768930140527,0.2845252164008079,-0.6263729233664612,0.11412892389705605,nan
1740374173.299033,0.24910708667927725,0.29514978914743406,-0.6029492720908772,0.10869812258455509,nan
1740374173.3029387,0.24082942170295063,0.3044392726982226,-0.5766791375645569,0.10291236452827755,nan
1740374173.3068442,0.23130149212482554,0.3123088521440854,-0.5478040332547133,0.09682705479443651,nan
1740374173.31075,0.2206088986813502,0.31868292878626586,-0.5165894881173083,0.09049812839464311,nan
1740374173.3146584,0.20884521058460653,0.32349579518088134,-0.4833224215495129,0.08398151969602928,nan
1740374173.3185642,0.19611106731131117,0.3266922368578349,-0.44830830895721285,0.07733264189962095,nan
1740374173.3224697,0.1825132256705383,0.328228055511701,-0.41186816576583246,0.07060588170532855,nan
1740374173.3263755,0.16816356160174345,0.3280705090921781,-0.3743353794903253,0.06385411408776809,nan
1740374173.330281,0.15317803652956752,0.326198664889712,-0.33605242097681043,0.05712824186395588,nan
1740374173.3341868,0.1376756383780421,0.322603662412477,-0.29736746711925033,0.050476764444069934,nan
1740374173.3380923,0.12177730752191777,0.31728888357794693,-0.25863096822809173,0.04394537982320974,nan
1740374173.341998,0.1056048580254639,0.3102700284899523,-0.22019219377537458,0.03757662349872757,nan
1740374173.3459036,0.08927990448903622,0.301575095833925,-0.18239579045697843,0.031409547588257945,nan
1740374173.3498094,0.07292280469160811,0.2912442676928386,-0.14557838639539714,0.02547944298217663,nan
1740374173.353715,0.056651627985126775,0.279329699357627,-0.11006527485682137,0.019817606895540574,nan
1740374173.3576207,0.04058115906668746,0.26589521547228395,-0.07616721007877633,0.014451157693341177,nan
1740374173.3615289,0.024821946330831436,0.25101591460913214,-0.044177346706741547,0.009402898354270835,nan
1740374173.3654344,0.009479403491468119,0.23477768510755945,-0.014368352930952205,0.004691229417376536,nan
1740374173.3693402,-0.005347027433586646,0.21727663572404332,0.013010274288417308,0.0003301117282652001,nan
1740374173.3732457,-0.019564644356152502,0.19861844532638692,0.03773466550127362,-0.0036709212275304747,nan
1740374173.3771515,-0.03308817789398247,0.17891763651559417,0.05960878238773916,-0.007306702141563064,nan
1740374173.381057,-0.045840402820699816,0.15829677866905728,0.07846634703201838,-0.010576321102995839,nan
1740374173.3849628,-0.05775266318055505,0.13688562646422003,0.09417247785538559,-0.013482970976790822,nan
1740374173.3888683,-0.06876530696442104,0.11482020045774997,0.10662501609208007,-0.016033749174768068,nan
1740374173.392774,-0.07882802718443317,0.09224181675774541,0.11575552972862713,-0.018239418511039347,nan
1740374173.3966796,-0.08790010715161568,0.06929607323170753,0.12152998499235096,-0.02011413026008061,nan
1740374173.4005854,-0.09595056874389743,0.04613180003804159,0.12394907873744623,-0.021675112928565235,nan
1740374173.404491,-0.10295822344095168,0.022899982550892806,0.12304822840501359,-0.02294233060698829,nan
1740374173.4083989,-0.10891162688731419,-0.0002473350347695991,0.11889721959404229,-0.023938115080350153,nan
1740374173.4123046,-0.11380893871613196,-0.0231581569804426,0.11159951464065933,-0.024686776145584167,nan
1740374173.4162102,-0.1176576903128995,-0.045681645643350165,0.10129122892981227,-0.025214194804085713,nan
1740374173.420116,-0.12047446411203773,-0.06766922494240239,0.08813978492443844,-0.025547404168456342,nan
1740374173.4240215,-0.12228448889000759,-0.08897566916842121,0.07234225705989708,-0.025714163041539104,nan
1740374173.4279273,-0.1231211563379656,-0.10946016877643701,0.05412342368504969,-0.025742527191704556,nan
1740374173.4318328,-0.12302546495682085,-0.1289873649839499,0.033733545105994876,-0.02566042336053369,nan
1740374173.4357386,-0.1220453980100291,-0.14742834524953605,0.011445889475914859,-0.02549523099719636,nan
1740374173.439644,-0.12023524288809237,-0.1646615920185525,-0.012445969251681541,-0.025273376618478133,nan
1740374173.4435499,-0.11765485977711924,-0.1805738774944412,-0.03763105485306239,-0.02501994554536513,nan
1740374173.4474554,-0.11436890797695613,-0.19506109762184023,-0.06378406541837213,-0.024758315567903047,nan
1740374173.451361,-0.11044603857781313,-0.20802903894788133,-0.09056859286350423,-0.02450981684165702,nan
1740374173.4552684,-0.10595806247469687,-0.2193940725565386,-0.11764045384258198,-0.024293422024056745,nan
1740374173.4591742,-0.10097910287373225,-0.22908376984333492,-0.14465109944259097,-0.02412547032014908,nan
1740374173.4630797,-0.09558474152237818,-0.23703743550933762,-0.1712510702707669,-0.02401942872834925,nan
1740374173.4669855,-0.0898511678758993,-0.2432065537991567,-0.19709346310234035,-0.023985693361401775,nan
1740374173.470891,-0.08385434029607591,-0.24755514468233591,-0.22183737514546392,-0.02403143327039729,nan
1740374173.4747968,-0.07766916816635083,-0.25006002737558813,-0.24515129220268608,-0.024160478724697294,nan
1740374173.4787023,-0.0713687235031686,-0.25071098931921637,-0.2667163875619723,-0.024373255403130428,nan
1740374173.482608,-0.06502349024950628,-0.24951085944893645,-0.2862296993295378,-0.02466676543682072,nan
1740374173.4865136,-0.05870065895804757,-0.24647548533852323,-0.30340715511293326,-0.025034615716890026,nan
1740374173.4904194,-0.052463474013396266,-0.24163361452330553,-0.31798641446420445,-0.025467093346600297,nan
1740374173.494325,-0.04637063991123283,-0.23502668104385077,-0.32972950128464307,-0.0259512875826874,nan
1740374173.4982307,-0.04047579241432983,-0.22670849896751222,-0.33842520045707464,-0.02647125708046723,nan
1740374173.5021408,-0.03482703964837115,-0.2167448653472571,-0.34389119528840034,-0.027008240737279844,nan
1740374173.5060463,-0.02946657739273838,-0.20521307575702274,-0.3459759248914766,-0.02754090992440584,nan
1740374173.509952,-0.024430381971542677,-0.19220135619556236,-0.34456014338618113,-0.02804565941430711,nan
1740374173.5138576,-0.019747983267266095,-0.17780821577137923,-0.3395581657277505,-0.028496933852909506,nan
1740374173.5177634,-0.01544231947294259,-0.16214172516537328,-0.33091878804714936,-0.028867586200658032,nan
1740374173.521669,-0.011529674278490335,-0.14531872641080998,-0.3186258735832192,-0.029129264175948275,nan
1740374173.5255747,-0.008019696262473987,-0.12746398002830805,-0.30269859856806597,-0.029252820384433265,nan
1740374173.5294802,-0.004915499342083489,-0.10870925600310949,-0.2831913557633166,-0.029208741511644175,nan
1740374173.533386,-0.0022138422312753285,-0.0891923754897912,-0.26019331670261786,-0.028967591697790437,nan
1740374173.5372915,9.461602056099147e-05,-0.06905621047308348,-0.2338276570420242,-0.028500465005502656,nan
1740374173.5411973,0.0020249881799776783,-0.04844764890027217,-0.2042504527217069,-0.027779441736208877,nan
1740374173.5451028,0.00359776324067579,-0.027516533028961968,-0.17164925786725718,-0.02677804325076547,nan
1740374173.5490124,0.004838348411500434,-0.006414578902415867,-0.13624137847491874,-0.025471679906302662,nan
1740374173.5529182,0.005776554684992888,0.014705715027603445,-0.09827185890172628,-0.023838086734912254,nan
1740374173.5568237,0.006446032609640598,0.03569216206403423,-0.058011200989393774,-0.021857741561044433,nan
1740374173.5607295,0.0068836654341232146,0.05639397616177479,-0.01575283826219924,-0.019514260383018456,nan
1740374173.564635,0.007128927256845514,0.07666284758206778,0.028189609971579564,-0.016794765029006804,nan
1740374173.5685408,0.007223214194052757,0.09635399746156668,0.0734852776415719,-0.013690218337732638,nan
1740374173.5724463,0.0072091568704569,0.11532720364622097,0.11978915521066785,-0.010195722406960678,nan
1740374173.5763521,0.007129922734582896,0.13344779038880789,0.1667453268024477,-0.006310775795954587,nan
1740374173.5802577,0.00702851680457665,0.15058757481150917,0.2139903094287572,-0.002039485958496367,nan
1740374173.5841634,0.006947089457949319,0.16662576338858676,0.2611564616086732,0.002609266383050222,nan
1740374173.588069,0.006926259790244312,0.18144979210603185,0.30787542801637335,0.007621713738614574,nan
1740374173.5919747,0.0070044628840064,0.1949561044014737,0.35378158647155716,0.012979141533789998,nan
1740374173.595884,0.00721732905218314,0.20705086147510968,0.39851546359479195,0.018657882744649756,nan
1740374173.5997896,0.007597102752396152,0.21765058008680466,0.4417270857917276,0.024629368689559315,nan
1740374173.6036954,0.008172108413842718,0.2266826935117554,0.48307923290080323,0.03086023660080109,nan
1740374173.607601,0.008966269881880906,0.23408603191260707,0.5222505628324017,0.037312494002546756,nan
1740374173.6115067,0.009998689572139093,0.23981121899525157,0.5589385768333514,0.04394373931787498,nan
1740374173.6154122,0.011283292742710947,0.24382098244380354,0.5928623966163454,0.05070743752221112,nan
1740374173.619318,0.0128285415468887,0.24609037627277924,0.6237653264833422,0.05755324905986467,nan
1740374173.6232235,0.014637222727842675,0.24660691388632486,0.6514171757263755,0.06442740965050839,nan
1740374173.6271293,0.01670631196920435,0.24537061129052426,0.6756163189874155,0.07127315803949273,nan
1740374173.6310349,0.019026917030638378,0.24239394056067748,0.6961914748767039,0.07803120819582632,nan
1740374173.6349406,0.02158430088478065,0.23770169431582416,0.7130031859608723,0.08464026194035487,nan
1740374173.6388462,0.024357985141064697,0.2313307625933319,0.7259449862097672,0.09103755749956285,nan
1740374173.6427553,0.027321933103096645,0.223329824142148,0.7349442451049967,0.09715944903292374,nan
1740374173.6466608,0.030444810869491273,0.21375895476013107,0.7399626808327141,0.10294201177870865,nan
1740374173.6505666,0.03369032396371467,0.20268915588425054,0.7409965382760644,0.10832166710911764,nan
1740374173.654472,0.037017626076511226,0.1902018071985396,0.7380764308564155,0.11323582148471328,nan
1740374173.658378,0.04038179563499558,0.17638804754956677,0.7312668486137095,0.11762351305392235,nan
1740374173.6622834,0.04373437508500362,0.1613480889493497,0.7206653382318616,0.12142605945893807,nan
1740374173.666189,0.04702396699708305,0.14519046889797116,0.706401363972069,0.1245877002872127,nan
1740374173.6700947,0.05019688039042824,0.12803124666950327,0.6886348616427341,0.12705622754979617,nan
1740374173.6740003,0.05319782002109962,0.1099931495729196,0.6675545007779755,0.12878359757532928,nan
1740374173.677906,0.05597061080876524,0.09120467552194411,0.6433756730869679,0.12972651778224734,nan
1740374173.6818116,0.05845894908643524,0.07179915852255428,0.6163382279448902,0.12984700193170076,nan
1740374173.6857173,0.06060717195640438,0.051913803912528596,0.5867039781959595,0.12911288766922646,nan
1740374173.689626,0.06236103572765486,0.031688700362825464,0.5547540018049225,0.12749831043302876,nan
1740374173.6935315,0.06366849419954651,0.011265815774951178,0.5207857669028313,0.12498412813902503,nan
1740374173.6974373,0.06448046744667174,-0.009212015718571373,0.48511010950577027,0.12155829144484151,nan
1740374173.7013428,0.06475159175234424,-0.029602108422095413,0.44804809462406103,0.11721615484383544,nan
1740374173.7052486,0.06444094143432878,-0.04976293421431448,0.4099277926099024,0.11196072434199865,nan
1740374173.7091541,0.0635127135057876,-0.06955511903666703,0.37108100340191036,0.10580283802107669,nan
1740374173.71306,0.06193686641607548,-0.08884241974377331,0.33183996180747805,0.09876127638571142,nan
1740374173.7169654,0.05968970451738005,-0.1074926745047718,0.2925340571132703,0.09086280002541751,nan
1740374173.7208712,0.05675440040103404,-0.1253787201685856,0.25348660012874746,0.08214211278820696,nan
1740374173.7247767,0.053121447837225645,-0.14237927027483907,0.21501167024931253,0.07264174935553415,nan
1740374173.7286825,0.04878903872830247,-0.15837974770296134,0.17741107427921501,0.062411886821605464,nan
1740374173.732588,0.04376335824254174,-0.17327306630245368,0.14097144758822608,0.05151008060722481,nan
1740374173.7364962,0.03805879312494769,-0.1869603562346964,0.10596152670175157,0.04000092577255251,nan
1740374173.740402,0.0316980490761411,-0.19935162817788182,0.07262962065600845,0.027955645527295025,nan
1740374173.7443075,0.024712174040922574,-0.21036637199860295,0.04120130640576961,0.015451609463961485,nan
1740374173.7482133,0.017140485245148232,-0.21993408597291578,0.011877371272267742,0.0025717847528226997,nan
1740374173.7521188,0.009030398852956367,-0.22799473314282973,-0.015167977113998452,-0.010595875770890889,nan
1740374173.7560246,0.00043716217570242407,-0.23449912191749767,-0.03978861566127321,-0.02395910403306052,nan
1740374173.7599301,-0.008576510561818072,-0.2394092085682583,-0.06186771066180137,-0.03742204043620444,nan
1740374173.763836,-0.017940896814322274,-0.2426983198192251,-0.08131861091260965,-0.05088600505234373,nan
1740374173.7677414,-0.027579815514247853,-0.2443512942966128,-0.0980854205821477,-0.06425030993984562,nan
1740374173.7716472,-0.037411263869868185,-0.24436454216648065,-0.11214324657352995,-0.0774131057424699,nan
1740374173.7755527,-0.04734813593677904,-0.24274602285836103,-0.12349811847082245,-0.09027225529837721,nan
1740374173.7794585,-0.05729901675634181,-0.23951514133739019,-0.13218658251232349,-0.10272622661921847,nan
1740374173.7833662,-0.06716904492688272,-0.23470256394647787,-0.1382749743802174,-0.11467499729870295,nan
1740374173.787272,-0.07686083560807,-0.22834995538893826,-0.14185837889560987,-0.1260209621799142,nan
1740374173.7911775,-0.08627545516577655,-0.22050963895744044,-0.1430592879283886,-0.1366698359540767,nan
1740374173.7950833,-0.09531343795294002,-0.2112441826336159,-0.14202597093996316,-0.14653154228274262,nan
1740374173.7989888,-0.1038758351000766,-0.20062591418090156,-0.13893057554212712,-0.15552108103221843,nan
1740374173.8028946,-0.11186528466455102,-0.1887363688281227,-0.13396697824692497,-0.16355936528425802,nan
1740374173.8068001,-0.11918709206729008,-0.17566567358998075,-0.12734840817182927,-0.1705740199408895,nan
1740374173.810706,-0.125750309435033,-0.16151187269019107,-0.11930486882538671,-0.17650013397323433,nan
1740374173.8146114,-0.13146880226996227,-0.14638019894108892,-0.11008038520624412,-0.18128095867289998,nan
1740374173.8185172,-0.13626229179027888,-0.13038229628769205,-0.09993010528145864,-0.18486854464814087,nan
1740374173.8224227,-0.14005736132729907,-0.1136353990424113,-0.08911728644901748,-0.18722431076267376,nan
1740374173.8263285,-0.14278841532804376,-0.09626147361701227,-0.07791019881832349,-0.1883195387394342,nan
1740374173.830236,-0.14439857979713533,-0.07838632879943662,-0.06657897804795963,-0.18813578774059816,nan
1740374173.8341415,-0.1448405334167081,-0.06013870082333852,-0.0553924610523214,-0.18666522388415813,nan
1740374173.8380473,-0.1440772591055058,-0.04164931963667712,-0.04461503812114892,-0.1839108603608617,nan
1740374173.8419528,-0.14208270641462367,-0.023049962891483724,-0.03450355488537844,-0.17988670456764413,nan
1740374173.8458586,-0.13884235590259514,-0.0044725042495667375,-0.02530429710924511,-0.17461780946834812,nan
1740374173.849764,-0.1343536774805201,0.013952037371923577,-0.017250090495938137,-0.16814022722272282,nan
1740374173.85367,-0.1286264756616436,0.03209444100552601,-0.010557546569387698,-0.16050086398326863,nan
1740374173.8575754,-0.12168311568085431,0.049828212737137355,-0.00542448424836598,-0.1517572356388655,nan
1740374173.8614812,-0.11355862555890996,0.06703049425677116,-0.002027554974777615,-0.14197712517648312,nan
1740374173.8653867,-0.1043006703636249,0.08358294454730135,-0.00052009721260317,-0.13123814322971442,nan
1740374173.8692925,-0.09396939615494986,0.09937258858553083,-0.0010302438172349378,-0.11962719427718396,nan
1740374173.873198,-0.08263714238116561,0.11429262715326857,-0.003659303209584476,-0.1072398518369999,nan
1740374173.8771083,-0.07038802280725753,0.12824320211775106,-0.008480432500462598,-0.09417964686720302,nan
1740374173.8810139,-0.057317376391106664,0.14113211183916458,-0.015537617725880666,-0.08055727441856003,nan
1740374173.8849196,-0.04353109086552495,0.15287547169619037,-0.024844973202650663,-0.06648972438726762,nan
1740374173.8888252,-0.029144803121117738,0.16339831508651312,-0.03638636872736107,-0.052099342973553946,nan
1740374173.892731,-0.0142829818030266,0.17263513065565173,-0.05011538995326355,-0.03751283216054907,nan
1740374173.8966365,0.0009221011794268423,0.18053033193198398,-0.06595563382275811,-0.022860195179214844,nan
1740374173.9005423,0.016331502290561774,0.18703865599583216,-0.08380133744294233,-0.008273636513225512,nan
1740374173.9044478,0.031800832031625426,0.1921254882831382,-0.10351833530314165,0.006113574483497425,nan
1740374173.9083536,0.04718156439587441,0.1957671111168531,-0.12494533628201993,0.020168266839673786,nan
1740374173.912259,0.06232241885275357,0.19795087406854933,-0.14789550851282335,0.03375854820813587,nan
1740374173.9161646,0.0770708026633931,0.1986752847760197,-0.17215835690317374,0.04675499193244397,nan
1740374173.9200704,0.09127430049896967,0.19795001937644316,-0.19750187497414604,0.059031820580341565,nan
1740374173.92398,0.10478219761685342,0.19579585225591736,-0.22367494972462773,0.07046807548002067,nan
1740374173.9278858,0.11744702225545971,0.19224450536149892,-0.2504099954718938,0.08094876178056166,nan
1740374173.9317913,0.12912609244491088,0.18733841786796673,-0.27742579009672563,0.09036595863529708,nan
1740374173.935697,0.1396830521033574,0.18113043753504587,-0.30443048485814345,0.09861988427646369,nan
1740374173.9396026,0.14898938110315194,0.1736834356284734,-0.3311247569628963,0.10561990601072169,nan
1740374173.9435084,0.15692586395094,0.16506984780663658,-0.35720507239986815,0.11128548551646959,nan
1740374173.947414,0.16338400183346852,0.1553711438903706,-0.38236702519795374,0.11554705026312279,nan
1740374173.9513197,0.16826735303765208,0.14467722993358154,-0.406308718253244,0.11834678239656021,nan
1740374173.9552252,0.17149278715878666,0.13308578649347894,-0.42873415020938854,0.1196393170400274,nan
1740374173.959131,0.17299163906299428,0.12070154745825483,-0.44935657257259076,0.119392342641227,nan
1740374173.9630365,0.17271074926574986,0.1076355242240991,-0.46790178130478594,0.11758709674897404,nan
1740374173.9669423,0.17061337822313824,0.09400418041954545,-0.4841113075666301,0.11421875142056634,nan
1740374173.9708517,0.16667998300025602,0.07992856275058728,-0.4977454730737412,0.10929668333751577,nan
1740374173.9747574,0.16090884587450976,0.06553339388219981,-0.5085862766794311,0.10284462463519595,nan
1740374173.978663,0.15331654564197428,0.0509461335784419,-0.5164400802953776,0.09490069142383273,nan
1740374173.9825687,0.1439382637124642,0.03629601459184112,-0.5211400640953828,0.08551728798594138,nan
1740374173.9864743,0.13282791849267528,0.02171306002138921,-0.5225484231001489,0.0747608856703809,nan
1740374173.99038,0.12005812305457585,0.00732708904518934,-0.5205582796931809,0.06271167655695416,nan
1740374173.9942856,0.1057199626552495,-0.006733281922900712,-0.5150952893467207,0.04946310302898439,nan
1740374173.998191,0.08992259030083731,-0.020341635504896812,-0.5061189198164032,0.0351212654554407,nan
1740374174.002097,0.07279264021658388,-0.033374739858455085,-0.4936233872657215,0.019804211239861338,nan
1740374174.0060024,0.05447346078223873,-0.045713518199123074,-0.4776382361758402,0.0036411095313469404,nan
1740374174.0099082,0.035124170201662266,-0.057243994181477124,-0.4582285534498577,-0.013228683095697686,nan
1740374174.0138137,0.014918539881728322,-0.0678582060654866,-0.435494810798838,-0.030656659710488074,nan
1740374174.0177228,-0.005956287817555608,-0.07745508273229558,-0.40957233326380504,-0.04848629562908786,nan
1740374174.0216284,-0.027301239148192356,-0.08594127479927438,-0.3806303955461998,-0.06655426845812568,nan
1740374174.0255342,-0.04890689594058221,-0.09323193431707205,-0.34887095165130894,-0.08469175666594188,nan
1740374174.0294397,-0.07055521852322737,-0.099251436810705,-0.31452700715654647,-0.10272580701651511,nan
1740374174.0333455,-0.09202139169551833,-0.10393403975141977,-0.2778606471610538,-0.12048076052426625,nan
1740374174.037251,-0.11307577949720216,-0.10722447191465062,-0.23916073661696044,-0.13777972599136673,nan
1740374174.0411568,-0.13348597327173653,-0.10907844849032865,-0.19874031324871358,-0.15444608967881393,nan
1740374174.0450623,-0.1530189163971025,-0.10946310726296547,-0.15693369659917777,-0.17030504924336756,nan
1740374174.048968,-0.1714430880685798,-0.10835736166814172,-0.11409333986515602,-0.18518515974839936,nan
1740374174.0528736,-0.18853072767427861,-0.10575216705671242,-0.07058645406796168,-0.19891987933119007,nan
1740374174.0567794,-0.20406008061542488,-0.10165069705541462,-0.02679143671602508,-0.21134910198464163,nan
1740374174.060685,-0.21781764589773833,-0.09606842749946949,0.016905860571665658,-0.22232066488941296,nan
1740374174.0645936,-0.22960040546456092,-0.08903312602599806,0.06011598902570069,-0.2316918178138668,nan
1740374174.0684993,-0.23921801506196552,-0.08058474605296134,0.10244984617477929,-0.2393306422838344,nan
1740374174.0724049,-0.24649493642478462,-0.07077522452320115,0.14352266641414074,-0.2451174085110427,nan
1740374174.0763106,-0.2512724907524415,-0.059668183462946486,0.18295801843397771,-0.24894585845624942,nan
1740374174.0802162,-0.2534108138052683,-0.0473385360847977,0.22039176875025313,-0.2507244038879491,nan
1740374174.084122,-0.2527906934945304,-0.03387199885233416,0.2554759704846582,-0.2503772288763927,nan
1740374174.0880275,-0.2493152715599322,-0.019364511612692245,0.2878826368510062,-0.24784528683121818,nan
1740374174.0919333,-0.24291159182251695,-0.00392156859020917,0.3173073595224794,-0.24308718294407175,nan
1740374174.0958388,-0.2335319785626432,0.012342536286134553,0.34347273317423926,-0.23607993372932626,nan
1740374174.0997446,-0.2211552297945043,0.0293055455808908,0.3661315490112945,-0.22681959625983059,nan
1740374174.10365,-0.20578761158131098,0.04683815128396657,0.38506972199081385,-0.21532176066332614,nan
1740374174.1075559,-0.18746364104833146,0.0648049790539508,0.4001089187156956,-0.20162190047106177,nan
1740374174.111464,-0.1662466473924264,0.08306563774643452,0.4111088555934174,-0.18577557648489595,nan
1740374174.1153696,-0.14222910194339916,0.10147582762691268,0.4179692397980699,-0.16785849094418848,nan
1740374174.1192753,-0.11553271019006034,0.11988850012885646,0.420631328818308,-0.14796638991997882,nan
1740374174.1231809,-0.08630826062690312,0.1381550615178337,0.4190790878905379,-0.12621481303200274,nan
1740374174.1270866,-0.05473522728951256,0.15612661236631561,0.4133399283730928,-0.10273869076460843,nan
1740374174.1309922,-0.021021124911100586,0.1736552143350142,0.40348501407895765,-0.07769179084076977,nan
1740374174.134898,0.014599382268764642,0.19059517539901125,0.3896291267149358,-0.051246016289737906,nan
1740374174.1388035,0.05186561489722012,0.20680434435409972,0.3719300858354175,-0.023590559003631512,nan
1740374174.1427093,0.09049225084428046,0.22214540519375608,0.3505877230688158,0.005069086287974734,nan
1740374174.1466148,0.13017092813152825,0.23648716176303908,0.3258424147728482,0.034512241597877844,nan
1740374174.1505206,0.17057206905029226,0.24970580297478565,0.2979731816790003,0.06450429173370076,nan
1740374174.154426,0.2113469140715647,0.26168613881811537,0.2672953684540255,0.09479804873976502,nan
1740374174.158337,0.2521297522310166,0.272322797401038,0.23415792039469635,0.12513522570486493,nan
1740374174.1622427,0.2925403328468862,0.28152137334926536,0.19894027863902525,0.1552480100407816,nan
1740374174.1661484,0.33218644171298706,0.2891995180330627,0.16204891928143825,0.18486072554053062,nan
1740374174.170054,0.37066662331968203,0.295287962313535,0.123913565580916,0.2136915718117566,nan
1740374174.1739597,0.40757302920723676,0.2997314627889984,0.0849831060112659,0.24145442905509762,nan
1740374174.1778653,0.44249437126248964,0.30248966288065676,0.04572125418515708,0.2678607156248112,nan
1740374174.181771,0.47501895764371654,0.30353786052340287,0.006601989654069395,0.29262128537371046,nan
1740374174.1856766,0.5047377880711671,0.302867674720938,-0.031895178786490376,0.31544835144995437,nan
1740374174.1895823,0.5312476844617474,0.3004876037822139,-0.06929008340157335,0.33605742298204505,nan
1740374174.193488,0.5541544323237587,0.29642346867614155,-0.10510685568752874,0.35416924096227553,nan
1740374174.1973937,0.5730759079679774,0.29071873562039724,-0.13887892522474007,0.36951169961867203,nan
1740374174.2012992,0.5876451664393704,0.2834347127545355,-0.17015401102369138,0.3818217396511832,nan
1740374174.2052097,0.5975134651322417,0.27465061653346334,-0.1984990566208524,0.3908471998985805,nan
1740374174.2091153,0.6023531983218054,0.26446350431023624,-0.22350506008521293,0.39634861429650486,nan
1740374174.213021,0.601860718326159,0.25298807045217864,-0.24479175046512305,0.3981009413816764,nan
1740374174.2169266,0.5957590197019248,0.24035630424629184,-0.26201206303933483,0.39589521408907724,nan
1740374174.2208323,0.5838002637698569,0.22671700879306964,-0.27485636703220173,0.3895400981736542,nan
1740374174.224738,0.5657681218573192,0.2122351810562423,-0.28305640120317693,0.37886334826083323,nan
1740374174.2286437,0.5414799169246018,0.19709125422328114,-0.28638887491267107,0.3637131512851295,nan
1740374174.2325492,0.5107885447019295,0.18148020453112498,-0.2846786948835953,0.34395934790711785,nan
1740374174.236455,0.4735841570922765,0.16561052571675774,-0.2778017808999263,0.3194945233989246,nan
1740374174.2403605,0.4297955923789171,0.14970307525592993,-0.26568743708569065,0.2902349604498718,nan
1740374174.2442663,0.37939153870167946,0.1339897975483991,-0.24832024916167994,0.25612144735884945,nan
1740374174.2481718,0.3223814193165051,0.11871233018726439,-0.22574148215093462,0.21711993614012615,nan
1740374174.2520819,0.2588159903123691,0.10412050040611755,-0.19804995736259615,0.17322204616593065,nan
1740374174.2559876,0.1887876437100335,0.09047071972349814,-0.16540239208891414,0.12444541009325204,nan
1740374174.2598932,0.11243041118984756,0.0780242856924001,-0.12801319026143734,0.07083385996486911,nan
1740374174.263799,0.029919666071370813,0.06704560050623377,-0.08615367728671713,0.012457452526319994,nan
1740374174.2677045,-0.05852847642391606,0.05780031700484869,-0.040150777374481326,-0.050587666047799934,nan
1740374174.2716103,-0.1526580581745312,0.050553423358301305,0.009614863164124628,-0.11817955468239372,nan
1740374174.2755158,-0.25217447156022355,0.04556727837564325,0.06271129798111237,-0.1901709287252857,nan
1740374174.2794216,-0.35674594001271853,0.04309960998506907,0.11865823428558529,-0.2663897645084652,nan
1740374174.283327,-0.46600527613065407,0.0434014899546925,0.1769304990382314,-0.34664005252864083,nan
1740374174.2872329,-0.5795519055068483,0.046715298364761265,0.23696199384115316,-0.4307026936109659,nan
1740374174.2911384,-0.6969541422380489,0.05327269169759204,0.2981501098071689,-0.518336531453642,nan
1740374174.2950442,-0.817751700016683,0.06329258867671378,0.3598605690938183,-0.6092795140438235,nan
1740374174.2989538,-0.9414584207588301,0.076979188158018,0.42143265544422764,-0.7032499755933526,nan
1740374174.3028595,-1.0675652009196623,0.09452003345014433,0.48218479203212056,-0.7999480298726263,nan
1740374174.306765,-1.1955430940026108,0.11608413741649423,0.5414204212011634,-0.8990570651276347,nan
1740374174.3106709,-1.3248465662961286,0.14182018258549597,0.5984341373566713,-1.0002453301537446,nan
1740374174.3145764,-1.4549168815849636,0.17185481026803642,0.6525180213441208,-1.1031676005741224,nan
1740374174.318482,-1.5851855894929157,0.20629101235106784,0.7029681221643044,-1.20746691393409,nan
1740374174.3223877,-1.715078091230754,0.24520663900476308,0.7490910298557321,-1.3127763618775792,nan
1740374174.3262932,-1.8440172558544439,0.2886530350084287,0.79021048184355,-1.4187209274200525,nan
1740374174.330199,-1.971427059691155,0.33665381676967515,0.8256739440288382,-1.5249193551744789,nan
1740374174.3341045,-2.0967362213679293,0.38920380138479305,0.8548591073863567,-1.630986042323436,nan
1740374174.3380103,-2.2193818048828584,0.44626809826934477,0.8771802408616195,-1.7365329381603596,nan
1740374174.3419158,-2.338812763391315,0.5077813729808719,0.8920943419137538,-1.8411714401449393,nan
1740374174.3458254,-2.4544933968387808,0.5736472918652089,0.8991070271384765,-1.944514274629354,nan
1740374174.349731,-2.5659066972534044,0.6437381550897875,0.8977781070201202,-2.04617735071054,nan
1740374174.3536367,-2.6725575564102106,0.7178947244878121,0.8877267909928488,-2.1457815760452315,nan
1740374174.3575423,-2.7739758116874715,0.795926251433073,0.8686364716238769,-2.2429546239248586,nan
1740374174.361448,-2.869719107244814,0.8776107087040023,0.8402590398461249,-2.337332641441435,nan
1740374174.3653536,-2.9593755491514484,0.9626952289853029,0.8024186867399984,-2.428561889177954,nan
1740374174.3692594,-3.0425661347685757,1.0508967513046126,0.7550151513656271,-2.516300303521358,nan
1740374174.373165,-3.118946938528676,1.141902875319138,0.6980263785451776,-2.6002189734164927,nan
1740374174.3770704,-3.1882110382402,1.235372921962244,0.6315105552537387,-2.6800035241486015,nan
1740374174.3809762,-3.2500901681624628,1.3309391975423412,0.5556074993567379,-2.755355401552819,nan
1740374174.3848817,-3.3043560873242157,1.4282084569657854,0.47053937978916605,-2.8259930508941666,nan
1740374174.3887875,-3.3508216538814226,1.5267635603420104,0.37661075286126366,-2.8916529855332342,nan
1740374174.3926964,-3.3893415987054767,1.6261653158329044,0.27420790514874926,-2.952090741383244,nan
1740374174.3966022,-3.4198129938419277,1.7259545002395378,0.16379749933321539,-3.00708171406572,nan
1740374174.4005077,-3.4421754139608374,1.825654047488058,0.045924525348378875,-3.0564218765768105,nan
1740374174.4044135,-3.456410791412079,1.924771393892696,-0.07879043479191811,-3.0999283761767202,nan
1740374174.408319,-3.4625429679807165,2.0228009678472803,-0.20965461411095307,-3.1374400101032154,nan
1740374174.4122248,-3.460636948888093,2.119226810436892,-0.3459071194376672,-3.168817580579452,nan
1740374174.4161303,-3.4507978669823225,2.213525312377511,-0.4867236157406632,-3.193944130429521,nan
1740374174.420036,-3.433169667387197,2.305168051692398,-0.6312216043308924,-3.2127250614254033,nan
1740374174.4239416,-3.4079335251111313,2.393624715627805,-0.7784662578568883,-3.2250881382602956,nan
1740374174.4278474,-3.375306010238879,2.478366089505138,-0.9274767699174578,-3.2309833817696996,nan
1740374174.431753,-3.3355370173201115,2.558867094508788,-1.077233172344729,-3.2303828556980654,nan
1740374174.4356587,-3.288907477413968,2.6346098558251776,-1.2266835688093265,-3.223280351930356,nan
1740374174.4395673,-3.2357268729314863,2.7050867820843516,-1.37475172941003,-3.209690979670529,nan
1740374174.4434729,-3.176330576924599,2.769803636715926,-1.520344987369893,-3.1896506645492124,nan
1740374174.4473786,-3.1110770397881704,2.8282825816200354,-1.6623623759031128,-3.1632155640776722,nan
1740374174.4512842,-3.0403448474598376,2.8800651734743203,-1.7997029407713325,-3.130461406232585,nan
1740374174.45519,-2.9645296761116042,2.9247152930522664,-1.931274162039594,-3.091482758254319,nan
1740374174.4590955,-2.884041169020271,2.961821988117237,-2.056000417091305,-3.0463922329696795,nan
1740374174.463001,-2.7992997617752144,2.9910022107810783,-2.172831416083831,-2.995319640108122,nan
1740374174.4669068,-2.710733482228267,3.0119034306749777,-2.280750540732345,-2.9384110901686276,nan
1740374174.4708123,-2.6187747516102275,3.0242061058720773,-2.378783017604737,-2.8758280584140663,nan
1740374174.474718,-2.5238572130319468,3.0276259942232024,-2.466003857995118,-2.8077464165224235,nan
1740374174.4786236,-2.426412613157879,3.021916288615444,-2.541545497912726,-2.734355439312237,nan
1740374174.4825294,-2.326867762190524,3.006869560633504,-2.604605073766892,-2.6558567937857944,nan
1740374174.4864376,-2.2256415964419185,2.9823194981902823,-2.65445127193194,-2.572463517501529,nan
1740374174.4903433,-2.12314236670127,2.9481424238894833,-2.6904306935183544,-2.4843989930004895,nan
1740374174.4942489,-2.019764974346095,2.904258582181886,-2.7119736793333336,-2.3918959246752425,nan
1740374174.4981546,-1.9158884756993686,2.850633184770127,-2.718599544155341,-2.2951953240876675,nan
1740374174.5020602,-1.811873773520605,2.787277205195507,-2.7099211740396734,-2.19454550932016,nan
1740374174.505966,-1.7080615127490197,2.7142479150948082,-2.685648945377334,-2.090201123487956,nan
1740374174.5098715,-1.6047701957082363,2.6316491562351483,-2.6455939298059667,-1.9824221770544428,nan
1740374174.5137773,-1.5022945299514159,2.5396313441096408,-2.58967035477422,-1.8714731180821205,nan
1740374174.5176828,-1.4009040197916727,2.438391200594823,-2.517897295541552,-1.7576219340253,nan
1740374174.5215886,-1.3008418103441728,2.3281712149205105,-2.430399580603644,-1.6411392881326456,nan
1740374174.525494,-1.202323790623365,2.2092588339721404,-2.327407898916349,-1.5222976929842265,nan
1740374174.5293999,-1.1055379599115907,2.0819853847221617,-2.209258103794288,-1.401370723144785,nan
1740374174.5333076,-1.01064405926466,1.9467247333583235,-2.0763897149280264,-1.2786322683781912,nan
1740374174.5372133,-0.9177734676666164,1.8038916874301676,-1.9293436265400812,-1.1543558283431126,nan
1740374174.5411189,-0.8270293600106953,1.6539401490581727,-1.7687590362283576,-1.0288138491822452,nan
1740374174.5450246,-0.7384871217869569,1.4973610289303876,-1.5953696154697672,-0.902277101931897,nan
1740374174.5489302,-0.6521950131194415,1.3346799324369187,-1.4099989490214788,-0.7750141022202653,nan
1740374174.552836,-0.5681750726365092,1.1664546308513388,-1.2135552765084061,-0.6472905702954896,nan
1740374174.5567415,-0.4864242495961781,0.9932723319486568,-1.007025575270872,-0.5193689300326686,nan
1740374174.5606472,-0.4069157507415705,0.8157467658407578,-0.7914690290158688,-0.39150784521576126,nan
1740374174.5645528,-0.32960058654696694,0.6345151031019982,-0.5680099319216577,-0.2639617910788093,nan
1740374174.5684586,-0.2544092998479124,0.45023472344004006,-0.3378300825442952,-0.13698065882354174,nan
1740374174.572364,-0.18125385834366636,0.26357985423111413,-0.1021607261253765,-0.010809390609241819,nan
1740374174.5762699,-0.1100296911296626,0.0752380991765024,0.13772589233407403,0.11431235766295526,nan
1740374174.5801802,-0.0406178482727632,-0.11409312185919122,0.38052529862073253,0.23815052857447383,nan
1740374174.584086,0.02711273850765536,-0.303710200103818,0.6249098151623154,0.3604769533022264,nan
1740374174.5879915,0.09330291673670768,-0.4929070099853317,0.8695377717397634,0.48106962252811847,nan
1740374174.5918972,0.1581009188813409,-0.6809786034810432,1.1130628290662488,0.5997129410338708,nan
1740374174.5958028,0.22165993639605377,-0.8672249038833265,1.3541433422976668,0.716197968804299,nan
1740374174.5997086,0.284135685776277,-1.050954376097109,1.5914516912055026,0.830322651352214,nan
1740374174.603614,0.3456839901753267,-1.2314876506813799,1.8236835040215262,0.9418920418260174,nan
1740374174.6075199,0.40645839982467513,-1.4081610791001606,2.0495667028523443,1.0507185172697142,nan
1740374174.6114254,0.4666078739721535,-1.580330198056669,2.2678703000525378,1.1566219911776048,nan
1740374174.6153312,0.5262745463241241,-1.7473730813453778,2.4774128770250883,1.2594301242260182,nan
1740374174.6192367,0.5855915950531801,-1.9086935583668034,2.6770706795687573,1.3589785347759082,nan
1740374174.6231425,0.6446812373216358,-2.0637242793045485,2.865785267091169,1.4551110104273812,nan
1740374174.6270525,0.7036528669838402,-2.2119296079576407,3.042570656725516,1.5476797215745242,nan
1740374174.630958,0.7626013526795182,-2.3528083243468427,3.2065199075959328,1.6365454375610964,nan
1740374174.6348639,0.8216055119297052,-2.485896120463591,3.356811095134921,1.7215777456794867,nan
1740374174.6387694,0.8807267751115682,-2.6107678738959277,3.4927126304255376,1.802655272891718,nan
1740374174.6426752,0.9400080513346587,-2.727039685537657,3.6135878849772203,1.8796659097872292,nan
1740374174.6465807,0.9994728062862971,-2.8343706691545543,3.7188990871000986,1.9525070359325372,nan
1740374174.6504865,1.0591243600758895,-2.932464482233901,3.8082104620686787,2.021085745417587,nan
1740374174.654392,1.1189454110059216,-3.0210705892689265,3.8811905945096425,2.0853190710674134,nan
1740374174.6582978,1.1788977890504255,-3.099985250415856,3.9376139978563756,2.1451342054701312,nan
1740374174.6622033,1.2389224406495545,-3.169052230295217,3.9773618822294545,2.200468716677709,nan
1740374174.666109,1.298939644251389,-3.2281632235779583,4.000422118671609,2.2512707561684575,nan
1740374174.6700146,1.3588494538689846,-3.2772579958870494,4.0068884042311605,2.297499256423476,nan
1740374174.6739244,1.4185323657915718,-3.3163242404433455,3.996958638893414,2.3391241152668156,nan
1740374174.67783,1.477850201512993,-3.3453971527766604,3.970932531749281,2.376126363953941,nan
1740374174.6817358,1.5366471979365008,-3.364558727695695,3.9292084600099604,2.4084983158676314,nan
1740374174.6856413,1.5947512940009774,-3.373936784550319,3.872279610473268,2.4362436925971034,nan
1740374174.689547,1.6519756010664777,-3.3737037286132163,3.8007294387698596,2.459377724136294,nan
1740374174.6934526,1.7081200427128203,-3.3640750581424834,3.715226487118513,2.4779272199422886,nan
1740374174.6973584,1.7629731480586004,-3.3453076283496372,3.616518606353001,2.4919306076453043,nan
1740374174.701264,1.8163139813130333,-3.3176976850769724,3.505426632607302,2.5014379362977204,nan
1740374174.7051697,1.8679141890416215,-3.2815786824728623,3.382837573222587,2.5065108411908685,nan
1740374174.7090752,1.9175401455693273,-3.2373189003328244,3.249697360134334,2.5072224674539445,nan
1740374174.712981,1.9649551760707655,-3.18531887803828,3.1070032321813748,2.503657349877896,nan
1740374174.7168865,2.0099218362131555,-3.126008683164908,2.9557958104251667,2.4959112466767035,nan
1740374174.720796,2.0522042267299656,-3.059845033840364,2.7971509326568955,2.4840909252067562,nan
1740374174.7247016,2.091570321015001,-2.9873082947999285,2.6321713147862815,2.468313898009089,nan
1740374174.7286074,2.1277942837401413,-2.9088993678124075,2.46197810773913,2.448708107916013,nan
1740374174.732513,2.1606587586149675,-2.825136497722563,2.287702418835191,2.425411561369386,nan
1740374174.7364187,2.1899571037214574,-2.7365520157766627,2.1104768663738045,2.3985719095285516,nan
1740374174.7403243,2.215495553368118,-2.6436890421620336,1.931427235327213,2.3683459771974387,nan
1740374174.74423,2.23709528611007,-2.547098169798266,1.7516643006405086,2.334899240067991,nan
1740374174.7481356,2.254594379467549,-2.4473341513669222,1.572275882678189,2.2984052512561486,nan
1740374174.7520413,2.26784963293643,-2.3449526113591457,1.3943191968602584,2.2590450185920834,nan
1740374174.7559469,2.276738242110298,-2.2405068045587186,1.2188135565205038,2.217006334613269,nan
1740374174.7598526,2.281159308112688,-2.134544441865253,1.0467334845251088,2.172483061692031,nan
1740374174.7637582,2.2810351680571643,-2.0276046037027555,0.8790022852443803,2.12567437520336,nan
1740374174.7676673,2.276312533897671,-1.9202147604584094,0.7164861241112855,2.0767839680988653,nan
1740374174.7715728,2.2669634287866685,-1.812887918461767,0.5599886572681121,2.0260192206937186,nan
1740374174.7754786,2.252985911907524,-1.706119908953145,0.41024624874077736,1.9735903398904635,nan
1740374174.7793841,2.2344045846734018,-1.6003868363106026,0.26792380723528764,1.9197094724518582,nan
1740374174.78329,2.211270873169694,-1.4961427005167998,0.1336112690714159,1.8645897972901597,nan
1740374174.7871954,2.1836630837425535,-1.3938172074605333,0.007820748005158851,1.8084446020581448,nan
1740374174.7911012,2.1516862306838376,-1.2938137791938162,-0.1090156332041406,1.7514863496039432,nan
1740374174.7950068,2.1154716370140676,-1.1965077747155122,-0.21654722060124146,1.693925740084029,nan
1740374174.7989125,2.075176311401209,-1.1022449302389403,-0.3145056133377381,1.6359707747132746,nan
1740374174.802818,2.0309821062556894,-1.0113400262359067,-0.4027047575654872,1.5778258272654533,nan
1740374174.8067238,1.9830946639932179,-0.9240757868463817,-0.481040358911569,1.5196907295196347,nan
1740374174.8106294,1.931742160338955,-0.8407020155143801,-0.5494886282902653,1.4617598768761242,nan
1740374174.814538,1.877173855342757,-0.7614349689699298,-0.6081043813913183,1.4042213603387341,nan
1740374174.8184435,1.8196584644695006,-0.6864569699374647,-0.6570185175385632,1.3472561309777253,nan
1740374174.8223493,1.759482363706085,-0.6159162572257656,-0.6964349086930974,1.2910372028496795,nan
1740374174.8262548,1.6969476440736055,-0.5499270701566559,-0.7266267341374211,1.2357289001574394,nan
1740374174.8301606,1.6323700322369257,-0.48856996263175595,-0.7479323007815215,1.1814861541860202,nan
1740374174.8340662,1.566076695053191,-0.4318923405309771,-0.7607503930422497,1.1284538552508074,nan
1740374174.837972,1.4984039468859258,-0.37990921459498256,-0.7655351998307915,1.076766264544451,nan
1740374174.8418775,1.4296948793240694,-0.33260415947776567,-0.762790869311032,1.026546490371292,nan
1740374174.8457832,1.3602969335788975,-0.28993046827538776,-0.7530657447396847,0.9779060328160453,nan
1740374174.8496888,1.2905594362814203,-0.25181249055271077,-0.7369463368474545,0.9309444004103874,nan
1740374174.8535945,1.220831119665155,-0.21814714071058883,-0.7150510898539127,0.8857488018410521,nan
1740374174.8575,1.1514576471926767,-0.18880556246967986,-0.6880239993167679,0.8423939151904192,nan
1740374174.8614085,1.082779165569187,-0.16363493430103587,-0.6565281405932081,0.800941736620077,nan
1740374174.865314,1.0151279037844219,-0.14246039981404618,-0.6212391667360233,0.7614415098045797,nan
1740374174.8692198,0.9488258393391829,-0.12508710642446463,-0.5828388341645787,0.7239297368017669,nan
1740374174.8731253,0.8841824511497801,-0.11130233507312984,-0.5420086134488962,0.6884302704132079,nan
1740374174.877031,0.821492577789644,-0.10087770335266266,-0.4994234410378354,0.6549544874490836,nan
1740374174.8809366,0.7610343987306154,-0.09357142412675383,-0.45574566576740666,0.6235015416719837,nan
1740374174.8848424,0.7030675550968144,-0.08913060159537255,-0.41161924152497376,0.5940586945594227,nan
1740374174.888748,0.6478314251526317,-0.08729354676899548,-0.3676642145458174,0.5666017214011602,nan
1740374174.8926537,0.5955435683257015,-0.0877920944642275,-0.32447155051044274,0.5410953896403612,nan
1740374174.8965592,0.5463983500292244,-0.09035390421941274,-0.2825983429277621,0.5174940057828711,nan
1740374174.900465,0.5005657579101894,-0.09470472794830098,-0.24256344026782412,0.49574202664179123,nan
1740374174.9043705,0.45819041842627184,-0.10057062769787518,-0.20484352498771613,0.47577473016039473,nan
1740374174.9082785,0.41939082086048834,-0.10768012754733278,-0.16986967301787373,0.45751894057003295,nan
1740374174.9121842,0.3842587540356965,-0.11576628447232093,-0.1380244174874491,0.44089380219572805,nan
1740374174.9160898,0.3528589591077529,-0.12456866389435535,-0.10963933551243639,0.42581159582482253,nan
1740374174.9199955,0.3252289999138,-0.13383520663154333,-0.08499317179600088,0.4121785912071555,nan
1740374174.923901,0.3013793504481096,-0.1433239750542508,-0.06431050764460945,0.39989592896209913,nan
1740374174.9278069,0.281293697149382,-0.15280476741847854,-0.04776097883421948,0.3888605249313773,nan
1740374174.9317124,0.26492945182740263,-0.16206059059010866,-0.03545904061590307,0.37896598983912266,nan
1740374174.9356182,0.25221846925012037,-0.170888982674124,-0.027464273077142238,0.37010355700407177,nan
1740374174.9395237,0.24306796167058817,-0.17910317841314485,-0.023782215120020267,0.36216301079432106,nan
1740374174.9434295,0.23736160091216332,-0.18653311160776906,-0.024365710525491073,0.355033608523381,nan
1740374174.947335,0.2349607970644896,-0.19302625022546777,-0.029116744986848665,0.3486049885575639,nan
1740374174.9512408,0.23570614138563684,-0.19844826129349072,-0.03788874865629595,0.3427680575384185,nan
1740374174.9551482,0.23941899966989189,-0.20268350410249303,-0.05048933469420592,0.3374158498191161,nan
1740374174.9590538,0.24590324113736822,-0.20563535166976746,-0.06668344057659556,0.33244435246859555,nan
1740374174.9629595,0.25494708684094625,-0.20722634181248767,-0.08619683553447491,0.3277532895099134,nan
1740374174.966865,0.26632506067664535,-0.20739816055103044,-0.10871995449745245,0.32324685942673204,nan
1740374174.9707708,0.2798000253326733,-0.20611146188938656,-0.13391201631811372,0.31883442039115856,nan
1740374174.9746764,0.2951252849257783,-0.2033455292934275,-0.1614053818837439,0.31443111813337354,nan
1740374174.9785821,0.31204673565533,-0.1990977853985904,-0.19081010599467915,0.3099584518846311,nan
1740374174.9824877,0.3303050455583899,-0.19338315761705194,-0.22171863561608607,0.3053447743756131,nan
1740374174.9863935,0.34963784437390455,-0.18623330837217336,-0.2537106063002432,0.30052572245689685,nan
1740374174.990299,0.36978190462047944,-0.177695739657104,-0.28635768823294355,0.2954445755221708,nan
1740374174.9942048,0.3904752952578257,-0.16783278248795136,-0.31922843347953755,0.29005253955227733,nan
1740374174.9981103,0.4114594897332116,-0.15672048259375715,-0.35189307658804714,0.28430895525342254,nan
1740374175.0020204,0.43248141080586733,-0.14444739435045567,-0.38392824173922724,0.27818142942999646,nan
1740374175.0059261,0.45329539528767476,-0.1311132955198217,-0.4149215111025484,0.27164588940545403,nan
1740374175.0098317,0.4736650627295575,-0.11682783579378953,-0.44447581094509275,0.26468656097738724,nan
1740374175.0137374,0.493365073110505,-0.10170913246731268,-0.4722135743256784,0.25729587105926505,nan
1740374175.017643,0.5121827597395016,-0.08588232676769264,-0.4977806418639035,0.2494742768152622,nan
1740374175.0215487,0.5299196248483539,-0.06947811445496521,-0.5208498650746728,0.24123002373016622,nan
1740374175.0254543,0.5463926867227452,-0.0526312642771003,-0.5411243800715689,0.23257883566786597,nan
1740374175.02936,0.5614356686764774,-0.035479137717260766,-0.5583405230327668,0.22354354055372577,nan
1740374175.0332656,0.5749000217056387,-0.018160223210886256,-0.57227036265437,0.21415363586312025,nan
1740374175.0371714,0.5866557742505176,-0.0008126976415077385,-0.5827238288493403,0.204444798605467,nan
1740374175.041077,0.596592204128412,0.016426972549445498,-0.5895504211451691,0.19445834495576497,nan
1740374175.0449827,0.6046183293644629,0.033425378876673746,-0.5926404845485255,0.18424064509975271,nan
1740374175.0488923,0.6106632163247119,0.05005345585304087,-0.5919260450377901,0.17384249922061923,nan
1740374175.052798,0.6146761052300773,0.06618769321642418,-0.5873812012717595,0.16331848086156406,nan
1740374175.0567036,0.6166263547863304,0.08171126582964529,-0.5790220735219563,0.15272625414665378,nan
1740374175.0606093,0.6165032092883118,0.09651507264369343,-0.5669063152043364,0.14212587153031458,nan
1740374175.0645149,0.614315393131635,0.11049867707830967,-0.5511321966620619,0.13157905887169286,nan
1740374175.0684206,0.6100905391779157,0.12357114219055455,-0.5318372749937239,0.12114849469318714,nan
1740374175.0723262,0.6038744588564758,0.13565175506171503,-0.509196667692095,0.11089709048212229,nan
1740374175.076232,0.5957302632338878,0.1466706359260854,-0.4834209516199704,0.10088727883108053,nan
1740374175.0801375,0.5857373455307882,0.1565692286817453,-0.454753712367189,0.09118031608654598,nan
1740374175.0840433,0.573990236702421,0.16530067055344164,-0.4234687722742817,0.08183560598857108,nan
1740374175.0879488,0.5605973467156974,0.17283003981093276,-0.38986712834405646,0.07291005053815212,nan
1740374175.0918546,0.5456796050428145,0.17913448157268183,-0.3542736338665714,0.06445743402624853,nan
1740374175.0957642,0.5293690146424962,0.18420321283474952,-0.31703345983267034,0.05652784580196546,nan
1740374175.0996697,0.511807134308954,0.1880374089485517,-0.2785083740872196,0.04916714695082854,nan
1740374175.1035755,0.49314350473133883,0.19064997481948934,-0.23907287766002946,0.042416485601221944,nan
1740374175.107481,0.4735340339197032,0.19206520510255395,-0.19911023879844678,0.03631186508239216,nan
1740374175.1113868,0.45313935781588816,0.19231833862240688,-0.15900846590321827,0.030883768625611544,nan
1740374175.1152923,0.4321231919191372,0.19145501313632493,-0.11915626083475166,0.026156843736387506,nan
1740374175.119198,0.4106506896179327,0.18953062738160084,-0.07993899391071174,0.022149648775240897,nan
1740374175.1231036,0.3888868226343563,0.18660961809792762,-0.04173474136239614,0.018874463673343236,nan
1740374175.1270094,0.36699479855927475,0.18276466038413977,-0.004910425064806804,0.016337166082902213,nan
1740374175.130915,0.3451345298912926,0.17807580033244275,0.030181906984102464,0.014537173626712347,nan
1740374175.1348207,0.3234611682964263,0.17262952937764203,0.063208622670042,0.013467452272584146,nan
1740374175.1387262,0.30212371698669443,0.1665178102005085,0.09385783555219569,0.01311459022269342,nan
1740374175.1426353,0.28126373318338244,0.15983706433076045,0.12184249012497979,0.013458936081069585,nan
1740374175.1465409,0.2610141315945038,0.1526871318044688,0.14690317293537822,0.01447479945053116,nan
1740374175.1504467,0.24149809870707178,0.14517021334234897,0.16881062290930132,0.016130711518988348,nan
1740374175.1543522,0.2228281264847206,0.13738980552934293,0.1873679174541252,0.018389742629856005,nan
1740374175.158258,0.20510517278261076,0.12944963939320156,0.20241231432907106,0.021209873297529293,nan
1740374175.1621635,0.1884179544571948,0.12145263260224248,0.21381673287516392,0.024544414631509897,nan
1740374175.1660693,0.1728423777718558,0.11349986523273177,0.22149086193573486,0.0283424736764269,nan
1740374175.1699748,0.15844110929424837,0.10568958869795507,0.22538188563893186,0.03254945876408102,nan
1740374175.1738806,0.14526328906132954,0.09811627698813144,0.22547482211712752,0.037107619611576666,nan
1740374175.177786,0.13334438636733328,0.0908697288479845,0.22179247416540657,0.04195661658982588,nan
1740374175.181692,0.1227061971222597,0.08403422892250012,0.21439499475368526,0.04703411333205643,nan
1740374175.1855974,0.1133569803471747,0.07768777523754326,0.20337907416585976,0.05227638665469491,nan
1740374175.189506,0.1052917300311372,0.07190137965726405,0.1888767593068721,0.05761894762477469,nan
1740374175.1934118,0.09849257728538598,0.06673844718199824,0.1710539193580446,0.06299716753007877,nan
1740374175.1973174,0.09292931650573528,0.06225423912622626,0.1501083754371913,0.06834690249100168,nan
1740374175.2012231,0.08856004810526319,0.0584954243543157,0.12626771519940627,0.07360511049671024,nan
1740374175.2051287,0.08533192931684366,0.05549972186037703,0.09978681636568049,0.07871045475188591,nan
1740374175.2090344,0.0831820235984746,0.05329563706630417,0.07094510596070061,0.08360388738301848,nan
1740374175.21294,0.08203823831234346,0.05190229328742203,0.04004358455203312,0.08822920777315461,nan
1740374175.2168458,0.08182033959855627,0.051329358886909905,0.007401646987031881,0.09253359006884161,nan
1740374175.2207513,0.08244103273285608,0.05157706971687632,-0.02664626699896172,0.09646807472999233,nan
1740374175.224657,0.08380709574960687,0.05263634553413233,-0.061754157396138355,0.09998801936919079,nan
1740374175.2285626,0.08582055373069332,0.054488998190679,-0.09756804767228695,0.10305350454777926,nan
1740374175.2324684,0.08837988091039187,0.05710802854070243,-0.13372963077118907,0.10562969065779099,nan
1740374175.2363768,0.0913812176270721,0.06045800818517241,-0.16987994002926135,0.10768712251669973,nan
1740374175.2402825,0.09471958916475384,0.06449554139923652,-0.20566300762233108,0.1092019788312939,nan
1740374175.244188,0.098290113669822,0.06916980186330017,-0.24072947346881085,0.11015626424241018,nan
1740374175.2480938,0.10198918659804766,0.07442313815230531,-0.27474010819956685,0.11053794223836991,nan
1740374175.2519994,0.10571562954067731,0.08019174133492822,-0.3073692148497079,0.11034100781611567,nan
1740374175.2559052,0.10937179179079412,0.08640636750025664,-0.3383078753214551,0.10956549936947164,nan
1740374175.2598107,0.11286459363624982,0.09299310756846367,-0.3672670093945945,0.10821744988775207,nan
1740374175.2637165,0.1161065010960964,0.09987419635766781,-0.39398021610311407,0.10630877814929736,nan
1740374175.267622,0.11901642264536873,0.10696885257450683,-0.41820636963172925,0.10385712118753587,nan
1740374175.2715278,0.12152051938929255,0.11419414117323719,-0.4397319444896378,0.10088560988615113,nan
1740374175.2754333,0.12355292114250381,0.12146584938869463,-0.4583730475638392,0.09742259011921095,nan
1740374175.279339,0.12505634193118084,0.12869936769295653,-0.47397713771145866,0.09350129238635559,nan
1740374175.283247,0.12598258955482378,0.13581056695380372,-0.48642441678830967,0.08915945339711538,nan
1740374175.2871525,0.12629296500812795,0.14271666318423187,-0.49562887939649797,0.08443889352738342,nan
1740374175.2910583,0.12595854875990525,0.14933706146456652,-0.5015390121328246,0.07938505450038011,nan
1740374175.2949638,0.12496037210304796,0.1555941708898384,-0.504138136696864,0.07404650203015332,nan
1740374175.2988696,0.12328947301456872,0.16141418274177535,-0.503444394836828,0.06847439850390119,nan
1740374175.3027751,0.12094683718558141,0.16672780450324515,-0.499510376736548,0.062721951067168,nan
1740374175.306681,0.1179432260851078,0.17147094281887315,-0.4924223980419585,0.05684384071035689,nan
1740374175.3105865,0.11429889509702716,0.17558532905367816,-0.48229943425454913,0.05089563813392094,nan
1740374175.3144922,0.11004320590443607,0.1790190817064044,-0.46929172464758157,0.04493321229136962,nan
1740374175.3183978,0.10521413837904324,0.18172720058966005,-0.45357906115451047,0.039012137572747616,nan
1740374175.3223035,0.0998577082542737,0.18367198838849597,-0.4353687808057868,0.03318710559596178,nan
1740374175.326209,0.0940272978096151,0.18482339594575126,-0.4148934832193181,0.027511347519348715,nan
1740374175.3301196,0.08778290766118536,0.1851592883891941,-0.39240849735300193,0.022036072676730935,nan
1740374175.3340251,0.08119033853122827,0.18466563000476008,-0.36818912417853433,0.016809929167122088,nan
1740374175.337931,0.07432031254996123,0.18333658656445878,-0.3425276841107751,0.011878491806934817,nan
1740374175.3418365,0.06724754422048469,0.18117454462902352,-0.3157303999053281,0.0072837825752739525,nan
1740374175.3457422,0.06004977164609382,0.1781900481565552,-0.2881141473010573,0.0030638283554225688,nan
1740374175.3496478,0.052806758975151954,0.17440165355142684,-0.26000310691935946,-0.0007477395987474012,nan
1740374175.3535535,0.045599281258693766,0.16983570507520176,-0.23172535182687215,-0.00412204046033538,nan
1740374175.357459,0.03850810303831851,0.16452603330575072,-0.20360940571502306,-0.007035249336526434,nan
1740374175.3613648,0.03161296198607249,0.15851358006521662,-0.17598080684407025,-0.009468850422144286,nan
1740374175.3652704,0.02499156880450142,0.15184595393503447,-0.14915871274013184,-0.011409835257544052,nan
1740374175.3691761,0.018718634365591087,0.1445769211305887,-0.12345258012376419,-0.012850844094457609,nan
1740374175.3730817,0.012864934724877587,0.13676583711323126,-0.09915895369407232,-0.013790248938308509,nan
1740374175.3769917,0.007496424195565015,0.1284770248679299,-0.0765583962025514,-0.014232177414253585,nan
1740374175.3808975,0.002673406112228025,0.11977910626571238,-0.055912590738745556,-0.014186477190951266,nan
1740374175.384803,-0.0015502297393782843,0.11074429335708359,-0.037461644331253874,-0.013668621285180994,nan
1740374175.3887088,-0.0051276947934201095,0.10144764680191648,-0.0214216198616504,-0.012699555156155421,nan
1740374175.3926144,-0.008019907069373052,0.09196630892992158,-0.007982320917200813,-0.011305487074902015,nan
1740374175.3965201,-0.010196007725119855,0.08237871914123907,0.0026946484047143606,-0.009517623815931705,nan
1740374175.4004257,-0.011633783255732966,0.07276381949731897,0.010477529555214802,-0.0073718542600049175,nan
1740374175.4043314,-0.012319988814656273,0.06320025841695985,0.015265745283902987,-0.004908384012838911,nan
1740374175.408237,-0.012250569196442964,0.05376560038103547,0.016990912077480234,-0.0021713246302085764,nan
1740374175.4121428,-0.01143077511529104,0.044535549462289784,0.015617519576647537,0.0007917585098266729,nan
1740374175.4160483,-0.00987517353006864,0.035583194334896956,0.011143270643619193,0.00393033523616273,nan
1740374175.419954,-0.007607551892832148,0.026978282184007867,0.003599079191541635,0.007191431696859491,nan
1740374175.4238667,-0.00466071732254609,0.01878652863078121,-0.006951273652000977,0.01052017841590611,nan
1740374175.4277723,-0.0010761928172539792,0.01106897041651866,-0.020411821026996135,0.01386037988652272,nan
1740374175.431678,0.0030961862948978517,0.003881367154259077,-0.03665542204698597,0.01715510007617453,nan
1740374175.4355836,0.007798771413718442,-0.002726342038090534,-0.05552509298718081,0.020347258056718855,nan
1740374175.4394894,0.012966689976405085,-0.008710521757519442,-0.07683564400644127,0.02338022786778919,nan
1740374175.443395,0.018528518811268803,-0.01403425872029733,-0.10037560439398037,0.02619843667380131,nan
1740374175.4473007,0.024407034445003153,-0.018667711323100827,-0.12590941644661283,0.028747955285206003,nan
1740374175.4512062,0.030520032463664106,-0.02258838701018955,-0.15317987540163522,0.030977075182670722,nan
1740374175.455112,0.03678120730113561,-0.02578134480359148,-0.18191079040029204,0.032836866308174374,nan
1740374175.4590175,0.04310108319228081,-0.02823932108449794,-0.21180983926129973,0.034281710068192105,nan
1740374175.4629233,0.04938798648760505,-0.029962777461954106,-0.24257158792453107,0.0352698022295377,nan
1740374175.4668288,0.05554904908730942,-0.03095987032249402,-0.27388064380031774,0.0357636206756765,nan
1740374175.4707382,0.061491232419392215,-0.03124634241426648,-0.3054149109456904,0.03573035332761699,nan
1740374175.474644,0.06712236116219115,-0.030845337574494536,-0.3368489139977453,0.0351422819156008,nan
1740374175.4785495,0.07235215579841613,-0.029787140452512243,-0.3678571571356763,0.033977117711911975,nan
1740374175.4824553,0.07709325308647043,-0.028108843805324923,-0.398117484022819,0.03221828579724511,nan
1740374175.4863608,0.08126220364528784,-0.025853946641822688,-0.4273144047010446,0.029855154928542422,nan
1740374175.4902666,0.08478043606999276,-0.023071887158899154,-0.4551423557712948,0.02688321060035657,nan
