timestamps,TP9,AF7,AF8,TP10,Right AUX
1740789290.1029491,0.13395637543156488,-0.3378342881959883,-0.13670560537491175,0.16263592233918536,nan
1740789290.1068552,0.1383934988525935,-0.3279077622101394,-0.12473638470363894,0.17138536502213125,nan
1740789290.110761,0.14192294712872922,-0.3151800648384314,-0.11114594291402191,0.17871019225605617,nan
1740789290.1146667,0.14442015073316705,-0.29973934660947554,-0.09614935158142286,0.1844978633605759,nan
1740789290.1185725,0.14577288872481706,-0.28170018426960675,-0.07996925491828906,0.18865393797053018,nan
1740789290.1224785,0.14588271728011976,-0.261202466466332,-0.06283351488473769,0.19110318545450258,nan
1740789290.1263843,0.14466624650366186,-0.23841002320881158,-0.044972846331938154,0.19179048527519296,nan
1740789290.13029,0.14205625176247394,-0.21350901214347168,-0.02661846535641482,0.19068150848117602,nan
1740789290.1341958,0.13800260754682567,-0.18670607716968468,-0.00799977361656284,0.18776317282429525,nan
1740789290.1381018,0.13247303373912953,-0.15822629726073645,0.010657899280624855,0.18304386637995926,nan
1740789290.1420076,0.12545364615279708,-0.1283109455250386,0.029135474065943457,0.17655343698433656,nan
1740789290.1459134,0.11694930526395883,-0.09721508051932612,0.047222200559600164,0.168342947267675,nan
1740789290.1498215,0.10698375917972622,-0.06520499358901317,0.06471761791424384,0.15848419753139112,nan
1740789290.1537273,0.09559957904511784,-0.0325555375422829,0.08143337878080316,0.14706902116256426,nan
1740789290.157633,0.08285788726493906,0.0004526367520954497,0.09719492138950968,0.13420835967795292,nan
1740789290.161539,0.06883788108431912,0.03353590823182904,0.11184297523816744,0.1200311268157722,nan
1740789290.1654449,0.05363615621026272,0.06641054961328642,0.12523488790016327,0.10468287332334072,nan
1740789290.1693506,0.03736583724452801,0.09879559864243342,0.13724576238659006,0.0883242661991604,nan
1740789290.1732564,0.02015552371422954,0.13041570761885016,0.14776939650049736,0.07112939811745483,nan
1740789290.1771624,0.0021480624101818083,0.1610039422983181,0.15671901768578825,0.053283944571035885,nan
1740789290.1810682,-0.016500841445227135,0.1903045016807785,0.16402780897815933,0.0349831878961736,nan
1740789290.184974,-0.035624159997443755,0.21807533087943926,0.16964922378904063,0.01642992877373504,nan
1740789290.1888797,-0.05504520978900607,0.24409060023726928,0.1735570893751813,-0.0021676929803172186,nan
1740789290.1927857,-0.07457943290977655,0.2681430251008279,0.17574550094491664,-0.02059844552792101,nan
1740789290.1966937,-0.09403627396430907,0.29004600216673215,0.17622851040715398,-0.03865029645915911,nan
1740789290.2005994,-0.11322113354603411,0.3096355400691967,0.17503961576061633,-0.05611272449755169,nan
1740789290.2045052,-0.1319373780999846,0.32677196386137647,0.17223105903004887,-0.07277902711075795,nan
1740789290.208411,-0.14998838545442186,0.34134137523987396,0.16787294246465825,-0.08844859966139984,nan
1740789290.2123168,-0.16717960491268755,0.3532568527495666,0.1620521744054297,-0.10292916196892858,nan
1740789290.2162228,-0.18332061062391572,0.36245937876186196,0.15487125778628744,-0.11603890863985247,nan
1740789290.2201285,-0.1982271269961267,0.36891848271868816,0.14644693564557695,-0.12760856025505374,nan
1740789290.2240343,-0.2117230051773276,0.37263259295068984,0.136908709276234,-0.1374832934726638,nan
1740789290.22794,-0.2236421301064328,0.3736290922834454,0.12639724572483058,-0.14552452930292384,nan
1740789290.231846,-0.2338302383212905,0.3719640756116104,0.11506269225213117,-0.15161156022614178,nan
1740789290.2357519,-0.24214662759854655,0.367721810618146,0.10306291608402923,-0.15564299844167692,nan
1740789290.2396576,-0.24846574058041654,0.3610139058146175,0.09056168830635121,-0.15753802933890912,nan
1740789290.2435684,-0.25267860580551416,0.3519781930489067,0.07772683108694572,-0.1572374562519981,nan
1740789290.2474742,-0.25469412099174654,0.34077733453882675,0.06472834754237729,-0.15470452467912635,nan
1740789290.25138,-0.2544401650043063,0.3275971673148485,0.05173655350513298,-0.14992551639235993,nan
1740789290.2552857,-0.2518645266647792,0.3126448006637138,0.03892023019329266,-0.14291010621353328,nan
1740789290.2591918,-0.24693564040076144,0.29614648472981786,0.02644481634248909,-0.133691476660827,nan
1740789290.2630975,-0.2396431206804165,0.27834527082647886,0.014470657736352954,-0.122326188155259,nan
1740789290.2670033,-0.22999808920327483,0.2594984862101173,0.003151331274381007,-0.10889380499092877,nan
1740789290.270909,-0.21803329090674514,0.23987504805399346,-0.007367940244571249,-0.09349627979181246,nan
1740789290.274815,-0.20380299697608814,0.21975264310392723,-0.016951767558128838,-0.07625710167566617,nan
1740789290.2787209,-0.18738269519238152,0.19941480098763784,-0.025475954782957888,-0.057320215796396644,nan
1740789290.2826266,-0.16886857009663148,0.1791478903663123,-0.032828727229398516,-0.03684872431527582,nan
1740789290.2865324,-0.1483767775668723,0.15923806804801746,-0.038911816241440224,-0.015023381133926256,nan
1740789290.2904425,-0.1260425204775533,0.13996821181734878,-0.04364139169734751,0.007959105115125101,nan
1740789290.2943482,-0.10201893411568942,0.1216148680663022,-0.04694883446509973,0.03188794330386196,nan
1740789290.298254,-0.07647579194603132,0.10444524533320781,-0.04878134282513653,0.056540288895933766,nan
1740789290.30216,-0.0495980441284706,0.08871428456794267,-0.0491023686324896,0.08168340983590074,nan
1740789290.3060658,-0.02158420287689387,0.07466183634389793,-0.0478918807730689,0.10707696771518552,nan
1740789290.3099716,0.007355409707318184,0.06250997433485982,-0.04514645525624187,0.1324753914288655,nan
1740789290.3138773,0.037000534307400294,0.052460473175451446,-0.0408791930597157,0.1576303195054642,nan
1740789290.3177834,0.06712294933405467,0.044692477337671614,-0.035119468585184915,0.18229308649955714,nan
1740789290.3216891,0.0974885288725578,0.03936038589657486,-0.0279125132768597,0.20621722829279124,nan
1740789290.325595,0.1278593635299443,0.03659197604149204,-0.019318840582971265,0.22916098085919523,nan
1740789290.3295007,0.15799592344250432,0.0364867859340354,-0.009413519986945732,0.25088974701867894,nan
1740789290.3334067,0.18765924227685965,0.03911477504170246,0.0017146907151024142,0.27117850592978165,nan
1740789290.3373163,0.21661310084345609,0.04451527740956734,0.013964344374055552,0.28981414055693205,nan
1740789290.341222,0.24462618894175028,0.052696260497779285,0.027222422951345075,0.30659765908494446,nan
1740789290.3451278,0.27147422427123574,0.06363389923659094,0.04136556267013558,0.3213462872369768,nan
1740789290.3490336,0.29694200766977036,0.07727247186217256,0.05626137209886345,0.3338954096727291,nan
1740789290.3529396,0.32082539457569487,0.09352458092546866,0.07176982862463945,0.3441003400893538,nan
1740789290.3568454,0.34293316344668817,0.11227169964383811,0.08774473814526507,0.3518379013044093,nan
1740789290.3607512,0.3630887628974608,0.13336504052267756,0.1040352423430895,0.35700779845209235,nan
1740789290.364657,0.3811319205298387,0.15662673994368848,0.12048735760471266,0.3595337704526175,nan
1740789290.368563,0.3969200978101649,0.18185134922984325,0.13694552951904732,0.35936450710009954,nan
1740789290.3724687,0.41032977688623723,0.208807619586076,0.15325418692200865,0.35647432143486624,nan
1740789290.3763745,0.42125756691355476,0.23724056531049986,0.16925927965706972,0.3508635694988205,nan
1740789290.3802803,0.4296211192615627,0.2668737868035317,0.18480978458324038,0.34255881209298444,nan
1740789290.3841898,0.4353598428764575,0.2974120322008968,0.19975916488028134,0.33161271573951745,nan
1740789290.3880959,0.4384354130688796,0.3285439739483723,0.2139667683681625,0.3181036926704552,nan
1740789290.3920016,0.43883206905206906,0.3599451743472597,0.22729915136535375,0.30213528229578485,nan
1740789290.3959074,0.4365566976582983,0.39128121205342087,0.2396313155487713,0.28383527921785134,nan
1740789290.3998132,0.43163870278708566,0.4222109397309301,0.2508478463357184,0.2633546154310114,nan
1740789290.4037192,0.42412966226667576,0.4523898415627502,0.26084394247296405,0.2408660068489127,nan
1740789290.407625,0.4141027759188418,0.48147345812167264,0.2695263277766066,0.2165623767114096,nan
1740789290.4115307,0.40165211068510737,0.5091208452184627,0.2768140373046703,0.19065507071426688,nan
1740789290.4154365,0.38689165067916076,0.5349980327810769,0.2826390716474453,0.16337188085422943,nan
1740789290.4193425,0.36995416195523556,0.558781449586287,0.28694691447307963,0.13495489696748653,nan
1740789290.4232483,0.3509898836063854,0.5801612797670698,0.2896969099521132,0.10565820674081543,nan
1740789290.427154,0.330165058511332,0.5988447174566095,0.29086249818834603,0.07574546657280944,nan
1740789290.4310632,0.3076603186170592,0.614559086700118,0.2904313082888925,0.04548736704120689,nan
1740789290.4349692,0.2836689410605584,0.627054794863304,0.288405110197203,0.015159017876663333,nan
1740789290.438875,0.25839499268323074,0.6361080891821158,0.28479962787400437,-0.014962721758706428,nan
1740789290.4427807,0.232051381562656,0.6415235878203641,0.2796442178269704,-0.04460194124782098,nan
1740789290.4466865,0.20485783506830638,0.6431365588146685,0.2729814183462167,-0.07348637793154332,nan
1740789290.4505925,0.17703882463144593,0.640814922571906,0.2648663760854149,-0.10135009102884572,nan
1740789290.4544983,0.14882145789822587,0.6344609561220204,0.25536615782461153,-0.12793608329452924,nan
1740789290.458404,0.12043335920424077,0.6240126800953385,0.2445589563488625,-0.15299884407328887,nan
1740789290.4623098,0.09210055936599565,0.6094449123625897,0.23253320036570263,-0.17630678810315473,nan
1740789290.4662156,0.06404541562949528,0.5907699754198588,0.219386579254973,-0.1976445653750424,nan
1740789290.4701216,0.036484582250315756,0.5680380478898888,0.2052249941882541,-0.2168152185596268,nan
1740789290.4740274,0.00962705160694311,0.541337153914348,0.19016144776562624,-0.2336421659567086,nan
1740789290.4779358,-0.01632771502409157,0.5107927876961645,0.17431488478928028,-0.24797098959191263,nan
1740789290.4818418,-0.041191548868579224,0.47656717398346937,0.15780899712305915,-0.2596710099649412,nan
1740789290.4857476,-0.0647892102163313,0.4388581688328134,0.1407710057721145,-0.26863663102454544,nan
1740789290.4896533,-0.08695988444917227,0.3978978085147355,0.12333043335700605,-0.2747884411876576,nan
1740789290.4935591,-0.1075585233165981,0.35395051789506043,0.10561788005267485,-0.27807405861195017,nan
1740789290.4974651,-0.1264570188586818,0.30731099300634807,0.08776381581749297,-0.2784687114488082,nan
1740789290.501371,-0.14354519911945457,0.2583017757824802,0.06989740135483699,-0.2759755464227061,nan
1740789290.5052767,-0.15873163664490267,0.20727054203294717,0.052145349735260804,-0.2706256617771608,nan
1740789290.5091825,-0.17194426269914853,0.15458712665115293,0.03463083996778224,-0.26247786337025186,nan
1740789290.5130882,-0.18313078214020062,0.10064031275348448,0.017472493052815417,-0.2516181454667172,nan
1740789290.5169942,-0.19225888595247448,0.045834413905728476,0.000783420185786174,-0.23815890053133518,nan
1740789290.5209,-0.1993162605158731,-0.00941431921465779,-0.01532964817954068,-0.2222378650520529,nan
1740789290.5248082,-0.20431039477929194,-0.06468143447054135,-0.030767144744318003,-0.2040168110837486,nan
1740789290.528714,-0.20726818857860393,-0.11953812139071994,-0.04543735270881982,-0.18367999577779145,nan
1740789290.5326197,-0.2082353673741245,-0.17355512566544917,-0.059256992679756065,-0.1614323836226777,nan
1740789290.5365257,-0.20727571065955436,-0.22630669798687306,-0.07215170499665075,-0.13749765844191095,nan
1740789290.5404315,-0.20447010319303724,-0.2773745396405457,-0.08405642458907799,-0.1121160443534444,nan
1740789290.5443373,-0.19991542000182996,-0.32635170704540045,-0.0949156467498123,-0.08554195686808107,nan
1740789290.548243,-0.1937232577967464,-0.3728464375945998,-0.10468358348554029,-0.05804150707211392,nan
1740789290.552149,-0.18601852698360383,-0.41648585966918017,-0.11332421137195019,-0.0298898833836701,nan
1740789290.5560548,-0.17693791986051663,-0.45691955057731815,-0.12081121307975014,-0.0013686366765292748,nan
1740789290.5599606,-0.16662827182768947,-0.49382290740766643,-0.1271278159386585,0.027237104384077664,nan
1740789290.5638664,-0.15524483349750154,-0.5269002973657566,-0.1322665320541345,0.05564146016366319,nan
1740789290.5677724,-0.1429494724664008,-0.5558879560743462,-0.13622880557417402,0.08356064089673784,nan
1740789290.5716803,-0.12990882418732963,-0.5805566045452666,-0.1390245737088049,0.11071577316726697,nan
1740789290.575586,-0.11629241185510575,-0.600713758051963,-0.14067174902208493,0.13683568370862273,nan
1740789290.5794919,-0.10227075548262533,-0.6162057029257998,-0.14119563133563795,0.16165961253500002,nan
1740789290.5833979,-0.08801349039993843,-0.6269191203398949,-0.14062825829505823,0.1849398280322911,nan
1740789290.5873036,-0.07368751525090579,-0.6327823394036658,-0.1390077042486104,0.20644411752833147,nan
1740789290.5912094,-0.05945518919453022,-0.6337662053393658,-0.13637733756510928,0.22595812802257886,nan
1740789290.5951152,-0.04547259744426757,-0.6298845521162679,-0.13278504687000234,0.24328753317278223,nan
1740789290.599021,-0.03188790350428581,-0.6211942726451252,-0.12828244690211038,0.2582600042979353,nan
1740789290.602927,-0.018839805494847473,-0.6077949834498051,-0.12292407478607803,0.2707269650470259,nan
1740789290.6068327,-0.006456112809757482,-0.5898282845982806,-0.11676658747730068,0.28056511148363417,nan
1740789290.6107385,0.0051475419711941315,-0.567476619554764,-0.10986797096752382,0.2876776816272077,nan
1740789290.6146443,0.015868842468794157,-0.5409617434711972,-0.1022867715433726,0.2919954609505769,nan
1740789290.618552,0.025619767362683257,-0.5105428122325991,-0.09408135897051323,0.2934775129359728,nan
1740789290.6224577,0.034327398637782794,-0.4765141082700437,-0.08530923093842908,0.2921116265131411,nan
1740789290.6263638,0.04193455098590027,-0.4392024227212436,-0.07602636745163,0.28791447501622486,nan
1740789290.6302695,0.048400216067776836,-0.3989641169169199,-0.06628664310050002,0.2809314841732154,nan
1740789290.6341753,0.053699817346742326,-0.3561818893679016,-0.05614130429801251,0.2712364095544813,nan
1740789290.638081,0.057825273257485765,-0.31126127739136505,-0.045638517637563616,0.25893062682612844,nan
1740789290.641987,0.06078486855116654,-0.26462692521529435,-0.03482299452322882,0.24414214105067994,nan
1740789290.6458929,0.06260293573921692,-0.21671865281070177,-0.023735696159034914,0.22702432412270984,nan
1740789290.6497986,0.0633193506209891,-0.16798736179688775,-0.012413621870897638,0.20775439219202824,nan
1740789290.6537044,0.06298884790328656,-0.11889081652421123,-0.0008896825871866307,0.1865316375838714,nan
1740789290.6576104,0.061680164881340906,-0.06988933984297778,0.010807339865014752,0.1635754322473196,nan
1740789290.6615162,0.05947502303037248,-0.021441464100747216,0.02265274816693779,0.13912302212416058,nan
1740789290.6654263,0.05646695913448966,0.026000421438177712,0.034625801306587635,0.11342713400637185,nan
1740789290.669332,0.052760019236490124,0.07199438529622909,0.04670950560505096,0.08675341841888308,nan
1740789290.6732378,0.04846733021032073,0.11611318928814489,0.05889032892065681,0.05937775380478866,nan
1740789290.6771436,0.043709565121318704,0.15794840403739166,0.07115784304640611,0.03158343878432718,nan
1740789290.6810496,0.0386133197330134,0.19711436463450674,0.0835043003205337,0.003658300490980453,nan
1740789290.6849554,0.03330941853022103,0.2332519278767539,0.09592415140107158,-0.024108252055706374,nan
1740789290.6888611,0.027931169445194522,0.2660319942120313,0.10841351200167532,-0.05142819991091044,nan
1740789290.692767,0.022612587087475263,0.29515875955488735,0.12096958713694157,-0.07801788149351799,nan
1740789290.696673,0.017486604681669588,0.32037266453083424,0.13359006207174898,-0.10360092512134916,nan
1740789290.7005787,0.012683295105662877,0.3414530114160332,0.14627246970236088,-0.1279111169354165,nan
1740789290.7044845,0.008328121392014528,0.3582202220484991,0.1590135445100956,-0.15069517488112874,nan
1740789290.7083902,0.004540236806907579,0.37053771326710416,0.1718085735157426,-0.171715400235833,nan
1740789290.7123,0.0014308541558320294,0.37831336995587667,0.1846507548200481,-0.1907521792832228,nan
1740789290.7162058,-0.0008982967128629067,0.38150059950104365,0.19753057433998067,-0.2076063091258651,nan
1740789290.7201118,-0.0023564051200461794,0.3800989553723969,0.2104352112406287,-0.22210112328504034,nan
1740789290.7240176,-0.0028648924798883495,0.3741543215825717,0.22334798231875946,-0.23408439464679348,nan
1740789290.7279234,-0.002358586202854032,0.3637586539197985,0.23624783521812162,-0.24342999545661412,nan
1740789290.7318292,-0.0007867402902945856,0.3490492780526761,0.2491088998517531,-0.25003929642231976,nan
1740789290.7357352,0.0018861100600000094,0.33020774882979215,0.2619001067776092,-0.2538422895329088,nan
1740789290.739641,0.005679470766599373,0.30745827930234154,0.27458488052719837,-0.25479842191580043,nan
1740789290.7435467,0.010596397146395927,0.28106575214420193,0.2871209150300911,-0.25289713090985,nan
1740789290.7474525,0.01662319523009436,0.25133333019137455,0.2994600373191871,-0.24815807349889218,nan
1740789290.7513585,0.02372932110151228,0.2185996867321873,0.3115481646528296,-0.24063104630126125,nan
1740789290.7552643,0.03186748111043856,0.18323587991340776,0.3233253590613956,-0.23039559541489468,nan
1740789290.7591736,0.04097393362406303,0.14564189914881628,0.33472598213036664,-0.21756031854437133,nan
1740789290.7630796,0.05096899077573366,0.10624291469136748,0.34567895158236045,-0.20226186495461068,nan
1740789290.7669854,0.06175771646494011,0.06548526452544733,0.35610809993101206,-0.18466364187487525,nan
1740789290.7708912,0.07323081468230874,0.0238322154218124,0.36593263416472527,-0.1649542389851168,nan
1740789290.774797,0.08526570010090477,-0.0182404626522511,0.37506769409303947,-0.1433455855244644,nan
1740789290.778703,0.09772774081302893,-0.06024906758547636,0.3834250056680292,-0.12007085733910342,nan
1740789290.7826087,0.11047166112204382,-0.10170663884731192,0.3909136242932393,-0.09538215380562524,nan
1740789290.7865145,0.12334309044282364,-0.14212768988396762,0.3974407618684229,-0.06954796699929454,nan
1740789290.7904203,0.13618024264240694,-0.18103295438653738,0.40291269010498343,-0.042850467699261124,nan
1740789290.7943263,0.14881570858335855,-0.2179541012550104,0.40723571149927806,-0.0155826348112875,nan
1740789290.798232,0.1610783432336496,-0.25243837313211737,0.410317188282963,0.01195474347792875,nan
1740789290.8021379,0.1727952274944836,-0.28405310386000454,0.41206661869480005,0.03945616704101121,nan
1740789290.806047,0.1837936838854621,-0.31239007111827427,0.41239674904946866,0.0666145887009675,nan
1740789290.8099527,0.1939033244268717,-0.33706964182750365,0.41122470932740923,0.0931246148623304,nan
1740789290.8138587,0.20295810848163498,-0.35774466963748186,0.4084731593860303,0.1186857095181084,nan
1740789290.8177645,0.2107983879724787,-0.37410410594986154,0.4040714324058711,0.14300536903536085,nan
1740789290.8216703,0.21727291727844228,-0.38587628843228833,0.39795666184324735,0.1658022352141498,nan
1740789290.825576,0.22224080524211323,-0.3928318738436573,0.3900748779697527,0.18680911453228255,nan
1740789290.829482,0.22557338708559402,-0.3947863851825657,0.38038206004343483,0.20577587222952812,nan
1740789290.8333879,0.22715599463735103,-0.3916023466646912,0.3688451302795405,0.22247217094428381,nan
1740789290.8372936,0.22688960410941816,-0.3831909837981946,0.35544287607166736,0.23669002498444655,nan
1740789290.8411994,0.22469234172842736,-0.3695134698250342,0.34016678735669353,0.2482461429807206,nan
1740789290.8451054,0.2205008288053761,-0.3505817039936418,0.3230217966167169,0.2569840336200865,nan
1740789290.8490112,0.2142713493166866,-0.32645861148601163,0.30402690976457525,0.2627758513719753,nan
1740789290.8529227,0.20598082474932874,-0.2972579592994675,0.2832157170606909,0.26552396157955704,nan
1740789290.8568285,0.19562758282006565,-0.263143686938479,0.2606367742507257,0.26516220697059933,nan
1740789290.8607345,0.18323190869553296,-0.22432875536223315,0.23635384528684733,0.26165686052132087,nan
1740789290.8646402,0.1688363694966625,-0.18107352221587783,0.21044599928986174,0.255007252655325,nan
1740789290.868546,0.1525059051469931,-0.1336836559043204,0.18300755581312303,0.2452460639489347,nan
1740789290.8724518,0.1343276809973337,-0.08250760550386867,0.15414787396864293,0.23243927781332954,nan
1740789290.8763578,0.11441070010558266,-0.027933647806598426,0.12399098255673711,0.2166857910008724,nan
1740789290.8802636,0.09288517554596355,0.029613463086205005,0.09267504998721936,0.19811668320507628,nan
1740789290.8841693,0.06990166564122183,0.08967621430173035,0.06035169447606163,0.17689415045712745,nan
1740789290.888075,0.04562997752900202,0.151768387897147,0.027185136729212595,0.15321011043288754,nan
1740789290.8919811,0.02025784696386184,0.21537941340171762,-0.006648800932892627,0.12728449113913606,nan
1740789290.895887,-0.006010595306589437,0.27997897984530673,-0.040963843319207494,0.09936321771268641,nan
1740789290.899795,-0.03295655789444893,0.3450218652430767,-0.07556455157490437,0.06971591520828754,nan
1740789290.9037008,-0.06034850890116982,0.4099529392123316,-0.11024774377279237,0.03863334823891973,nan
1740789290.9076066,-0.0879442647445177,0.4742122925092837,-0.14480403619807364,0.006424621134701417,nan
1740789290.9115124,-0.11549322862607798,0.5372404458110029,-0.1790194931004841,-0.02658583512483139,nan
1740789290.9154184,-0.14273875777746492,0.5984835890467403,-0.2126773712488932,-0.06006146060281705,nan
1740789290.9193242,-0.16942063701048496,0.6573988020152887,-0.24555994429715652,-0.09365691803771473,nan
1740789290.92323,-0.19527763469408005,0.7134592069185334,-0.2774503907722833,-0.127021565939423,nan
1740789290.9271357,-0.22005011610554273,0.7661590037994346,-0.3081347284417506,-0.1598030191865808,nan
1740789290.9310417,-0.24348268816927585,0.8150183406942275,-0.33740377691961954,-0.19165076200246636,nan
1740789290.9349475,-0.2653268489155673,0.8595879715884621,-0.3650551296432545,-0.22221977736530907,nan
1740789290.9388533,-0.28534361457379903,0.899453656994792,-0.3908951158044651,-0.25117415643642965,nan
1740789290.942759,-0.303306097066394,0.9342402641334345,-0.4147407324598052,-0.2781906514737864,nan
1740789290.946667,-0.3190020047960623,0.9636155262757516,-0.43642152688174285,-0.30296213594292226,nan
1740789290.9505727,-0.33223604002112866,0.9872934237854576,-0.4557814092505917,-0.32520093614233975,nan
1740789290.9544787,-0.3428321667910099,1.0050371527346407,-0.4726803760298756,-0.3446419996227627,nan
1740789290.9583845,-0.3506357243624231,1.01666165065366,-0.48699612481630716,-0.361045866992874,nan
1740789290.9622903,-0.35551536223018465,1.022035652962253,-0.498625542108988,-0.374201415357803,nan
1740789290.966196,-0.3573647743752602,1.0210832578880946,-0.5074860462978179,-0.3839283436172673,nan
1740789290.9701018,-0.3561042120452137,1.01378498217,-0.5135167692233651,-0.3900793721410871,nan
1740789290.9740078,-0.3516817563240672,1.000178294525157,-0.5166795609024479,-0.39254213192075543,nan
1740789290.9779136,-0.34407433390294767,0.9803576186903172,-0.5169598034362792,-0.39124072114398806,nan
1740789290.9818194,-0.3332884618107976,0.9544738027812855,-0.5143670217100347,-0.38613691022898494,nan
1740789290.9857252,-0.31936070938461525,0.9227330567077304,-0.508935280241142,-0.3772309796582897,nan
1740789290.9896312,-0.3023578684281698,0.8853953643847902,-0.5007233574235657,-0.3645621784381394,nan
1740789290.9935386,-0.2823768253020345,0.8427723824525192,-0.4898146904305325,-0.34820879464558135,nan
1740789290.9974446,-0.25954413157995604,0.7952248421021809,-0.47631708616039814,-0.328287833278231,nan
1740789291.0013504,-0.2340152728693824,0.7431594753686457,-0.4603621958204402,-0.3049543004547184,nan
1740789291.0052562,-0.20597363839908203,0.6870254918355253,-0.4421047530207364,-0.2784000968911443,nan
1740789291.009162,-0.17562919699492438,0.6273106360704563,-0.4217215775734081,-0.24885252746279896,nan
1740789291.013068,-0.14321688806649688,0.564536860220131,-0.3994103495391741,-0.216572437513475,nan
1740789291.0169737,-0.1089947391825609,0.49925565000851163,-0.37538816041030587,-0.1818519903592099,nan
1740789291.0208795,-0.07324172469274762,0.43204304586001635,-0.3498898506436614,-0.1450121041119673,nan
1740789291.0247853,-0.036255382627305925,0.36349440397811944,-0.3231661450359547,-0.1063995694852123,nan
1740789291.0286913,0.0016507902524460659,0.2942189449177792,-0.2954815996425874,-0.06638387360193519,nan
1740789291.032597,0.04015014290033597,0.22483413947003048,-0.2671123760582321,-0.02535375797265583,nan
1740789291.0365028,0.07890584928273768,0.1559599835054876,-0.2383438608794567,0.01628645828611176,nan
1740789291.040413,0.11757403580047167,0.08821321478088096,-0.20946815003550673,0.05812075629347196,nan
1740789291.0443187,0.15580702826182738,0.0222015255839934,-0.18078141938209868,0.09972546027922764,nan
1740789291.0482244,0.193256688241852,-0.04148217453325613,-0.15258120448553292,0.14067340746543663,nan
1740789291.0521305,0.22957780734535846,-0.1022653918125038,-0.12516361386242028,0.1805382052760091,nan
1740789291.0560362,0.2644315268631725,-0.15960152364949998,-0.09882050106768282,0.21889853491230146,nan
1740789291.059942,0.2974887495864637,-0.21297512390421874,-0.07383662192548454,0.25534245943246664,nan
1740789291.0638478,0.3284335101331113,-0.26190690743534817,-0.05048680386199554,0.2894716939675483,nan
1740789291.0677538,0.35696627005075393,-0.3059584452432713,-0.02903315471476418,0.3209057956063445,nan
1740789291.0716596,0.38280710419806374,-0.3447365041791546,-0.009722338552871067,0.3492862307883791,nan
1740789291.0755653,0.4056987454705136,-0.37789698819409406,0.0072170540608823466,0.3742802787607186,nan
1740789291.079471,0.42540945582792106,-0.40514844153601065,0.021577014303225596,0.3955847307765473,nan
1740789291.0833771,0.4417356927936511,-0.4262550781235029,0.03317247539186244,0.4129293462344062,nan
1740789291.0872867,0.45450454212175095,-0.44103930550206233,0.041843499428100756,0.42608002886577945,nan
1740789291.0911925,0.46357588915750875,-0.4493837162821221,0.047457266414605105,0.4348416883606434,nan
1740789291.0950983,0.468844303535108,-0.45123252473069364,0.04990984249695491,0.4390607554573165,nan
1740789291.099004,0.4702406142462998,-0.44659243119616937,0.04912770613697867,0.438627321492561,nan
1740789291.10291,0.46773315475675736,-0.43553290224445335,0.04506901281774219,0.43347687668525825,nan
1740789291.1068158,0.461328660719813,-0.4181858597269108,0.037724580990410414,0.42359162498373687,nan
1740789291.1107216,0.451072805915855,-0.39474477743833886,0.02711858428535161,0.4090013571118669,nan
1740789291.1146274,0.4370503653030584,-0.365463189506612,0.013308937505253518,0.38978386746850996,nan
1740789291.1185334,0.41938499747236924,-0.33065262013476665,-0.0036126334242530004,0.3660649047328381,nan
1740789291.1224391,0.3982386423262415,-0.2906799497404602,-0.023520844573270958,0.33801765036630077,nan
1740789291.126345,0.3738105334145249,-0.2459642378570016,-0.04625743430917715,0.30586172364104836,nan
1740789291.1302507,0.3463358280288881,-0.19697302832490984,-0.07163207189131099,0.2698617163233768,nan
1740789291.1341631,0.31608386184522497,-0.14421816726509365,-0.09942359240278714,0.23032526465753358,nan
1740789291.138069,0.2833560385770466,-0.08825116903756487,-0.12938155296186776,0.1876006707876262,nan
1740789291.1419747,0.24848336872702997,-0.029658169808530022,-0.1612281020472247,0.14207409018097428,nan
1740789291.1458805,0.21182367506406127,0.03094548756822138,-0.19466015068576628,0.09416630593292269,nan
1740789291.1497865,0.17375848587488293,0.09292098994186387,-0.22935183121783154,0.04432911499939615,nan
1740789291.1536922,0.13468964030936637,0.15561206081642304,-0.264957226401609,-0.006958644621089658,nan
1740789291.157598,0.09503563322400854,0.21835118430004327,-0.3011133487755498,-0.05919539298851837,nan
1740789291.1615038,0.055227729798425725,0.2804659901062854,-0.33744334749243177,-0.11186139735926294,nan
1740789291.1654098,0.015705882824995795,0.3412857417768333,-0.3735599172990657,-0.1644236119373677,nan
1740789291.1693156,-0.023085512074948283,0.40014786892588705,-0.4090688819874382,-0.21634072597285972,nan
1740789291.1732213,-0.060701985999045305,0.45640448346873397,-0.4435729225112497,-0.2670683754614257,nan
1740789291.1771271,-0.09670345203060064,0.5094288195010263,-0.4766754180692279,-0.3160644716105784,nan
1740789291.1810362,-0.13065870578244984,0.558621536746854,-0.5079843668246481,-0.3627945975612351,nan
1740789291.184942,-0.16214992973684847,0.603416828293285,-0.5371163515779641,-0.40673742360982706,nan
1740789291.1888478,-0.1907771592311831,0.643288274672491,-0.5637005146532847,-0.4473900903800748,nan
1740789291.1927536,-0.2161626676511901,0.6777543882304763,-0.5873825055135756,-0.4842735090569084,nan
1740789291.1966596,-0.2379552284932608,0.7063837941196677,-0.607828364195618,-0.5169375279249325,nan
1740789291.2005653,-0.25583421244889715,0.7287999971522352,-0.6247283035624516,-0.5449659150534344,nan
1740789291.204471,-0.269513478547365,0.744685687128387,-0.6378003536141152,-0.5679811080379368,nan
1740789291.208377,-0.27874501966344906,0.7537865390810177,-0.6467938316796453,-0.5856486832390857,nan
1740789291.212283,-0.28332232434870797,0.7559144691227765,-0.6514926032341926,-0.5976814989434428,nan
1740789291.2161887,-0.2830834189658795,0.7509503112076993,-0.6517180993412698,-0.6038434692932992,nan
1740789291.2200944,-0.27791355648282035,0.7388458850873482,-0.6473320583049805,-0.6039529286757988,nan
1740789291.2240002,-0.2677475209967875,0.7196254310078252,-0.6382389610209611,-0.5978855495030523,nan
1740789291.2279088,-0.25257152009103523,0.6933863922133708,-0.6243881317248822,-0.5855767799286724,nan
1740789291.2318146,-0.23242464044944347,0.6602995320459918,-0.6057754783381443,-0.5670237720023498,nan
1740789291.2357206,-0.20739984574427814,0.6206083783084743,-0.5824448493832561,-0.542286775029906,nan
1740789291.2396264,-0.17764449963742832,0.574627993538138,-0.5544889874650926,-0.5114899734454722,nan
1740789291.2435322,-0.1433604007645397,0.5227430758677112,-0.5220500625650315,-0.4748217532762195,nan
1740789291.247438,-0.10480332076998698,0.46540540117395385,-0.4853197718467037,-0.4325343862471297,nan
1740789291.251344,-0.06228204079253521,0.403130623180261,-0.4445389962964571,-0.38494312569031564,nan
1740789291.2552497,-0.01615688622907758,0.33649445403268585,-0.3999970082885076,-0.3324247136452582,nan
1740789291.2591555,0.03316223591188996,0.26612825355691894,-0.3520302280421497,-0.2754153038168322,nan
1740789291.2630613,0.08521828825413427,0.19271406087513535,-0.301020530893256,-0.21440781034990233,nan
1740789291.2669673,0.13951002960413972,0.11697910726643018,-0.2473931113000895,-0.14994869763493168,nan
1740789291.270873,0.19549539910325497,0.03968985404525479,-0.19161391350921775,-0.08263423153097506,nan
1740789291.2747812,0.2525953359666715,-0.0383543962362049,-0.13418664278529135,-0.013106217433237402,nan
1740789291.278687,0.3101980086280253,-0.1163282628253526,-0.07564937502295438,0.05795274452412544,nan
1740789291.2825928,0.36766342312454375,-0.19338736791901598,-0.016570786374454503,0.1298244521982436,nan
1740789291.2864988,0.4243283767936717,-0.2686756765821472,0.04245397179248033,0.20176070279388678,nan
1740789291.2904046,0.47951171984369073,-0.3413330333802753,0.10080772377964706,0.2729892594708503,nan
1740789291.2943103,0.5325198841419161,-0.4105028314903694,0.1578560141490629,0.3427201361050671,nan
1740789291.298216,0.5826526356659755,-0.47533974842735577,0.21295211080560084,0.41015214976567876,nan
1740789291.302122,0.629209004515397,-0.5350174814657752,0.26544222854513977,0.47447968754446107,nan
1740789291.306028,0.6714933442082244,-0.5887364153596213,0.31467093252108497,0.534899631891963,nan
1740789291.3099337,0.7088214702134832,-0.6357311550749797,0.3599866788791677,0.5906183866019692,nan
1740789291.3138394,0.7405268263145375,-0.6752778569511243,0.40074744794851125,0.6408589440638794,nan
1740789291.3177454,0.7659666264766352,-0.706701292992393,0.43632642387652215,0.6848679333884778,nan
1740789291.3216531,0.7845279194163687,-0.7293815848565368,0.4661176734737644,0.7219225885190664,nan
1740789291.325559,0.7956335230497797,-0.7427605465311814,0.4895417763069126,0.7513375754753348,nan
1740789291.329465,0.7987477764336616,-0.746347577659443,0.5060513577541551,0.7724716184450103,nan
1740789291.3333707,0.7933820577116553,-0.7397250529645866,0.5151364768256127,0.7847338655372589,nan
1740789291.3372765,0.7791000179291463,-0.7225531572033213,0.5163298210554331,0.7875899366359076,nan
1740789291.3411822,0.7555224823810419,-0.6945741195148278,0.509211661692572,0.7805675979293109,nan
1740789291.3450882,0.7223319733922923,-0.6556158058906862,0.49341452375063594,0.7632620103317973,nan
1740789291.348994,0.6792768110868407,-0.6055946337286707,0.4686275272165565,0.735340502129331,nan
1740789291.3528998,0.626174751756917,-0.5445177780063398,0.4346003578527278,0.6965468197551861,nan
1740789291.3568056,0.5629161268779529,-0.47248464447115696,0.39114682854342075,0.6467048146018011,nan
1740789291.3607116,0.4894664495981787,-0.3896875913422637,0.3381479950161313,0.5857215281702611,nan
1740789291.3646173,0.40586845963616275,-0.296411887302847,0.27555479299111624,0.513589642613248,nan
1740789291.3685248,0.3122435819110718,-0.1930348999770868,0.2033901673534402,0.43038926880149536,nan
1740789291.3724306,0.20879277887356723,-0.08002451557675527,0.12175066777434432,0.33628904939557686,nan
1740789291.3763363,0.0957967813616962,0.04206320308651972,0.030807489302565647,0.2315465599892605,nan
1740789291.380242,-0.02638431216435826,0.172587106552818,-0.06919305923101575,0.11650799716057883,nan
1740789291.3841481,-0.15731207299449745,0.3108247765769951,-0.17792967163529555,-0.008392851826981294,nan
1740789291.388054,-0.29647141588602294,0.4559770456171479,-0.29500675357323863,-0.1426363569385362,nan
1740789291.3919597,-0.4432729035737164,0.6071731856309267,-0.41995572774156625,-0.28561950413582904,nan
1740789291.3958654,-0.5970556712323815,0.7634767280856002,-0.5522369333170983,-0.43665905222885826,nan
1740789291.3997715,-0.7570909548114554,0.9238918716164549,-0.6912421130612124,-0.5949953691013264,nan
1740789291.4036772,-0.9225862020144926,1.0873704286499526,-0.8362974765675543,-0.7597969227820461,nan
1740789291.407583,-1.092689739687536,1.252819257587745,-0.9866673232771683,-0.9301653971886306,nan
1740789291.4114888,-1.266495966553459,1.419108122866624,-1.1415582041113703,-1.1051413969457455,nan
1740789291.4153988,-1.4430510356267974,1.5850779214052986,-1.3001235959273854,-1.283710700525803,nan
1740789291.4193048,-1.621358986306147,1.7495492106550967,-1.4614690585256043,-1.464811016120887,nan
1740789291.4232106,-1.8003882821076076,1.9113309707172523,-1.6246578396697007,-1.647339190173955,nan
1740789291.4271164,-1.979078706309244,2.0692295307988964,-1.7887168895598389,-1.8301588144151737,nan
1740789291.4310222,-2.1563485644566596,2.2220575886726315,-1.952643242460804,-2.0121081736023485,nan
1740789291.4349282,-2.331102139763895,2.3686432507951456,-2.115410719765139,-2.192008472985906,nan
1740789291.438834,-2.5022373449592,2.507839020338026,-2.2759769056977404,-2.3686722818380854,nan
1740789291.4427397,-2.668653512095086,2.6385306605927217,-2.4332903441715192,-2.5409121272276205,nan
1740789291.4466455,-2.829259260286376,2.7596458620302484,-2.5862979030094224,-2.707549170605967,nan
1740789291.4505515,-2.9829803802740864,2.8701626427181504,-2.7339522498786444,-2.867421898714586,nan
1740789291.4544573,-3.128767674148757,2.9691174138106153,-2.875219382857299,-3.019394759836242,nan
1740789291.458363,-3.26560468851122,3.0556126444156253,-3.00908615758718,-3.162366676502558,nan
1740789291.462273,-3.3925152798048748,3.1288240632836875,-3.1345677524702156,-3.2952793664364584,nan
1740789291.4661787,-3.5085709515196517,3.188007338429351,-3.2507150133479046,-3.4171254047477193,nan
1740789291.4700847,-3.612897904438256,3.232504179958282,-3.356621619566248,-3.526955962203681,nan
1740789291.4739904,-3.7046837430595083,3.261747815993572,-3.451431014272367,-3.623888156751705,nan
1740789291.4778962,-3.7831837837773254,3.2752677966358372,-3.5343430432086484,-3.7071119583563252,nan
1740789291.481802,-3.8477269132982523,3.2726940863095613,-3.604620248156883,-3.7758965906093547,nan
1740789291.485708,-3.897720949122732,3.2537604105967763,-3.661593763525513,-3.8295963764475833,nan
1740789291.4896138,-3.932657457669001,3.2183068296895843,-3.7046687673510816,-3.867655979638397,nan
1740789291.4935195,-3.952115989753423,3.166281516853712,-3.7333294411794316,-3.889614998432828,nan
1740789291.4974253,-3.9557676976235547,3.097741726733126,-3.747143396879028,-3.8951118728988,nan
1740789291.5013313,-3.943378302533887,3.012853944885647,-3.7457655323899637,-3.8838870728919517,nan
1740789291.505237,-3.914810386919469,2.9118932165660967,-3.7289412826969537,-3.8557855393516913,nan
1740789291.5091465,-3.870024990517801,2.795241659410215,-3.6965092368987995,-3.8107583575780684,nan
1740789291.5130525,-3.8090824952704287,2.6633861712634372,-3.648403097093648,-3.7488636473001153,nan
1740789291.5169582,-3.7321427894573724,2.5169153508877606,-3.584652959870014,-3.6702666606369565,nan
1740789291.520864,-3.6394647072325466,2.356515655612696,-3.5053859064464667,-3.575239085425624,nan
1740789291.5247698,-3.5314047454892563,2.1829668261193045,-3.410825892895445,-3.4641575577906347,nan
1740789291.5286758,-3.408415065743352,1.9971366144084919,-3.3012929373745,-3.337501394205632,nan
1740789291.5325816,-3.2710407944292217,1.7999748565566556,-3.177201606826049,-3.195849559592785,nan
1740789291.5364873,-3.1199166406127747,1.5925069370578122,-3.0390588111487262,-3.0398768941679464,nan
1740789291.540393,-2.955762855588576,1.375826696347936,-2.8874609183434146,-2.8703496277165548,nan
1740789291.5442991,-2.779380564099305,1.1510888374654518,-2.7230902095493135,-2.6881202157263657,nan
1740789291.548205,-2.5916465019504185,0.919500891685708,-2.546710698164439,-2.494121537259745,nan
1740789291.5521107,-2.3935071995487713,0.6823148063457459,-2.359163342346697,-2.289360499574373,nan
1740789291.5560195,-2.185972655330804,0.4408182209216477,-2.1613606850728604,-2.074911099253466,nan
1740789291.5599256,-1.970109547126456,0.19632549971208052,-1.9542809605524136,-1.8519069939451376,nan
1740789291.5638313,-1.7470340331946401,-0.049831408799098156,-1.7389617101120352,-1.6215336426987357,nan
1740789291.567737,-1.5179041979339334,-0.2963122146935253,-1.5164929546477692,-1.385020076291445,nan
1740789291.5716429,-1.2839122000904981,-0.5417775597317138,-1.2880099743518147,-1.143630361832735,nan
1740789291.575549,-1.0462761836305121,-0.7848982491295846,-1.0546857496282909,-0.898654828293478,nan
1740789291.5794547,-0.8062320132968808,-1.0243643709407773,-0.8177231198899259,-0.6514011214114072,nan
1740789291.5833604,-0.5650248982142577,-1.258894233212648,-0.5783467192511896,-0.4031851576605432,nan
1740789291.5872662,-0.32390096773135874,-1.487243050879328,-0.33779474998288317,-0.15532204762968813,nan
1740789291.5911722,-0.08409886398845758,-1.7082113167029447,-0.09731065595225101,0.09088294077050607,nan
1740789291.595078,0.1531585845313041,-1.9206527934517141,0.14186524087073815,0.3341433093606897,nan
1740789291.5989838,0.38667254496330977,-2.123482067884027,0.3785040774141777,0.573200078180468,nan
1740789291.6028922,0.6152761553062721,-2.3156816109598117,0.6113966967531673,0.8068302882371585,nan
1740789291.6067982,0.8378422325031841,-2.496308292989167,0.8393617430291641,1.0338551935461453,nan
1740789291.610704,1.0532906551853924,-2.664499307114976,1.0612535426513008,1.2531480802287691,nan
1740789291.6146097,1.2605953656535511,-2.819477459568999,1.2759697120793707,1.4636416536762042,nan
1740789291.6185155,1.4587909388646583,-2.9605557904950017,1.482458434661449,1.664334938508496,nan
1740789291.6224215,1.6469786698110196,-3.0871414947507554,1.6797253516398905,1.8542996402239624,nan
1740789291.6263273,1.8243321346835704,-3.1987391179339264,1.8668400155258482,2.032685922008889,nan
1740789291.630233,1.9901021855742134,-3.2949530088743053,2.042941857549238,2.198727555120762,nan
1740789291.6341388,2.143621343152178,-3.3754890159445297,2.207245624788865,2.3517464065270377,nan
1740789291.6380448,2.284307556707874,-3.4401554207109655,2.359046246844167,2.4911562330298196,nan
1740789291.6419506,2.411667306151903,-3.4888631086230095,2.4977230964899824,2.61646575688672,nan
1740789291.6458564,2.5252980259425253,-3.5216249825701937,2.6227436136209534,2.7272810038995776,nan
1740789291.6497645,2.6248898364460627,-3.5385546311706237,2.733666266901913,2.8233068910343615,nan
1740789291.6536703,2.7102265738645257,-3.5398642695405758,2.8301428328522267,2.9043480568050204,nan
1740789291.657576,2.781186115545376,-3.525861975985126,2.911919977561239,2.9703089338486066,nan
1740789291.6614819,2.8377400031718385,-3.4969482534959413,2.978840131812904,3.021193069285717,nan
1740789291.6653879,2.879952371970506,-3.4536119501011098,3.0308416560439118,3.0571017045468856,nan
1740789291.6692936,2.907978199618784,-3.3964255769409526,3.067958297223755,3.0782316323003998,nan
1740789291.6731994,2.922060893941571,-3.3260400674050423,3.090317945380246,3.084872353890094,nan
1740789291.6771052,2.922529243709075,-3.24317902472408,3.098140703052626,3.0774025662344053,nan
1740789291.6810112,2.909793761842727,-3.148632509034638,3.091736286390726,3.0562860124044575,nan
1740789291.684917,2.8843424550621424,-3.0432504180980144,3.0715007818869964,3.0220667350452537,nan
1740789291.6888227,2.8467360584242396,-2.9279355185335163,3.03791278778527,2.9753637763899703,nan
1740789291.6927285,2.797602777279892,-2.803636186602959,2.9915289740136584,2.9168653728051783,nan
1740789291.6966362,2.7376325828707313,-2.6713389192430173,2.9329790989995255,2.847322695561223,nan
1740789291.7005422,2.6675711110794067,-2.5320606771759295,2.862960525904875,2.767543192817091,nan
1740789291.704448,2.588213216704634,-2.3868411225323016,2.782232284636351,2.678383590617222,nan
1740789291.7083538,2.5003962380356146,-2.2367348134923204,2.6916087294045057,2.5807426129978372,nan
1740789291.7122595,2.404993028430642,-2.082803417998319,2.591952844604156,2.475553483075693,nan
1740789291.7161655,2.3029048130479466,-1.9261080076214374,2.4841692543376883,2.3637762682306027,nan
1740789291.7200713,2.1950539298233136,-1.7677014911919084,2.3691969929858243,2.246390133187635,nan
1740789291.723977,2.082376514233384,-1.6086212458440832,2.2480020958295883,2.1243855649527146,nan
1740789291.7278829,1.9658151873246617,-1.4498820007059239,2.1215700698310545,1.9987566331591675,nan
1740789291.7317889,1.8463118059295613,-1.292469025604124,1.9908983052811906,1.870493348449292,nan
1740789291.7356946,1.7248003329399344,-1.1373316738899009,1.8569884891174202,1.740574180056225,nan
1740789291.7396004,1.6021998839772384,-0.9853773248496518,1.7208390803023643,1.6099587917834606,nan
1740789291.7435079,1.4794080048029672,-0.8374657671849413,1.5834379067439164,1.4795810531229314,nan
1740789291.7474136,1.3572942313729803,-0.6944040607660933,1.4457549418348123,1.3503423793324558,nan
1740789291.7513196,1.236693981578734,-0.5569419093238649,1.3087353168111708,1.223105450938309,nan
1740789291.7552254,1.118402824464357,-0.4257675719867941,1.1732926227915612,1.0986883593710377,nan
1740789291.7591312,1.0031711690915877,-0.30150433664204446,1.040302553583025,0.9778592213181808,nan
1740789291.763037,0.8916994112782463,-0.1847075730400376,0.9105969371532201,0.8613312999249063,nan
1740789291.766943,0.7846335721965437,-0.07586237842382117,0.7849582000975317,0.7497586662342494,nan
1740789291.7708488,0.6825614583235224,0.024618176711096437,0.6641143055084507,0.6437324292760841,nan
1740789291.7747545,0.58600936752805,0.11639420028571691,0.5487342004168094,0.5437775580338203,nan
1740789291.7786603,0.495439361199136,0.19919953040423813,0.43942380445810225,0.45035031318689756,nan
1740789291.7825663,0.4112471173125324,0.27284169489721855,0.33672256666188244,0.3638363010935069,nan
1740789291.786472,0.3337603742408707,0.33720129118716785,0.24110061230986196,0.2845491569899802,nan
1740789291.7903821,0.26323796998186866,0.39223080370585156,0.15295649670215974,0.21272985888979318,nan
1740789291.794288,0.19986947635431268,0.43795288055311415,0.07261557745544098,0.14854666821430904,nan
1740789291.7981937,0.14377542263713036,0.47445809528802035,0.00032901167685699665,0.09209568782707507,nan
1740789291.8020995,0.09500809814681103,0.5019022236509469,-0.06372662094088372,0.043402022920011156,nan
1740789291.8060055,0.05355291840542936,0.5205030685989798,-0.1194490733296166,0.0024215251582549707,nan
1740789291.8099113,0.019330334886865582,0.5305368702692935,-0.16680957398693944,-0.030956904326326532,nan
1740789291.813817,-0.007801736118048812,0.5323343403419829,-0.20585137215779814,-0.056908482054201785,nan
1740789291.8177228,-0.028044994168620253,0.5262763627350036,-0.23668770468957023,-0.075669212638807,nan
1740789291.8216288,-0.04165737742681621,0.5127894046128828,-0.2594992087166565,-0.08753209966706328,nan
1740789291.8255346,-0.04894926362876265,0.49234068331534364,-0.27453080881295155,-0.09284293767720576,nan
1740789291.8294404,-0.05027928863843868,0.46543313600344327,-0.2820881114549563,-0.09199572903224565,nan
1740789291.8333461,-0.046049824800227235,0.43260023957495924,-0.2825333435301112,-0.08542777220564049,nan
1740789291.8372562,-0.036702163762111537,0.39440072871715615,-0.27628087517221256,-0.0736144702710449,nan
1740789291.841162,-0.022711450479721087,0.35141325984756916,-0.26379237037989106,-0.057063910204198126,nan
1740789291.8450677,-0.004581416718606313,0.3042310681495572,-0.2455716116497806,-0.03631126495003448,nan
1740789291.8489735,0.0171610364626335,0.253456663950717,-0.2221590472114454,-0.01191307107451189,nan
1740789291.8528795,0.04197135704890859,0.19969661333382932,-0.1941261113685214,0.01555856479491595,nan
1740789291.8567853,0.06929291075969518,0.1435564461306008,-0.16206936991582535,0.04552177763250231,nan
1740789291.860691,0.09856254981315735,0.08563573234988323,-0.1266045436054395,0.07739072124497755,nan
1740789291.8645968,0.12921613210976127,0.026523365659348624,-0.08836046317016386,0.1105812595707628,nan
1740789291.8685029,0.1606939422442473,-0.03320691019952336,-0.04797300947849096,0.14451652203716187,nan
1740789291.8724086,0.19244596723865107,-0.09300069919859826,-0.006079091993827291,0.17863227488738964,nan
1740789291.8763144,0.22393698177732796,-0.15232684540694114,0.03668928215142507,0.21238206272372334,nan
1740789291.8802202,0.2546513999971758,-0.21068099383457972,0.07971079746861165,0.24524207723429042,nan
1740789291.8841298,0.284097853518769,-0.2675887972418643,0.12238042856205215,0.2767157131505195,nan
1740789291.8880355,0.3118134583701107,-0.3226087501995171,0.16411480062997552,0.30633777488854097,nan
1740789291.8919413,0.33736773672454673,-0.37533463556318,0.20435726749365393,0.33367830102652085,nan
1740789291.895847,0.36036616291602896,-0.4253975724661168,0.24258266556311373,0.3583459777243774,nan
1740789291.899753,0.38045330697395885,-0.47246765889672515,0.2783017054219714,0.3799911163639529,nan
1740789291.9036589,0.39731555290018045,-0.5162552058756849,0.3110649662992748,0.3983081750360935,nan
1740789291.9075646,0.41068337305453845,-0.5565115641438511,0.3404664625589435,0.4130378079846376,nan
1740789291.9114704,0.4203331442838361,-0.5930295480802682,0.36614675544151903,0.42396843169358406,nan
1740789291.9153764,0.4260884957823229,-0.6256434652550293,0.38779558760049054,0.4309373009296899,nan
1740789291.9192822,0.427821183069759,-0.6542287635511304,0.4051540224469487,0.43383109268541237,nan
1740789291.923188,0.42545148687535556,-0.6787013111317147,0.4180160749109318,0.4325860005637271,nan
1740789291.9270937,0.41894814008248715,-0.6990163276552563,0.42622982490400607,0.42718734666492475,nan
1740789291.9310029,0.40832779018057835,-0.7151669880248495,0.4296980094831897,0.41766872243502673,nan
1740789291.9349089,0.3936540088486561,-0.7271827225751174,0.42837809442914365,0.40411067417654395,nan
1740789291.9388146,0.37503586432264513,-0.7351272399304941,0.4222818306196119,0.3866389529673075,nan
1740789291.9427204,0.35262607604023344,-0.739096300794053,0.4114743051611704,0.3654223525464101,nan
1740789291.9466262,0.3266187746795682,-0.7392152726320533,0.39607250169806507,0.34067016227502184,nan
1740789291.9505322,0.2972468940801726,-0.7356364965948491,0.3762433886074899,0.3126292655335859,nan
1740789291.954438,0.26477922462756776,-0.7285364990517872,0.3522015578787541,0.2815809168484471,nan
1740789291.9583437,0.2295171604714654,-0.7181130808119403,0.3242064413242999,0.2478372336262602,nan
1740789291.9622495,0.1917911754081898,-0.7045823174528723,0.2925591343506295,0.21173744059297417,nan
1740789291.9661555,0.15195706437165488,-0.6881755041886544,0.25759886079662503,0.173643906868852,nan
1740789291.9700613,0.11039198922743798,-0.6691360783816508,0.21969911529819972,0.13393801704853617,nan
1740789291.973967,0.06749036893856264,-0.6477165521493138,0.17926352223746175,0.09301591868627462,nan
1740789291.9778757,0.023659655160228756,-0.6241754865492989,0.1367214525606597,0.05128418920550305,nan
1740789291.9817815,-0.02068396508161702,-0.5987745375588185,0.09252344158474052,0.009155465457421848,nan
1740789291.9856873,-0.06511989776825643,-0.5717756025150219,0.04713645234345353,-0.03295592105268688,nan
1740789291.989593,-0.10922745964958805,-0.5434380938727877,0.001039030040643985,-0.0746382608637853,nan
1740789291.993499,-0.15259014428820478,-0.5140163650872586,-0.045283606225791445,-0.1154866937809238,nan
1740789291.9974048,-0.1947997962348954,-0.4837573111656789,-0.09134448813317218,-0.15510730660781782,nan
1740789292.0013106,-0.2354606544985806,-0.45289816398306665,-0.13665979310968354,-0.1931210631305692,nan
1740789292.0052164,-0.27419322813724095,-0.4216644998472392,-0.18075366419557382,-0.22916753019073638,nan
1740789292.0091224,-0.3106379687905616,-0.3902684740599961,-0.22316291044289074,-0.2629083661050019,nan
1740789292.0130281,-0.3444587072782473,-0.3589072943831508,-0.26344154497587996,-0.29403054040278676,nan
1740789292.016934,-0.37534582397594757,-0.327761942411499,-0.3011651196826067,-0.32224925683359745,nan
1740789292.0208397,-0.4030191255268339,-0.2969961489108932,-0.3359348177166728,-0.34731055481167533,nan
1740789292.024748,-0.4272304035220961,-0.2667556262294834,-0.36738126753369044,-0.3689935678836397,nan
1740789292.028654,-0.4477656540572467,-0.23716755796476147,-0.3951680450449434,-0.3871124213907778,nan
1740789292.0325599,-0.46444694051068763,-0.20834034319840206,-0.4189948336123395,-0.40151775521543265,nan
1740789292.0364656,-0.47713388546287816,-0.1803635898243177,-0.43860021500390695,-0.4120978613139047,nan
1740789292.0403714,-0.4857247813438948,-0.15330834882077737,-0.4537640680450108,-0.4187794296088957,nan
1740789292.0442774,-0.4901573131290425,-0.12722757878140054,-0.46430955550282804,-0.4215278997052113,nan
1740789292.0481832,-0.490408890160793,-0.10215682764702658,-0.4701046836945271,-0.4203474197657729,nan
1740789292.052089,-0.4864965879251532,-0.07811511639368014,-0.4710634233759602,-0.4152804177038781,nan
1740789292.0559947,-0.47847670431651224,-0.05510600745154105,-0.46714638460972047,-0.4064067935760062,nan
1740789292.0599008,-0.4664439385525134,-0.0331188388742793,-0.458361042490816,-0.39384274566237104,nan
1740789292.0638065,-0.4505302044161346,-0.012130103762766702,-0.44476151478655374,-0.3777392461662764,nan
1740789292.0677123,-0.43090309287382633,0.007895046814891317,-0.4264478966864051,-0.35828018571664566,nan
1740789292.0716202,-0.40776400231563903,0.027001200163877345,-0.40356516192003317,-0.3356802088911815,nan
1740789292.0755262,-0.3813459576572478,0.04524100104880019,-0.37630164345071243,-0.3101822657633943,nan
1740789292.079432,-0.3519111423080517,0.06267341746381894,-0.3448871107516632,-0.28205490699054725,nan
1740789292.0833378,-0.3197481695200444,0.07936197720210804,-0.30959046429061915,-0.2515893521797374,nan
1740789292.0872436,-0.28516912186734983,0.09537299924224876,-0.2707170712512677,-0.21909636317707146,nan
1740789292.0911496,-0.24850638954746213,0.11077384360093463,-0.2286057696793578,-0.18490295550464234,nan
1740789292.0950553,-0.21010933982644117,0.12563120267007352,-0.1836255711288665,-0.14934898240952071,nan
1740789292.098961,-0.17034085125887152,0.14000945617181754,-0.13617209447501052,-0.11278362687929859,nan
1740789292.102867,-0.12957374728964546,0.15396911073976832,-0.08666376583422325,-0.07556183751449194,nan
1740789292.106773,-0.08818716448212724,0.16756534378359675,-0.035537821467720596,-0.038040744327268845,nan
1740789292.1106787,-0.04656289091295217,0.18084666973471877,0.016753847870594134,-0.0005760903601044236,nan
1740789292.1145844,-0.005081710227633385,0.19385374502185299,0.06974897146171359,0.03648128550809073,nan
1740789292.118495,0.035880213533301474,0.20661832620822637,0.12297925149843707,0.07278888006871753,nan
1740789292.122401,0.07595487594421022,0.21916239365981358,0.17597475331838386,0.10801583830171983,nan
1740789292.1263068,0.11478586368531483,0.2314974509301884,0.22826829191345535,0.141846115117903,nan
1740789292.1302125,0.1520316455078628,0.24362400776770818,0.2793997739287543,0.1739814563500271,nan
1740789292.1341183,0.18736869230869072,0.25553125230070084,0.32892045503056083,0.20414417110730324,nan
1740789292.1380243,0.22049439786752983,0.26719691556281183,0.37639707355491464,0.23207966995273235,nan
1740789292.14193,0.2511297739737473,0.2785873291104164,0.4214158227339596,0.2575587459373091,nan
1740789292.1458359,0.27902189607503985,0.28965767408391013,0.46358612552128675,0.2803795783022229,nan
1740789292.1497416,0.3039460781938329,0.300352417701276,0.5025441780822579,0.300369441610845,nan
1740789292.1536477,0.3257077586511391,0.31060593087155286,0.5379562303596548,0.31738610616609425,nan
1740789292.1575534,0.3441440810840787,0.32034327840280497,0.5695215747456072,0.3313189187740768,nan
1740789292.1614592,0.35912515831277625,0.3294811711780048,0.5969752167617367,0.34208955619930137,nan
1740789292.1653693,0.3705550097743589,0.3379290677054425,0.620090204742692,0.349652446987313,nan
1740789292.169275,0.3783721664653704,0.3455904106391227,0.6386795988039857,0.35399486067407654,nan
1740789292.1731808,0.3825499405874915,0.35236398222826343,0.6525980628216814,0.3551366667249115,nan
1740789292.1770866,0.38309636034370437,0.3581453612108982,0.6617430667263213,0.35312976881658387,nan
1740789292.1809926,0.380053773551598,0.3628284624298161,0.6660556900827891,0.34805722326253624,nan
1740789292.1848984,0.3734981268968164,0.36630713943251464,0.665521021657091,0.3400320534524109,nan
1740789292.1888041,0.36353793071284163,0.36847682953092764,0.6601681534257029,0.32919577510363496,nan
1740789292.19271,0.3503129221146709,0.3692362202493054,0.6500697712282734,0.31571664987711184,nan
1740789292.196616,0.3339924421061804,0.36848891578505627,0.6353413479657491,0.29978768746520357,nan
1740789292.2005217,0.3147735448984337,0.36614508205025825,0.6161399488694775,0.28162441859446363,nan
1740789292.2044275,0.2928788600950416,0.36212304905083853,0.5926626618797305,0.2614624634766555,nan
1740789292.2083333,0.26855423059923933,0.35635084979352105,0.5651446695426212,0.2395549220706857,nan
1740789292.212243,0.2420661510561983,0.348767675582115,0.5338569820324292,0.21616961406912058,nan
1740789292.2161489,0.2136990333462894,0.33932522846681973,0.499103853903537,0.1915861977827151,nan
1740789292.2200546,0.18375232707614647,0.32798895273254924,0.46121990994613354,0.16609319805465544,nan
1740789292.2239606,0.15253752416288235,0.3147391286422517,0.42056700803849384,0.13998497398576656,nan
1740789292.2278664,0.1203750774637975,0.2995718131738462,0.3775308691343634,0.11355865758870855,nan
1740789292.2317722,0.08759126396353235,0.2824996141878627,0.33251750647789075,0.08711109451222629,nan
1740789292.235678,0.05451502328973216,0.26355228631839445,0.28594948778436424,0.060935817687890956,nan
1740789292.239584,0.021474802286915534,0.24277713887205224,0.2382620654497458,0.03532008415680142,nan
1740789292.2434897,-0.01120456396087926,0.22023924812643603,0.18989921084531713,0.010542004440543786,nan
1740789292.2473955,-0.04320490489921105,0.1960214686181014,0.1413095894088634,-0.013132207359547479,nan
1740789292.2513013,-0.07421767221940734,0.1702242402761076,0.09294251355666083,-0.03545083600422917,nan
1740789292.2552073,-0.10394677486418413,0.14296519056616624,0.04524391041070434,-0.05617909507878939,nan
1740789292.2591164,-0.1321112651109601,0.11437853313706506,-0.0013476590345438079,-0.07510136140348937,nan
1740789292.2630224,-0.15844785120953725,0.08461426678005968,-0.04640489338628882,-0.09202319298386637,nan
1740789292.2669282,-0.18271321396347026,0.05383718079793869,-0.08951552207940854,-0.10677311195058296,nan
1740789292.270834,-0.2046861067609309,0.022225675108719065,-0.13028592080999943,-0.1192041364648472,nan
1740789292.2747397,-0.22416922085893062,-0.0100295944450228,-0.1683445392765079,-0.12919504823365602,nan
1740789292.2786458,-0.24099080018059768,-0.0427272330696462,-0.20334511125527546,-0.13665138506166288,nan
1740789292.2825515,-0.25500599247355354,-0.07565677185258571,-0.23496961922683318,-0.1415061507346185,nan
1740789292.2864573,-0.26609792637205476,-0.10860046426509438,-0.2629309881995312,-0.1437202374536851,nan
1740789292.290363,-0.2741785066792378,-0.14133519655192586,-0.2869754860239527,-0.14328255899088826,nan
1740789292.294269,-0.2791889230108579,-0.17363449281444174,-0.30688481032910414,-0.14020989568365969,nan
1740789292.2981749,-0.2810998697902752,-0.20527059438521064,-0.322477845212077,-0.1345464553012916,nan
1740789292.3020806,-0.27991147842807734,-0.23601659209880324,-0.33361207394786235,-0.1263631566691534,nan
1740789292.3059897,-0.275652965330799,-0.26564858929629726,-0.3401846372253336,-0.11575664569937545,nan
1740789292.3098958,-0.2683820021344876,-0.2939478728689822,-0.3421330297284675,-0.10284805612230284,nan
1740789292.3138015,-0.2581838172237277,-0.32070306935628357,-0.33943543123742653,-0.08778152971536507,nan
1740789292.3177073,-0.24517004014984467,-0.3457122630678556,-0.3321106717908893,-0.07072251316102782,nan
1740789292.321613,-0.22947730297903768,-0.36878505340140827,-0.320217833797738,-0.051855850810568,nan
1740789292.325519,-0.2112656148595259,-0.38974452897487727,-0.3038554972820746,-0.03138369456526806,nan
1740789292.3294249,-0.1907165281753792,-0.4084291368800218,-0.28316063766040006,-0.00952325379303368,nan
1740789292.3333306,-0.16803111653455235,-0.42469442628808746,-0.2583071885544789,0.013495590339378822,nan
1740789292.3372364,-0.1434277865026806,-0.4384146467878213,-0.22950428510995546,0.03743278053359239,nan
1740789292.3411424,-0.1171399464277589,-0.44948418320055755,-0.19699420609278048,0.06204066250465993,nan
1740789292.3450482,-0.08941355689146849,-0.4578188101826977,-0.16105003564809764,0.08706662042141106,nan
1740789292.348954,-0.060504588260794336,-0.4633567516770138,-0.12197306800672233,0.11225574107957982,nan
1740789292.3528624,-0.0306764114912777,-0.4660595321929836,-0.0800899805919689,0.1373534791481815,nan
1740789292.3567684,-0.00019714874614532726,-0.4659126089634346,-0.03574980289602658,0.16210829601488416,nan
1740789292.3606741,0.030662989458560403,-0.46292577621890196,0.010679289855565557,0.1862742452201959,nan
1740789292.36458,0.061634353993209025,-0.45713333511997,0.05881332786378851,0.20961347820675794,nan
1740789292.3684857,0.09245046753220283,-0.44859402526765113,0.10825601127476271,0.23189864510988836,nan
1740789292.3723917,0.122850570085153,-0.4373907161481748,0.1586022558121761,0.2529151665671231,nan
1740789292.3762975,0.15258207496709833,-0.4236298593361509,0.20944178680293724,0.272463354013725,nan
1740789292.3802032,0.18140291166197675,-0.40744070475336,0.26036274870553117,0.2903603576414552,nan
1740789292.384109,0.2090837333879041,-0.38897428673373446,0.31095529738560357,0.30644192311087143,nan
1740789292.388015,0.23540996873747264,-0.3684021880527752,0.3608151428196065,0.3205639402022885,nan
1740789292.3919208,0.2601836985242339,-0.3459150924165916,0.40954701063856325,0.3326037688452217,nan
1740789292.3958266,0.2832253408989148,-0.32172113814741843,0.4567679919409512,0.3424613303566719,nan
1740789292.3997347,0.304375129885093,-0.29604408792521864,0.5021107520947224,0.35005995422006836,nan
1740789292.4036405,0.32349437470219217,-0.2691213314263799,0.5452265707991827,0.3553469733229366,nan
1740789292.4075463,0.3404664895706609,-0.24120173951953944,0.5857881874715731,0.35829406321565505,nan
1740789292.4114523,0.3551977861060568,-0.21254339031574068,0.6234924280418153,0.3588973236287714,nan
1740789292.415358,0.36761802288064405,-0.18341118880776078,0.6580625914614673,0.35717710316474727,nan
1740789292.4192638,0.3776807092381064,-0.15407440305602826,0.6892505766371246,0.35317757073448536,nan
1740789292.4231696,0.3853631629634319,-0.12480414087246061,0.7168387330602836,0.3469660399124486,nan
1740789292.4270756,0.3906663239109367,-0.09587079170775688,0.7406414210999271,0.3386320549103613,nan
1740789292.4309814,0.3936143281535811,-0.06754145895329126,0.7605062707244923,0.32828624929290257,nan
1740789292.4348872,0.3942538496118549,-0.04007740811972978,0.7763151302994322,0.3160589908552021,nan
1740789292.438793,0.39265321842699497,-0.013731556347007047,0.7879847000376665,0.302098828228388,nan
1740789292.442699,0.38890132753843903,0.011253971566475073,0.7954668476350528,0.2865707567547111,nan
1740789292.4466069,0.38310634098796376,0.03465019595209498,0.7987486065736725,0.2696543229583536,nan
1740789292.4505126,0.3753942193829885,0.056243519991288966,0.7978518604947685,0.2515415885145492,nan
1740789292.4544184,0.3659070796907442,0.07583782950689397,0.7928327199033589,0.23243497597280627,nan
1740789292.4583244,0.3548014080870596,0.09325643322609725,0.7837806002418164,0.21254501960697958,nan
1740789292.4622302,0.3422461459338625,0.10834382340225118,0.7708170130345444,0.1920880456351267,nan
1740789292.466136,0.3284206700958175,0.12096723838050968,0.754094084336493,0.17128380666770288,nan
1740789292.4700418,0.3135126897186738,0.1310180105844098,0.7337928170919003,0.15035309559832366,nan
1740789292.4739478,0.2977160822719916,0.13841268546890517,0.7101211162055562,0.12951536424448437,nan
1740789292.4778535,0.28122869210158935,0.14309389920940674,0.6833115971279516,0.10898637187631677,nan
1740789292.4817593,0.2642501149391407,0.14503100525431079,0.6536192005408782,0.08897588834239009,nan
1740789292.485665,0.24697949177731354,0.14422044233685938,0.6213186372865638,0.06968547581818829,nan
1740789292.489571,0.22961333524049582,0.1406858390963102,0.5867016889986344,0.051306372273038685,nan
1740789292.4934785,0.21234341106764576,0.1344778530728811,0.5500743909569346,0.03401749858550928,nan
1740789292.4973845,0.19535469658179153,0.1256737444893888,0.5117541244928069,0.017983609848321123,nan
1740789292.5012903,0.17882343705891565,0.11437668788836403,0.4720666468115494,0.0033536098067560756,nan
1740789292.505196,0.16291531973848677,0.1007148273297462,0.43134308637194324,-0.009740954413494698,nan
1740789292.5091019,0.14778378385169608,0.08484008344438551,0.38991693196869714,-0.021187202093121492,nan
1740789292.5130079,0.13356848349657424,0.06692672315612276,0.34812104340494177,-0.03089202013596976,nan
1740789292.5169137,0.1203939184782264,0.04716970530438188,0.30628471112350425,-0.03878294487138373,nan
1740789292.5208194,0.1083682463757686,0.025782817695360456,0.26473079139478745,-0.04480881594360142,nan
1740789292.5247252,0.09758228711481973,0.002996623259230167,0.22377294264556308,-0.04894019621658342,nan
1740789292.5286312,0.08810872923646694,-0.020943765028946675,0.1837129872686779,-0.05116955410541936,nan
1740789292.532537,0.08000154488229043,-0.04578105901613374,0.14483842179255918,-0.05151120725834342,nan
1740789292.5364428,0.07329561828282674,-0.07124829699529915,0.10742009662753689,-0.050001029030359974,nan
1740789292.5403528,0.06800659026696779,-0.09707144769855554,0.0717100847610547,-0.04669592168451389,nan
1740789292.5442586,0.06413091902542256,-0.12297209115392019,0.03793975676507503,-0.04167306270447452,nan
1740789292.5481644,0.061646155086033834,-0.14867015003445627,0.0063180773272607325,-0.0350289329768762,nan
1740789292.5520704,0.06051142621567248,-0.1738866445242142,-0.022969863755422492,-0.026878137879716164,nan
1740789292.5559762,0.06066812577524811,-0.19834644338954152,-0.049764075553251,-0.01735203447060026,nan
1740789292.559882,0.06204079594346824,-0.2217809838814156,-0.07393063682894627,-0.00659717998379703,nan
1740789292.5637877,0.0645381952123613,-0.2439309333059599,-0.09536240808653025,0.0052263813026399136,nan
1740789292.5676937,0.06805453766361336,-0.26454876558525875,-0.11397948174169771,0.01794697409772159,nan
1740789292.5715995,0.0724708897783134,-0.28340122688505814,-0.1297293698361276,0.031383270822323714,nan
1740789292.5755053,0.07765670893107979,-0.3002716654032844,-0.14258693122055013,0.04534637156515829,nan
1740789292.579411,0.08347150628878758,-0.31496220168441325,-0.1525540425875749,0.05964196277452918,nan
1740789292.583317,0.08976661558797229,-0.32729571733752827,-0.15965902012236854,0.07407253139412474,nan
1740789292.5872266,0.09638704821573905,-0.3371176417763452,-0.16395580083492853,0.0884396105989804,nan
1740789292.5911326,0.10317341417658274,-0.3442975185506554,-0.1655228948208471,0.1025460329851946,nan
1740789292.5950384,0.10996388789990542,-0.34873033498197187,-0.16446212174822591,0.11619816701670126,nan
1740789292.5989442,0.11659619743582027,-0.35033760113062423,-0.16089714676838432,0.1292081127347317,nan
1740789292.60285,0.12290961540359362,-0.34906816658466894,-0.1549718327804484,0.1413958331879926,nan
1740789292.606756,0.12874693009886873,-0.3448987661485607,-0.14684842752983776,0.15259119873923113,nan
