timestamps,TP9,AF7,AF8,TP10,Right AUX
1740789314.0082197,0.10176760195227857,-0.49551440938471547,0.3602548160284363,0.2269892450597,nan
1740789314.0121255,0.10050492698396073,-0.4967864669425562,0.3409098873724218,0.21952604666755793,nan
1740789314.0160313,0.09744233749522986,-0.49546654107614335,0.3181691590448204,0.20946374560340603,nan
1740789314.0199373,0.09265312020564735,-0.49160364186065686,0.29217384218704295,0.19688167983267937,nan
1740789314.023843,0.0862314340304223,-0.48527080518273,0.26309668729567215,0.18188521400413243,nan
1740789314.0277488,0.07829128810936212,-0.47656419077950196,0.23114054056631422,0.16460474475571585,nan
1740789314.0316546,0.0689653026490515,-0.4656019462658026,0.19653660071703868,0.14519445188241226,nan
1740789314.0355606,0.0584032652236288,-0.452522849579331,0.1595423925263709,0.12383080752378303,nan
1740789314.0394664,0.046770497339856505,-0.43748474452782393,0.12043947617568988,0.10071085797200849,nan
1740789314.0433722,0.03424604808341476,-0.4206627862218228,0.07953091415603551,0.07605029500032545,nan
1740789314.0472782,0.021020733504552063,-0.4022475151004781,0.03713851995786267,0.05008133574393008,nan
1740789314.051184,0.007295042053464231,-0.3824427799866795,-0.0064000850157299805,0.023050432109067633,nan
1740789314.055093,-0.006723072178344334,-0.361463532124124,-0.05073457790885284,-0.004784167578245597,nan
1740789314.0589988,-0.020820485429991802,-0.3395335134376855,-0.09550517415855564,-0.033154980462369074,nan
1740789314.0629046,-0.034781265485594945,-0.3168828633067209,-0.14034596905178026,-0.061787949096223024,nan
1740789314.0668106,-0.04838907341506527,-0.2937456689383069,-0.1848883485421563,-0.09040517292117992,nan
1740789314.0707164,-0.06142958063307241,-0.2703574849660931,-0.22876443602044771,-0.11872768403082869,nan
1740789314.0746222,-0.07369287583427873,-0.24695284817514862,-0.27161054130765333,-0.1464782394812216,nan
1740789314.0785282,-0.08497583639067255,-0.2237628132615116,-0.31307057804967003,-0.17338410220741265,nan
1740789314.082434,-0.09508443908633829,-0.20101253527707505,-0.3527994159386235,-0.19917978268260597,nan
1740789314.0863397,-0.10383598561368688,-0.17891892388913497,-0.3904661347663374,-0.2236097138112222,nan
1740789314.0902455,-0.11106121905829013,-0.15768839380463895,-0.42575714822501537,-0.24643083217774733,nan
1740789314.0941515,-0.11660630864904406,-0.13751473468032233,-0.45837916660014477,-0.2674150396729629,nan
1740789314.0980573,-0.12033468133666447,-0.11857712257206551,-0.48806196903956756,-0.2863515206796589,nan
1740789314.1019661,-0.12212868027358315,-0.10103829348309178,-0.514560957915437,-0.3030488914096689,nan
1740789314.105872,-0.12189103198763723,-0.08504289786651725,-0.5376594699048612,-0.3173371596293328,nan
1740789314.1097777,-0.11954610595322959,-0.07071605304068738,-0.5571708207796937,-0.3290694748750605,nan
1740789314.1136837,-0.1150409523481684,-0.058162108405278044,-0.5729400634932073,-0.3381236513262257,nan
1740789314.1175895,-0.10834610602116779,-0.04746363612346747,-0.5848454419556136,-0.344403447748654,nan
1740789314.1214952,-0.09945614706181212,-0.038680657583406185,-0.592799525874194,-0.34783959132644376,nan
1740789314.125401,-0.08839001083780351,-0.031850113494788,-0.5967500151675538,-0.3483905347387743,nan
1740789314.129307,-0.07519104291875657,-0.026985582938704653,-0.596680205716506,-0.34604293848670303,nan
1740789314.1332128,-0.059926796915821486,-0.024077254097137984,-0.5926091115538513,-0.34081187320632106,nan
1740789314.1371186,-0.042688575905808414,-0.023092146768804018,-0.5845912419890829,-0.33274073949201016,nan
1740789314.1410246,-0.023590720750294482,-0.02397458415756051,-0.5727160355777868,-0.32190090556903767,nan
1740789314.1449304,-0.002769651237860606,-0.02664690882480732,-0.5571069562455673,-0.30839106597050253,nan
1740789314.148839,0.01961733145575638,-0.031010435154971917,-0.5379202602286446,-0.2923363271614567,nan
1740789314.1527448,0.043393470005198706,-0.03694662821912818,-0.5153434457645445,-0.2738870287851804,nan
1740789314.1566505,0.06836419049934662,-0.044318496561312926,-0.48959340062371226,-0.25321731185575574,nan
1740789314.1605563,0.09431894070027477,-0.052972184199372364,-0.4609142655849661,-0.2305234477607192,nan
1740789314.1644623,0.12103320925658909,-0.06273874504994924,-0.4295750347941087,-0.2060219443423672,nan
1740789314.168368,0.14827070619328003,-0.07343608107700804,-0.39586691657728906,-0.17994744757192913,nan
1740789314.1722739,0.17578568325540164,-0.08487102374451759,-0.3601004806823474,-0.15255045939498413,nan
1740789314.17618,0.2033253711488948,-0.09684153684443825,-0.32260262006795903,-0.12409489418813271,nan
1740789314.1800857,0.2306325094146949,-0.10913901748634483,-0.28371335723032565,-0.09485549790750107,nan
1740789314.1839914,0.25744794360613926,-0.12155067098834416,-0.24378252663114489,-0.06511515541231352,nan
1740789314.1878972,0.2835132636259214,-0.13386193461109291,-0.20316636605266675,-0.035162112597414454,nan
1740789314.1918032,0.3085734565268243,-0.14585892453622776,-0.16222405064254128,-0.0052871408553803465,nan
1740789314.1957142,0.33237954679639525,-0.15733088021299307,-0.12131420401313561,0.024219327997424905,nan
1740789314.19962,0.3546911971336641,-0.16807258018546514,-0.08079142102038496,0.0530700678622557,nan
1740789314.2035258,0.37527924298683446,-0.17788670376788948,-0.04100283676291117,0.08098389704724936,nan
1740789314.2074318,0.3939281346531225,-0.18658611345494366,-0.002284775913338251,0.10768846121798598,nan
1740789314.2113376,0.4104382615410299,-0.19399603373226024,0.03504048427593526,0.1329229328379997,nan
1740789314.2152433,0.4246281342544258,-0.19995610298260033,0.07066780505360011,0.1564406001204826,nan
1740789314.219149,0.436336401466995,-0.2043222764545728,0.10431210052482406,0.1780113195749368,nan
1740789314.2230551,0.4454236801028023,-0.20696855976098322,0.13571104620546778,0.19742380755465683,nan
1740789314.226961,0.45177417910914536,-0.2077885540879299,0.16462755472890628,0.2144877477800374,nan
1740789314.2308667,0.45529709908464583,-0.20669679620633163,0.19085199396191463,0.2290356936133035,nan
1740789314.2347727,0.45592779218955426,-0.20362987846571076,0.21420412533965433,0.2409247458749955,nan
1740789314.2386785,0.4536286690955057,-0.19854733619449355,0.23453474300915456,0.25003798920144765,nan
1740789314.242589,0.4483898422057731,-0.19143229230954045,0.2517269973486371,0.25628567232403004,nan
1740789314.246495,0.44022949697006286,-0.18229185142580473,0.2656973895772009,0.2596061201815364,nan
1740789314.2504008,0.4291939858047208,-0.1711572383300148,0.2763964274547231,0.25996636843185195,nan
1740789314.2543066,0.41535764188312224,-0.15808367831391315,0.28380893546285696,0.2573625136816932,nan
1740789314.2582123,0.39882231285490455,-0.14315001952627818,0.2879540163210621,0.2518197755765218,nan
1740789314.2621183,0.37971661735855883,-0.12645810017164114,0.2888846641922751,0.24339226975868494,nan
1740789314.266024,0.3581949299819239,-0.10813186603015636,0.28668703343633123,0.23216249358199037,nan
1740789314.26993,0.33443610307118177,-0.08831624637057148,0.2814793702404792,0.218240529336637,nan
1740789314.273836,0.3086419364635448,-0.06717579885013292,0.2734106178607123,0.20176297256109738,nan
1740789314.2777417,0.28103540879495964,-0.04489313641582192,0.26265870951092624,0.18289159576913888,nan
1740789314.2816474,0.25185868648560217,-0.0216671515156863,0.24942856610594696,0.1618117605729909,nan
1740789314.2855532,0.22137092880797232,0.002288944926292411,0.2339498190673343,0.13873059371140153,nan
1740789314.2894604,0.18984590957118788,0.02674975034560241,0.21647428120705625,0.11387494486830457,nan
1740789314.2933662,0.1575694778889951,0.05147994197609179,0.19727319128537518,0.0874891463704948,nan
1740789314.2972722,0.12483688221776666,0.07623667011586115,0.1766342601690172,0.059832596858474654,nan
1740789314.301178,0.09194998333655655,0.10077204910110978,0.15485854857027861,0.031177192813579502,nan
1740789314.3050838,0.059214383178271136,0.12483572076776155,0.13225720810574856,0.0018046333781096284,nan
1740789314.3089898,0.02693649739597324,0.14817746433270218,0.10914811885665394,-0.027996374792117786,nan
1740789314.3128955,-0.004579399749531242,0.17054982604089788,0.08585245772613466,-0.05793298486524538,nan
1740789314.3168013,-0.0350341291734331,0.19171074160809456,0.06269123266010956,-0.08771112082032896,nan
1740789314.320707,-0.06413653027956569,0.21142612444522482,0.039981818219201375,-0.11703840306364477,nan
1740789314.324613,-0.09160632481317439,0.2294723928811814,0.018034528054256198,-0.14562705946317578,nan
1740789314.3285189,-0.11717689270705445,0.24563891010374517,-0.0028507404541937586,-0.1731967926901198,nan
1740789314.3324246,-0.1405979321014101,0.25973031130984126,-0.02238775477982986,-0.19947757514684392,nan
1740789314.3363373,-0.16163797672391544,0.2715686935889176,-0.040307055442562106,-0.22421234343843832,nan
1740789314.3402433,-0.18008674509286327,0.28099564534745725,-0.056358891531903335,-0.24715956530384206,nan
1740789314.344149,-0.19575729754121088,0.28787409360615923,-0.07031595295188538,-0.2680956531531857,nan
1740789314.348055,-0.20848797883880546,0.29208994924965276,-0.08197587075756078,-0.2868171998490114,nan
1740789314.351961,-0.21814412619731577,0.2935535322645708,-0.09116345922696957,-0.30314301410585426,nan
1740789314.3558667,-0.22461952465847068,0.2922007611466004,-0.09773267585843849,-0.3169159348486062,nan
1740789314.3597724,-0.2278375942701071,0.28799409296948075,-0.10156827827672664,-0.3280044060459408,nan
1740789314.3636782,-0.22775229602304878,0.2809232030662796,-0.10258716004553457,-0.33630379589964,nan
1740789314.3675842,-0.22434874623042966,0.2710053958512388,-0.10073935058899086,-0.34173744680071505,nan
1740789314.37149,-0.21764353185331822,0.2582857409836286,-0.09600866778946407,-0.3442574451339666,nan
1740789314.3753958,-0.2076847221850919,0.24283693181668511,-0.08841301532030114,-0.3438451027976606,nan
1740789314.3793018,-0.19455157527349745,0.22475886585768928,-0.07800432035551298,-0.34051114517694236,nan
1740789314.3832114,-0.17835394045456815,0.20417794976155984,-0.0648681109384158,-0.33429560323988006,nan
1740789314.3871171,-0.15923136136724048,0.18124613416221677,-0.04912273595176648,-0.32526741038473855,nan
1740789314.391023,-0.13735188678183308,0.15613968638519382,-0.03091823427643696,-0.3135237076266216,nan
1740789314.394929,-0.11291059948035317,0.12905771175424405,-0.010434863317729394,-0.299188863641657,nan
1740789314.3988347,-0.0861278762427675,0.10022043677676509,0.012118699417919994,-0.28241321905810485,nan
1740789314.4027405,-0.05724739469291474,0.06986726994181444,0.03650746463331677,-0.2633715671673362,nan
1740789314.4066463,-0.026533905313511165,0.03825465816544542,0.06247252915349098,-0.24226138589582935,nan
1740789314.4105523,0.005729210674159913,0.005653759047298071,0.08973374012565155,-0.21930083840500217,nan
1740789314.414458,0.03924257467779534,-0.027652048961647004,0.11799259938087006,-0.19472656204369282,nan
1740789314.4183638,0.07369361048456398,-0.061369794657941824,0.14693537927327444,-0.1687912675441499,nan
1740789314.4222698,0.10875948379041998,-0.095199655137813,0.17623641903043824,-0.14176117230482277,nan
1740789314.4261756,0.14411015341892613,-0.12883778324526163,0.2055615686675582,-0.11391329332174142,nan
1740789314.430085,0.17941150492528424,-0.1619791938750336,0.23457174585864332,-0.08553262679736305,nan
1740789314.4339907,0.2143285363495094,-0.19432068087658888,0.26292656983826274,-0.056909242656129344,nan
1740789314.4378965,0.24852856524454647,-0.22556373587145026,0.2902880354419737,-0.02833532311690274,nan
1740789314.4418023,0.28168442576791525,-0.2554174401467199,0.3163241897933779,-0.00010217510417731082,nan
1740789314.4457083,0.3134776245938352,-0.2836013009247467,0.3407127739184516,0.027502753384653522,nan
1740789314.449614,0.3436014246781733,-0.3098480037323783,0.3631447917172079,0.05419882280377364,nan
1740789314.4535198,0.37176382648945666,-0.33390605329971657,0.38332796924896284,0.07971508758956936,nan
1740789314.4574258,0.39769041720117393,-0.3555422764017596,0.4009900681870165,0.10379308837819504,nan
1740789314.4613316,0.42112705951612794,-0.3745441613079129,0.41588201856409196,0.12618952245219295,nan
1740789314.4652374,0.4418423932521899,-0.3907220100124026,0.42778083755042773,0.146678765106669,nan
1740789314.4691432,0.4596301245474823,-0.40391088116927476,0.4364923029676596,0.16505521605053608,nan
1740789314.4730492,0.4743110795255183,-0.41397230363193405,0.441853352525454,0.18113544664631276,nan
1740789314.4769578,0.48573500147890686,-0.4207957426805716,0.44373418235328466,0.1947601257270568,nan
1740789314.4808636,0.49378207306296407,-0.4242998033900728,0.44204002126243974,0.205795703892524,nan
1740789314.4847693,0.49836414761474096,-0.42443315812327304,0.4367125602862404,0.21413583855767998,nan
1740789314.4886754,0.49942567650381475,-0.4211751878052007,0.4277310203800145,0.2197025445823788,nan
1740789314.4925811,0.49694432235162567,-0.41453632941699703,0.41511284468441983,0.22244705802624243,nan
1740789314.496487,0.4909312509982033,-0.4045581250164899,0.3989140054325813,0.22235040342116305,nan
1740789314.500393,0.48143109821914176,-0.3913129705175248,0.379228919377297,0.21942365790727836,nan
1740789314.5042987,0.468521610371405,-0.3749035654134827,0.35618996949255055,0.21370790860772976,nan
1740789314.5082045,0.4523129613429797,-0.3554620675826366,0.32996663462569514,0.20527390269303603,nan
1740789314.5121102,0.4329467513671007,-0.3331489602348057,0.30076423270439256,0.1942213926769585,nan
1740789314.5160162,0.4105946964055738,-0.3081516409212292,0.26882228699713767,0.18067818256166224,nan
1740789314.519922,0.38545701987645986,-0.28068274530398046,0.23441252874910684,0.1647988834799753,nan
1740789314.5238307,0.3577605614685953,-0.2509782210398266,0.19783655322823923,0.14676339043633166,nan
1740789314.5277364,0.32775662061965377,-0.2192951696495983,0.15942314978274716,0.12677509459593023,nan
1740789314.5316422,0.2957185549072041,-0.1859094765922548,0.11952532989457303,0.10505884828490052,nan
1740789314.5355482,0.26193915608666807,-0.1511132519192924,0.07851708037962599,0.08185870241544208,nan
1740789314.539454,0.22672782878108055,-0.11521210582787302,0.036789871802499076,0.057435438413043785,nan
1740789314.5433598,0.19040759886183928,-0.07852228514006845,-0.005251045189183348,0.032063918873635106,nan
1740789314.5472655,0.15331198033643514,-0.041367698193330284,-0.047190520574933725,0.0060302830949804,nan
1740789314.5511715,0.11578173105977621,-0.004076856818352394,-0.08860752568091193,-0.020370984711450407,nan
1740789314.5550773,0.07816152879451446,0.03302023500770224,-0.12907927522696502,-0.046840085331718635,nan
1740789314.558983,0.04079660004949473,0.06959521562206798,-0.16818541074347873,-0.07307500228391133,nan
1740789314.5628889,0.004029334714094011,0.10532449271456237,-0.2055122045097361,-0.09877463627132906,nan
1740789314.5667949,-0.03180408022733086,0.13989233238057303,-0.24065674267084577,-0.12364194475299349,nan
1740789314.570703,-0.06637697467641984,0.17299387990240297,-0.2732310460988084,-0.14738705484727568,nan
1740789314.574609,-0.09937542425929759,0.20433808254855446,-0.302866087877758,-0.16973031791865428,nan
1740789314.5785148,-0.13050136189580155,0.2336504855519119,-0.32921566701324545,-0.19040527464876075,nan
1740789314.5824206,-0.15947554100257372,0.2606758735867491,-0.35196009908552855,-0.20916150015773233,nan
1740789314.5863264,-0.186040320573183,0.28518073150057427,-0.3708096860785673,-0.22576729981403124,nan
1740789314.5902324,-0.20996224401665878,0.3069554997567031,-0.3855079295071684,-0.24001222774103514,nan
1740789314.5941381,-0.231034385557501,0.3258166019911927,-0.39583445321796956,-0.2517094016842714,nan
1740789314.598044,-0.24907844018760744,0.3416082242647906,-0.40160760483583147,-0.26069758982900854,nan
1740789314.6019497,-0.2639465355934182,0.3542038279763134,-0.4026867077421794,-0.2668430473359351,nan
1740789314.6058557,-0.27552274713698965,0.36350738097509533,-0.39897393867927766,-0.27004108277229716,nan
1740789314.6097615,-0.2837242998226309,0.36945429414233966,-0.3904158095446849,-0.2702173372341633,nan
1740789314.6136672,-0.2885024442040295,0.37201205357762096,-0.3770042356408606,-0.26732876175730824,nan
1740789314.6175752,-0.28984299635147404,0.37118054149961693,-0.35877717654136165,-0.2613642815725363,nan
1740789314.621481,-0.28776653527449864,0.36699204202026453,-0.33581883979039645,-0.2523451388474119,nan
1740789314.6253867,-0.28232825455027505,0.3595109310490497,-0.3082594418282086,-0.24032490874019638,nan
1740789314.6292927,-0.27361746830989203,0.3488330526985132,-0.27627452479091663,-0.22538918684224082,nan
1740789314.6331985,-0.26175677515003537,0.33508478766254035,-0.24008383212906848,-0.20765494937005502,nan
1740789314.6371043,-0.24690088693308282,0.31842182209484676,-0.1999497502829388,-0.1872695907554616,nan
1740789314.6410103,-0.22923513278093507,0.2990276284958872,-0.1561753279027454,-0.1644096465389386,nan
1740789314.644916,-0.20897365182378755,0.2771116729924241,-0.10910188826698278,-0.13927921266507307,nan
1740789314.6488218,-0.18635729140243093,0.25290736613640497,-0.05910625459131981,-0.1121080753780124,nan
1740789314.6527276,-0.1616512304099978,0.22666977693095458,-0.006597611793923244,-0.08314956888774282,nan
1740789314.6566336,-0.13514235026642674,0.19867313218509727,0.04798596804761101,-0.05267818079480377,nan
1740789314.6605394,-0.10713637861802457,0.16920812548104525,0.10418130588395993,-0.020986927893219074,nan
1740789314.6644466,-0.0779548332186899,0.1385790619859851,0.16150416770940007,0.01161547260833069,nan
1740789314.6683524,-0.04793179555447353,0.10710086703436217,0.21945355174176312,0.044807609223402135,nan
1740789314.6722581,-0.017410545597288298,0.0750959878289672,0.2775161715944339,0.07825853053496291,nan
1740789314.6761642,0.013259909402568139,0.042891218744603186,0.3351710941209004,0.11163101696088248,nan
1740789314.68007,0.04372837796817515,0.010814481554586242,0.3918944888506292,0.1445849377990387,nan
1740789314.6839757,0.07364506429789001,-0.020808407571536812,0.44716444457776977,0.17678066037903012,nan
1740789314.6878817,0.10266514948628122,-0.0516569522372855,0.5004658077266207,0.20788247743733598,nan
1740789314.6917875,0.1304523383431922,-0.08141913919821375,0.5512949966112874,0.23756201845549307,nan
1740789314.6956933,0.15668233625099245,-0.10979451941567742,0.5991647456387156,0.2655016106618812,nan
1740789314.699599,0.1810462210120712,-0.13649717598790911,0.6436087338774831,0.2913975556992501,nan
1740789314.703505,0.20325367549830087,-0.16125854920700908,0.6841860532280187,0.3149632886008976,nan
1740789314.7074108,0.22303604811496774,-0.18383009033605524,0.7204854726780071,0.3359323866939433,nan
1740789314.7113206,0.2401492096235614,-0.20398571733332418,0.7521294567999528,0.35406139735058956,nan
1740789314.7152264,0.25437617671746915,-0.22152404765546369,0.7787778987324121,0.36913245512650894,nan
1740789314.7191324,0.2655294748956164,-0.23627038543041096,0.8001315303644816,0.38095566074523995,nan
1740789314.7230382,0.27345321561202846,-0.24807844268349183,0.815934975293111,0.3893711965915275,nan
1740789314.726944,0.27802486537172405,-0.25683177690353154,0.8259794133192735,0.39425115584462156,nan
1740789314.73085,0.27915668737041544,-0.2624449300248253,0.8301048287632055,0.39550106509180993,nan
1740789314.7347558,0.27679683940977357,-0.2648642568486271,0.828201818678788,0.39306108318760663,nan
1740789314.7386615,0.2709301151320224,-0.2640684340055206,0.8202129410978152,0.38690686223732235,nan
1740789314.7425673,0.26157831907584034,-0.2600686437377036,0.806133587698805,0.3770500598557176,nan
1740789314.7464733,0.24880026962707985,-0.25290843002656394,0.7860123697325109,0.363538495250655,nan
1740789314.750379,0.23269142758831796,-0.24266322787392955,0.7599510106057508,0.3464559451755055,nan
1740789314.7542849,0.21338315178544712,-0.2294395698326014,0.7281037431835153,0.3259215793485659,nan
1740789314.7581944,0.19104158683164288,-0.21337397714037531,0.6906762145724201,0.3020890385183653,nan
1740789314.7621002,0.16586619184291163,-0.1946315460093582,0.6479239058516679,0.2751451619254043,nan
1740789314.766006,0.13808792250901625,-0.17340424272673888,0.600150078875728,0.24530837443839734,nan
1740789314.769912,0.10796708243322493,-0.14990892420303428,0.5477032668411373,0.2128267470914723,nan
1740789314.7738178,0.07579086302930696,-0.12438510342900111,0.490974329744039,0.1779757480838282,nan
1740789314.7777236,0.04187059447061425,-0.09709248194399918,0.43039310011214726,0.14105570449141833,nan
1740789314.7816296,0.006538733191784767,-0.06830827384950605,0.36642464843312644,0.10238899794922038,nan
1740789314.7855353,-0.02985438578197149,-0.0383243480965415,0.2995652014812149,0.06231702036195339,nan
1740789314.789441,-0.0669440008883728,-0.007444217711994225,0.2303377502277373,0.02119691826184144,nan
1740789314.793347,-0.10435454744586084,0.024020093714289023,0.15928738717416097,-0.020601843272328155,nan
1740789314.797253,-0.14170341749758184,0.0557512766000505,0.08697641573668698,-0.06270106421421734,nan
1740789314.8011587,-0.17860481955378496,0.08743001826967593,0.013979276710463477,-0.1047175060908513,nan
1740789314.805068,-0.21467370046258744,0.11873831072920715,-0.05912266117557828,-0.14626666540307978,nan
1740789314.8089738,-0.24952969075848164,0.14936274947429595,-0.13174639805665853,-0.1869665869619379,nan
1740789314.8128796,-0.2828010343299281,0.17899778943615535,-0.20331263743499928,-0.22644167947312882,nan
1740789314.8167853,-0.31412846311924414,0.20734892445940148,-0.27325110811565356,-0.26432649540365183,nan
1740789314.8206913,-0.3431689778233532,0.23413575733418135,-0.3410058231548397,-0.3002694372377019,nan
1740789314.8245971,-0.3695994962029483,0.2590949283686919,-0.40604022573132864,-0.3339363526751361,nan
1740789314.828503,-0.3931203316263695,0.2819828717792351,-0.4678421726612674,-0.3650139821431034,nan
1740789314.832409,-0.413458465865756,0.302578370782322,-0.5259287075603954,-0.3932132231744756,nan
1740789314.8363147,-0.430370581915699,0.320684884182671,-0.5798505774051363,-0.4182721777463572,nan
1740789314.8402205,-0.4436458247040864,0.3361326194449533,-0.6291964484413786,-0.4399589505556888,nan
1740789314.8441262,-0.4531082599931333,0.3487803296955269,-0.6735967800183276,-0.45807416842065357,nan
1740789314.8480322,-0.4586190045043639,0.3585168148002109,-0.7127273179618886,-0.47245319351715087,nan
1740789314.8519409,-0.46007800332021653,0.3652621095799259,-0.7463121725209658,-0.4829680059664595,nan
1740789314.8558466,-0.457425433889652,0.3689683453298934,-0.7741264496902386,-0.48952873435818395,nan
1740789314.8597524,-0.4506427194657607,0.36962027407037906,-0.7959984088004968,-0.49208481609352184,nan
1740789314.8636582,-0.43975313849764536,0.3672354483460372,-0.8118111236352784,-0.4906257729375365,nan
1740789314.8675642,-0.42482202035242106,0.36186405287390333,-0.8215036289403743,-0.48518159084273327,nan
1740789314.87147,-0.40595652171995705,0.3535883878828162,-0.825071538998188,-0.4758226969154374,nan
1740789314.8753757,-0.3833049821154848,0.34252200755469214,-0.82256712989746,-0.4626595303052588,nan
1740789314.8792818,-0.3570558610048097,0.3288085205352501,-0.8140988821941115,-0.44584170776909476,nan
1740789314.8831875,-0.32743626319438607,0.3126200629930572,-0.7998304857835314,-0.4255567886566569,nan
1740789314.8870933,-0.29471006321427023,0.29415545813587846,-0.7799793139401284,-0.40202864804591154,nan
1740789314.890999,-0.2591756434364452,0.27363807940763485,-0.7548143785777612,-0.3755154706853406,nan
1740789314.894905,-0.22116326457505367,0.2513134377540203,-0.7246537837961704,-0.3463073822373203,nan
1740789314.8988132,-0.18103209097036146,0.2274465163275774,-0.6898616996558052,-0.3147237380252451,nan
1740789314.902719,-0.13916689662760756,0.2023188787728214,-0.6508448828194795,-0.2811100930296189,nan
1740789314.906625,-0.09597448132967663,0.17622557975983333,-0.6080487751686205,-0.24583488021962172,nan
1740789314.9105308,-0.05187982923491696,0.14947190869375057,-0.5619532157009106,-0.20928582741296675,nan
1740789314.9144366,-0.007322045176978116,0.12236999949344263,-0.5130678049036473,-0.1718661456963616,nan
1740789314.9183426,0.037249893626918204,0.0952353409836291,-0.4619269643345975,-0.13399052498224276,nan
1740789314.9222484,0.08138153060539227,0.06838322376209212,-0.4090847372941412,-0.09608097449778207,nan
1740789314.9261541,0.12461742596404927,0.04212516037181271,-0.35510937920709396,-0.058562547875686204,nan
1740789314.93006,0.16650571288535074,0.016765316214619876,-0.30057778862163775,-0.021858994022277686,nan
1740789314.933966,0.2066026697686663,-0.007403011120672843,-0.2460698315521262,0.013611623940677147,nan
1740789314.9378717,0.2444772639003622,-0.03010082658181495,-0.19216261322235526,0.047441298641613144,nan
1740789314.9417775,0.2797156217850306,-0.05106674941094423,-0.13942475209091598,0.07923639400010928,nan
1740789314.9456856,0.3119253816377267,-0.07006016581086624,-0.08841071134984295,0.10862186311258086,nan
1740789314.9495914,0.34073988423424123,-0.08686418765504783,-0.03965524287611582,0.13524532577134682,nan
1740789314.9534972,0.3658221594386989,-0.1012883839978601,0.0063320021183052005,0.15878096384071155,nan
1740789314.957403,0.38686866726781083,-0.11317125411001727,0.04907164274432192,0.17893319405904973,nan
1740789314.961309,0.4036127542976364,-0.12238241306343234,0.088119467169342,0.19544007958203743,nan
1740789314.9652147,0.4158277885564992,-0.1288244635000101,0.12307101145183375,0.2080764437157899,nan
1740789314.9691205,0.42332993875768576,-0.13243453011733045,0.1535657722363903,0.21665665179257004,nan
1740789314.9730265,0.4259805667851342,-0.13318543656482518,0.17929101025766056,0.22103702999515024,nan
1740789314.9769323,0.42368820572829013,-0.13108650783826706,0.19998510521719387,0.2211178931146298,nan
1740789314.980838,0.4164100994393769,-0.12618398485707102,0.21544042660826906,0.21684515670297433,nan
1740789314.9847438,0.4041532835251294,-0.11856104167463488,0.22550568943482602,0.20821151282529973,nan
1740789314.9886498,0.38697519185059986,-0.10833739967156855,0.23008776846261614,0.19525715259469892,nan
1740789314.9925632,0.364983776987536,-0.09566853707828495,0.22915294961160237,0.17807002284846674,nan
1740789314.9964693,0.3383371375446608,-0.08074449622904448,0.22272760230327626,0.15678560866112012,nan
1740789315.000375,0.3072426499307973,-0.06378829502521362,0.21089826196770878,0.1315862378469801,nan
1740789315.0042808,0.2719556067818114,-0.04505395314176913,0.19381111744316598,0.10269990814223412,nan
1740789315.0081866,0.2327773689854015,-0.024824147508427607,0.1716709036152033,0.070398642331227,nan
1740789315.0120926,0.1900530429200114,-0.003407515495824404,0.1447392052901902,0.03499638115148321,nan
1740789315.0159984,0.1441686991416025,0.018864372000773073,0.1133321839275358,-0.003153571666439891,nan
1740789315.0199041,0.09554815326097063,0.04164034180036369,0.07781774441286561,-0.04366153343756534,nan
1740789315.0238101,0.04464933411183676,0.06455322484152742,0.03861216448857289,-0.08610483255566019,nan
1740789315.027716,-0.008039731525897048,0.08722370546735415,-0.00382378528287659,-0.13003157731463685,nan
1740789315.0316217,-0.062005284452854595,0.10926437845074179,-0.04898919811389831,-0.17496477240436428,nan
1740789315.0355275,-0.11671251197367367,0.13028397607684888,-0.09634782647602941,-0.22040674831284546,nan
1740789315.0394378,-0.17161050001421918,0.14989172539146367,-0.14533327436415258,-0.26584386550205685,nan
1740789315.0433435,-0.22613741522158448,0.16770179387636536,-0.19535454015392614,-0.31075145218353833,nan
1740789315.0472496,-0.2797258712007796,0.18333778034693005,-0.2458018601912282,-0.35459893183315117,nan
1740789315.0511553,-0.33180843080701244,0.19643720680088458,-0.2960528000175826,-0.39685509428033655,nan
1740789315.055061,-0.38182319460151865,0.20665596629459657,-0.3454785373730773,-0.43699346231034786,nan
1740789315.058967,-0.4292194242122779,0.21367268169492487,-0.393450278856623,-0.47449770424945736,nan
1740789315.062873,-0.4734631484347706,0.21719293035692064,-0.43934575038661994,-0.5088670419801841,nan
1740789315.0667787,-0.514042699474394,0.21695329041302452,-0.48255570041247425,-0.5396216032696014,nan
1740789315.0706844,-0.5504741267789798,0.212725165426171,-0.5224903541932647,-0.566307667197671,nan
1740789315.0745904,-0.5823064364405655,0.20431834565170987,-0.5585857573935382,-0.588502751849316,nan
1740789315.0784962,-0.6091266051591596,0.1915842660614816,-0.5903099477516767,-0.6058204942840715,nan
1740789315.082402,-0.6305643192523199,0.1744189235939215,-0.6171688946525054,-0.6179152741167522,nan
1740789315.086315,-0.6462963911530535,0.15276541878909605,-0.6387121480761989,-0.6244865338235561,nan
1740789315.0902207,-0.6560508082507602,0.12661609002554114,-0.654538140588498,-0.6252827511177785,nan
1740789315.0941267,-0.6596103717771228,0.09601421197173803,-0.6642990887659568,-0.620105021401268,nan
1740789315.0980325,-0.6568158866985956,0.06105523357051246,-0.6677054436924827,-0.6088102113710002,nan
1740789315.1019382,-0.6475688672228916,0.02188753485805441,-0.6645298438931954,-0.5913136483200427,nan
1740789315.1058443,-0.6318337265285912,-0.021287313853780163,-0.6546105282573282,-0.5675913134903241,nan
1740789315.10975,-0.6096394236509599,-0.06821480246980012,-0.6378541711078393,-0.5376815119790229,nan
1740789315.1136558,-0.5810805450666622,-0.11858824871558887,-0.6142381065619551,-0.501685996136082,nan
1740789315.1175616,-0.5463178033756065,-0.17205008556365148,-0.5838119146507348,-0.4597705240792154,nan
1740789315.1214676,-0.5055779405376422,-0.22819366638148475,-0.5466983472801074,-0.4121648398543215,nan
1740789315.1253734,-0.45915302834099225,-0.2865655808513408,-0.503093577971339,-0.3591620668406194,nan
1740789315.1292791,-0.40739916411231125,-0.34666846986616856,-0.45326676536336863,-0.30111751119654123,nan
1740789315.1331885,-0.3507345650777511,-0.40796432281060924,-0.397558926638997,-0.23844687741826986,nan
1740789315.1370945,-0.28963707020233165,-0.4698782359347336,-0.33638112329606323,-0.17162390339090783,nan
1740789315.1410003,-0.22464106372260623,-0.5318026059657133,-0.27021196796694635,-0.10117742760474512,nan
1740789315.144906,-0.15633383989643984,-0.5931017287222253,-0.19959446723809415,-0.027687906438259444,nan
1740789315.1488118,-0.08535143367545299,-0.6531167683400463,-0.12513222157885295,0.04821659547231863,nan
1740789315.1527178,-0.012373947012988249,-0.7111710588253949,-0.04748500949925241,0.12586491379671177,nan
1740789315.1566236,0.06187959469282278,-0.7665756960633282,0.032636211135625585,0.20454775927061553,nan
1740789315.1605294,0.13665681699946486,-0.8186353751576091,0.11447484615534616,0.28352312140612335,nan
1740789315.1644354,0.21117795842786535,-0.8666544250989473,0.19723470877457,0.362022059687727,nan
1740789315.1683412,0.2846421729738329,-0.9099429902801036,0.2800865153139498,0.43925483690007383,nan
1740789315.172247,0.3562341225353697,-0.9478233063255165,0.3621747798571229,0.514417345711838,nan
1740789315.1761527,0.42513080560156996,-0.979636016102424,0.44262505071109415,0.5866977765194031,nan
1740789315.1800618,0.4905085659297676,-1.004746470648791,0.5205514279833211,0.6552834718653636,nan
1740789315.1839676,0.5515502227923218,-1.0225509591053012,0.5950642985539375,0.719367910517107,nan
1740789315.1878736,0.6074522627250356,-1.0324828115845501,0.6652782222356782,0.7781577625429597,nan
1740789315.1917794,0.6574320315735833,-1.0340183192564203,0.7303199010025887,0.8308799554765406,nan
1740789315.1956851,0.700734865025866,-1.0266824167758055,0.7893361618515429,0.8767886909284706,nan
1740789315.1995912,0.736641095745609,-1.0100540735243788,0.8415018831529577,0.9151723507985418,nan
1740789315.203497,0.7644728756898357,-0.9837713419743208,0.8860277942582485,0.9453602325661106,nan
1740789315.2074027,0.7836007531993331,-0.9475360137967623,0.9221680786655602,0.966729053992604,nan
1740789315.2113085,0.793449945991276,-0.901117837114693,0.9492277122003917,0.9787091689534583,nan
1740789315.2152145,0.7935062532465427,-0.844358251518406,0.9665694694367911,0.9807904380188748,nan
1740789315.2191203,0.7833215525558932,-0.7771736010963062,0.973620533954972,0.9725276998099263,nan
1740789315.223026,0.7625188305495364,-0.6995577897563298,0.9698786509843863,0.9535457920509338,nan
1740789315.2269347,0.7307966995596573,-0.6115843474906945,0.9549177644939102,0.9235440745981375,nan
1740789315.2308407,0.6879333566270521,-0.51340788093345,0.9283930848343773,0.882300410521976,nan
1740789315.2347465,0.6337899455288664,-0.405264886537131,0.8900455375796559,0.8296745655251097,nan
1740789315.2386522,0.5683132872387022,-0.2874739099101228,0.8397055492129651,0.7656109905562688,nan
1740789315.242558,0.49153794929366373,-0.16043504026575742,0.7772961307228043,0.6901409573933036,nan
1740789315.246464,0.4035876298929487,-0.02462873449157385,0.7028352259616655,0.6033840221764225,nan
1740789315.2503698,0.3046758381442173,0.11938602899535318,0.6164372977310956,0.5055487973308375,nan
1740789315.2542756,0.19510585765981797,0.27097426073255293,0.5183141309359377,0.39693301798070646,nan
1740789315.2581816,0.07526998663573543,0.42942812345151665,0.4087748387437281,0.277922894775234,nan
1740789315.2620873,-0.054351946428919024,0.5939707308271152,0.28822506443486834,0.14899175097335268,nan
1740789315.265993,-0.19319478614669008,0.763760558929916,0.1571653784765907,0.010697947614667056,nan
1740789315.269899,-0.34061096150819103,0.9378964421605188,0.01618887723909956,-0.1363178934102189,nan
1740789315.2738073,-0.49587408772242525,1.1154231202280562,-0.1340220033649094,-0.2913363526390953,nan
1740789315.277713,-0.6581832354726207,1.295337297761688,-0.29269943925599556,-0.4535633410777661,nan
1740789315.281619,-0.8266678387141899,1.4765941734593073,-0.4589949078800956,-0.6221348657219441,nan
1740789315.2855248,-1.0003932066420487,1.6581143913245564,-0.6319845830817128,-0.7961223997948321,nan
1740789315.2894306,-1.1783666002190292,1.8387913625616572,-0.810675395844676,-0.9745388196932434,nan
1740789315.2933364,-1.3595438287315567,2.017498903124521,-0.9940117157218448,-1.1563448656887798,nan
1740789315.2972424,-1.5428363172666661,2.1930991287857147,-1.180882602275319,-1.3404560788222086,nan
1740789315.3011482,-1.7271185918263199,2.3644505469319808,-1.3701295707633092,-1.5257501621997835,nan
1740789315.305054,-1.911236125048156,2.5304162821320464,-1.5605548116844574,-1.7110747110874804,nan
1740789315.30896,-2.09401348221971,2.6898723708810444,-1.750929799666596,-1.8952552528373674,nan
1740789315.3128657,-2.2742627044855617,2.841716059821123,-1.9400042236020594,-2.0771035347998255,nan
1740789315.3167715,-2.4507918638790045,2.984874041182415,-2.1265151669181828,-2.255425996002541,nan
1740789315.3206825,-2.622413723082713,3.118310559190053,-2.309196464457247,-2.429032356533966,nan
1740789315.3245883,-2.787954431652791,3.2410353217445538,-2.4867881606471904,-2.596744257272688,nan
1740789315.328494,-2.946262189838856,3.3521111528024656,-2.6580459924898006,-2.757403881867566,nan
1740789315.3323998,-3.096215811106186,3.4506613225549607,-2.8217508203882637,-2.9098824927044786,nan
1740789315.3363059,-3.2367331150158027,3.5358764947124595,-2.976717929986466,-3.0530888129968794,nan
1740789315.3402116,-3.366779083241444,3.607021232936648,-3.1218061289982004,-3.1859771881072882,nan
1740789315.3441174,-3.485373713190173,3.6634400116967343,-3.2559265644596294,-3.307555460738142,nan
1740789315.3480234,-3.591599505932637,3.7045626805386047,-3.378051187931348,-3.4168924967116134,nan
1740789315.3519292,-3.684608527921635,3.7299093349140326,-3.487220798890016,-3.5131253006721193,nan
1740789315.355835,-3.7636289892609214,3.7390945512885803,-3.5825525998611716,-3.5954656641713263,nan
1740789315.3597407,-3.82797128505288,3.731830949193619,-3.6632472007264893,-3.663206292207686,nan
1740789315.3636467,-3.8770334505726116,3.707932048169283,-3.7285950140575825,-3.7157263583609508,nan
1740789315.3675573,-3.9103059856514557,3.6673143931171075,-3.777981988246746,-3.7524964431529173,nan
1740789315.3714633,-3.927376008666465,3.609998927397136,-3.8108946305806715,-3.773082815141086,nan
1740789315.375369,-3.9279307058812982,3.536111599015423,-3.826924278190251,-3.777151019471144,nan
1740789315.3792748,-3.9117600475234813,3.445883191403592,-3.8257705809581712,-3.7644687441332265,nan
1740789315.3831809,-3.8787587478651444,3.3396483765402345,-3.8072441669233985,-3.7349079399391227,nan
1740789315.3870866,-3.8289274526495483,3.217843994451598,-3.771268467432238,-3.6884461762142933,nan
1740789315.3909924,-3.7623731434224443,3.081006569402609,-3.7178806861915734,-3.6251672203291374,nan
1740789315.3948982,-3.6793087546328254,2.9297690792954665,-3.647231903421727,-3.5452608354265185,nan
1740789315.3988042,-3.580052005708663,2.7648570008787186,-3.559586313423455,-3.4490217969842756,nan
1740789315.40271,-3.465023456635886,2.587083659282955,-3.4553196010045717,-3.3368481351292814,nan
1740789315.4066157,-3.334743801819699,2.39734491608923,-3.3349164692952127,-3.2092386158401447,nan
1740789315.4105217,-3.1898304231334556,2.1966132355542984,-3.19896733845594,-3.0667894802865274,nan
1740789315.414429,-3.0309932290098613,1.985931173716241,-3.0481642415896215,-2.9101904675023658,nan
1740789315.4183347,-2.859029812152119,1.7664043398409897,-2.883295950748122,-2.7402201513278635,nan
1740789315.4222407,-2.674819963890457,1.5391938840041157,-2.7052423722217034,-2.557740628032693,nan
1740789315.4261465,-2.479319588336618,1.305508568495432,-2.5149682562589826,-2.363691596204065,nan
1740789315.4300523,-2.2735540642521146,1.0665964841530626,-2.3135162719373326,-2.1590838753050305,nan
1740789315.433958,-2.0586111069059263,0.8237364756489978,-2.101999503040536,-1.9449924137399939,nan
1740789315.437864,-1.8356331861171804,0.5782293421346958,-1.8815934254585889,-1.7225488412692054,nan
1740789315.4417698,-1.6058095601261457,0.33138888149230855,-1.653527430764738,-1.4929336241585665,nan
1740789315.4456756,-1.3703679878840784,0.08453284770867246,-1.4190759642122992,-1.257367884506392,nan
1740789315.4495816,-1.1305661847752657,-0.16102610841559814,-1.1795493483988302,-1.0171049477297696,nan
1740789315.4534874,-0.8876830886636133,-0.4039894448969633,-0.9362843662431894,-0.7734216841995447,nan
1740789315.4573932,-0.6430100044767793,-0.6430816106856433,-0.6906346786925751,-0.52760971246879,nan
1740789315.461303,-0.39784169629324695,-0.8770587354643646,-0.44396115370807904,-0.2809665324340137,nan
1740789315.465209,-0.15346749607717539,-1.104717059946233,-0.19762218356045544,-0.034786657095097165,nan
1740789315.4691148,0.08883750218769812,-1.3249010416660687,0.04703593269976194,0.20964718866215887,nan
1740789315.4730206,0.3278210951752131,-1.5365110739746348,0.28868846554873373,0.4510727346442992,nan
1740789315.4769266,0.5622624034345172,-1.738510759174544,0.526041515476924,0.6882566310366304,nan
1740789315.4808323,0.7909800209404848,-1.9299336804525338,0.7578409851402195,0.9200026488523305,nan
1740789315.484738,1.0128398193554453,-2.1098896214331866,0.9828811933389152,1.1451595532313263,nan
1740789315.488644,1.2267623484673782,-2.277570186768066,1.200013064250112,1.3626285906113367,nan
1740789315.49255,1.4317297778282536,-2.4322537821422414,1.4081518291492905,1.5713705342048891,nan
1740789315.4964557,1.6267923286146522,-2.5733099173844147,1.6062841821812368,1.7704122360728731,nan
1740789315.5003614,1.8110741491354252,-2.7002028019617943,1.7934748365399646,1.9588526383526377,nan
1740789315.5042675,1.9837785921788413,-2.8124942079784567,1.968872432648498,2.1358682008389835,nan
1740789315.5081768,2.144192857482322,-2.9098455818259463,2.131714755545527,2.300717707088471,nan
1740789315.5120826,2.2916919679767145,-2.992019391805791,2.2813332246369376,2.452746416477556,nan
1740789315.5159886,2.4257420540570678,-3.058879705302497,2.4171566252031584,2.591389535147066,nan
1740789315.5198944,2.5459029259143957,-3.1103919953789374,2.5387140575132503,2.716174984461487,nan
1740789315.5238001,2.651829919877594,-3.1466221829402548,2.645637086026492,2.826725451451869,nan
1740789315.527706,2.743275010710579,-3.1677349268139654,2.7376610779041304,2.9227597116454875,nan
1740789315.531612,2.820087187835221,-3.1739911801701544,2.8146257268487522,3.004093220662476,nan
1740789315.5355177,2.882212099454096,-3.165745037605184,2.8764747650775244,3.0706379769283183,nan
1740789315.5394235,2.929690974477503,-3.1434399028851137,2.9232548729594696,3.1224016637603467,nan
1740789315.5433292,2.9626588379661043,-3.107604012743561,2.9551138024479995,3.1594860848861384,nan
1740789315.5472353,2.981342041435212,-3.058845357207608,2.972297736861657,3.1820849130928064,nan
1740789315.551141,2.9860551347818225,-2.9978460416423016,2.975147915753514,3.1904807771415333,nan
1740789315.5550501,2.9771971117460767,-2.9253561400202317,2.9640965595105997,3.1850417172656877,nan
1740789315.558956,2.955247065662272,-2.8421870928021193,2.939662133889406,3.1662170444609066,nan
1740789315.5628617,2.9207592967515175,-2.749204706225671,2.9024439998755485,3.1345326433312817,nan
1740789315.5667677,2.8743579163219857,-2.647321812715808,2.8531164990121516,3.090585762440497,nan
1740789315.5706735,2.8167309969409677,-2.537490654526755,2.792422528633772,3.035039339896832,nan
1740789315.5745792,2.748624320896466,-2.420695054586876,2.7211666652360202,2.968615915246638,nan
1740789315.5784853,2.670834782049992,-2.2979424398269863,2.640207897475684,2.8920911816364296,nan
1740789315.582391,2.5842034984759747,-2.170255783023277,2.5504520330069336,2.806287234607547,nan
1740789315.5862968,2.4896086950705016,-2.038665529373028,2.4528438454961408,2.7120655757920673,nan
1740789315.5902026,2.387958416581296,-1.9042015736460494,2.3483590297060832,2.6103199311717327,nan
1740789315.5941086,2.2801831322548907,-1.7678853528230798,2.2379960334904,2.5019689444347186,nan
1740789315.5980144,2.1672282935134257,-1.6307221176550706,2.1227678358868505,2.387948806314663,nan
1740789315.601923,2.050046905764691,-1.4936934445697927,2.003693740244545,2.2692058806235718,nan
1740789315.6058288,1.9295921746217723,-1.357750046834636,1.8817912504723802,2.1466893870006323,nan
1740789315.6097348,1.8068102854743469,-1.223804940881215,1.7580680970652105,2.021344199202825,nan
1740789315.6136405,1.6826333735280428,-1.0927270202371462,1.6335144775677894,1.8941038160751087,nan
1740789315.6175463,1.5579727391313831,-0.9653350856254269,1.5090955735961447,1.7658835601766942,nan
1740789315.6214523,1.4337123604656248,-0.8423923755184793,1.3857444034781832,1.6375740564283634,nan
1740789315.625358,1.310702752509104,-0.724601636811218,1.2643550660312903,1.5100350401107228,nan
1740789315.6292639,1.1897552176358057,-0.6126007703478001,1.1457764269993393,1.3840895401148692,nan
1740789315.6331697,1.0716365293022934,-0.5069590808445553,1.0308062952640482,1.2605184795587876,nan
1740789315.6370757,0.9570640860552492,-0.4081741553438951,0.920186131168304,1.1400557317713376,nan
1740789315.6409814,0.8467015685935884,-0.3166693887589805,0.8145963241873114,1.02338366525003,nan
1740789315.6448872,0.7411551278864804,-0.232792169376492,0.7146520718052878,0.911129206560171,nan
1740789315.6487958,0.6409701274254747,-0.15681273142521754,0.6208998858509902,0.8038604453046361,nan
1740789315.6527016,0.5466284576203946,-0.0889236760422274,0.533814746766463,0.7020838002999745,nan
1740789315.6566074,0.45854643518090155,-0.029240156226804277,0.4537979203830748,0.6062417609915071,nan
1740789315.6605134,0.3770732951052166,0.022199284285034964,0.3811754458108353,0.516711212973685,nan
1740789315.6644192,0.3024902776711286,0.06543123381640842,0.31619729706513866,0.43380235129876155,nan
1740789315.668325,0.2350103076385182,0.10056531814974685,0.25903721511304967,0.3577581801029169,nan
1740789315.6722307,0.17477825777278966,0.12778151458135362,0.2097932011719951,0.2887545919999875,nan
1740789315.6761367,0.12187178382933112,0.14732690552648797,0.1684886563888263,0.22690101573336227,nan
1740789315.6800425,0.07630271334331336,0.15951190710620514,0.13507414751666402,0.17224161577949176,nan
1740789315.6839483,0.03801896598783006,0.16470601233361115,0.10942977293850532,0.12475702300303709,nan
1740789315.6878543,0.006906978935274793,0.16333309232037588,0.0913680984054556,0.08436657111302927,nan
1740789315.69176,-0.017205393381959234,0.1558663023135692,0.08063762720598068,0.05093100959795461,nan
1740789315.6956708,-0.03454553943166856,0.1428226423210429,0.07692676519956827,0.024255660059229862,nan
1740789315.6995769,-0.045392348347009566,0.12475722456797984,0.07986823726901794,0.004093979447438925,nan
1740789315.7034826,-0.050072105965607676,0.10225730202906202,0.0890439083014355,-0.009848509338687899,nan
1740789315.7073884,-0.04895407239463476,0.07593611378604916,0.10398995882603235,-0.01790996168085653,nan
1740789315.7112944,-0.042445786516129264,0.0464266039595804,0.12420236293960538,-0.020467674724031003,nan
1740789315.7152002,-0.030988144573261277,0.014375071451823034,0.14914261415613203,-0.017933316346801374,nan
1740789315.719106,-0.015050301257933647,-0.01956519228734365,0.1782436433384791,-0.010747967217819733,nan
1740789315.7230117,0.004875557453623574,-0.054740220789326964,0.21091587191624672,0.000622975547037189,nan
1740789315.7269177,0.0282795201003819,-0.0905015897399925,0.24655334316774474,0.01569498414845506,nan
1740789315.7308235,0.05463928463837782,-0.12621247966197743,0.2845398744446874,0.03396962629815792,nan
1740789315.7347293,0.08342547344477964,-0.16125353195537115,0.3242551738392205,0.05493978328872487,nan
1740789315.7386353,0.11410688039540297,-0.19502844857709778,0.36508086592340827,0.07809481225619395,nan
1740789315.742543,0.14615560338326541,-0.22696928849185158,0.40640637281581715,0.102925606250725,nan
1740789315.7464488,0.17905201744948496,-0.2565414172723779,0.44763459892833884,0.1289295074367067,nan
1740789315.7503548,0.21228954588787513,-0.28324806983194495,0.4881873702947437,0.15561503083787367,nan
1740789315.7542605,0.24537918923640623,-0.30663449020157485,0.5275105823525762,0.18250635850148078,nan
1740789315.7581663,0.277853774954804,-0.32629161648099425,0.5650790134099987,0.20914756675161472,nan
1740789315.762072,0.3092718937774479,-0.3418592835548837,0.6004007647440731,0.2351065523055042,nan
1740789315.765978,0.3392214921915953,-0.353028920832545,0.6330212923085266,0.2599786264060429,nan
1740789315.7698839,0.3673230941876157,-0.35954572709567,0.6625269993366156,0.28338974974406006,nan
1740789315.7737896,0.39323262932347347,-0.3612103094804223,0.6885483636653023,0.30499938476873023,nan
1740789315.7776957,0.4166438482016706,-0.35787977863087844,0.7107625783359484,0.3245029459759462,nan
1740789315.7816014,0.43729031063374296,-0.3494682970948331,0.7288956888979092,0.3416338328832575,nan
1740789315.7855072,0.4549469360248596,-0.3359470830442903,0.742724215807904,0.35616503460608473,nan
1740789315.7894144,0.46943110980847474,-0.3173438763460973,0.7520762553322522,0.36791029920300033,nan
1740789315.7933202,0.4806033440577045,-0.29374187883884445,0.7568320573736056,0.3767248652173137,nan
1740789315.7972262,0.4883674946559267,-0.2652781853471822,0.7569240836115148,0.3825057570679732,nan
1740789315.801132,0.4926705415845243,-0.23214172644280046,0.7523365542208912,0.3851916500953583,nan
1740789315.8050377,0.4935019429425544,-0.1945707482032723,0.7431044961692066,0.38476231510854303,nan
1740789315.8089437,0.49089257721441343,-0.1528498581889785,0.7293123106489003,0.3812376561731011,nan
1740789315.8128495,0.48491329201249306,-0.10730667052041903,0.7110918815348581,0.3746763590872705,nan
1740789315.8167553,0.47567308100935735,-0.05830808626251103,0.6886202508292271,0.36517417148618403,nan
1740789315.820661,0.4633169140078263,-0.006256248281297803,0.6621168908315684,0.35286183875815563,nan
1740789315.824567,0.448023248049708,0.04841578769208463,0.6318406062185187,0.33790272292554885,nan
1740789315.8284729,0.43000125011000345,0.10524862189559517,0.5980861023046471,0.32049013431034745,nan
1740789315.8323786,0.4094877642415953,0.16376127364033538,0.5611802584592711,0.3008444081490592,nan
1740789315.8362885,0.3867440580073269,0.22345609176070566,0.5214781479510032,0.27920976032416983,nan
1740789315.8401942,0.3620523846471479,0.28382376463787745,0.47935884736501116,0.255850958024645,nan
1740789315.8441002,0.335712398666363,0.34434838162514,0.43522108017391675,0.2310498424241109,nan
1740789315.848006,0.30803746338929455,0.4045124977550569,0.389478740032772,0.20510174136411988,nan
1740789315.8519118,0.27935088949694253,0.46380215410555986,0.3425563399067279,0.17831181054682246,nan
1740789315.8558176,0.24998214365725221,0.5217118071363855,0.2948844332264085,0.15099134187564006,nan
1740789315.8597236,0.220263066065818,0.5777491216663003,0.2468950529044909,0.12345407733700318,nan
1740789315.8636293,0.19052413505027138,0.6314395839289526,0.19901721324556204,0.09601256619742109,nan
1740789315.867535,0.1610908158638431,0.682330893300933,0.15167251855234384,0.06897460230808636,nan
1740789315.8714411,0.1322800294164953,0.7299970938162541,0.10527092059102718,0.042639776977352814,nan
1740789315.875347,0.10439677498287454,0.7740424094403647,0.06020666504678273,0.01729618120645161,nan
1740789315.8792527,0.07773093890517542,0.8141047502442633,0.016854464701225508,-0.006782710894562128,nan
1740789315.8831623,0.05255431899898815,0.8498588600631175,-0.024434065676383142,-0.02934094796270125,nan
1740789315.887068,0.029117891796752397,0.8810190799093703,-0.0633336807830273,-0.05014276949651944,nan
1740789315.8909738,0.007649346954514933,0.9073417053010915,-0.09954845396823793,-0.06897501198848399,nan
1740789315.8948798,-0.01164908986684117,0.928626919724022,-0.13281437911129004,-0.08564923181551712,nan
1740789315.8987856,-0.0286025275233406,0.9447202906310181,-0.1629016039244485,-0.10000352678586646,nan
1740789315.9026914,-0.04306495851967846,0.9555138186548943,-0.18961627736063416,-0.11190404154246972,nan
1740789315.9065971,-0.05492047539471824,0.9609465350293085,-0.21280199787356993,-0.12124614543514625,nan
1740789315.9105031,-0.0640841465132825,0.9610046465362055,-0.23234085343345856,-0.12795527496157796,nan
1740789315.914409,-0.07050254696277193,0.9557212315868008,-0.24815404840013128,-0.13198743640490423,nan
1740789315.9183147,-0.07415394380099194,0.9451754952560767,-0.26020211655669684,-0.13332936782870866,nan
1740789315.9222207,-0.07504813841639701,0.9294915951892367,-0.2684847237687563,-0.13199836309309051,nan
1740789315.9261265,-0.07322597220955195,0.9088370542448775,-0.2730400678167305,-0.12804176399410624,nan
1740789315.9300358,-0.06875850515163441,0.8834207794978127,-0.2739438869122892,-0.12153612996953532,nan
1740789315.9339416,-0.061745879990244446,0.853490710760785,-0.2713080922163625,-0.11258609802454118,nan
1740789315.9378476,-0.05231588792424419,0.8193311250670142,-0.26527904328968677,-0.10132294858052965,nan
1740789315.9417534,-0.04062225442919508,0.7812596265559908,-0.25603548879337673,-0.08790289581062596,nan
1740789315.9456592,-0.026842666556823953,0.7396238538969983,-0.2437861978852165,-0.07250512366880058,nan
1740789315.949565,-0.011176565431626163,0.6947979397457332,-0.22876731059866826,-0.05532959122248639,nan
1740789315.953471,0.006157270196097603,0.6471787587395853,-0.21123943802043088,-0.03659463303857225,nan
1740789315.9573767,0.024923321627718965,0.5971820021804842,-0.19148454527647288,-0.016534382230990474,nan
1740789315.9612825,0.04487207985549699,0.5452381188183082,-0.16980265217704277,0.004603954661534009,nan
1740789315.9651885,0.06574291664987224,0.4917881620239005,-0.14650838784305226,0.02656294054960435,nan
1740789315.9690943,0.08726704565668598,0.4372795841237334,-0.12192743672802459,0.0490778370726755,nan
1740789315.973,0.10917054146829319,0.38216201875694467,-0.09639291415399101,0.07187958833651772,nan
1740789315.976909,0.13117738436442727,0.3268830918124207,-0.0702417097925578,0.09469782689101243,nan
1740789315.9808147,0.15301249847996012,0.2718843008149654,-0.043810837444179546,0.11726386979143318,nan
1740789315.9847205,0.17440475154394597,0.21759700156532488,-0.017433829003486796,0.13931367297470443,nan
1740789315.9886262,0.19508988504080604,0.16443853941223407,0.008562790345676441,0.16059071289165203,nan
1740789315.9925323,0.21481334466038177,0.11280856076250678,0.033862909873524034,0.18084876535722133,nan
1740789315.996438,0.23333298221604917,0.0630855383373334,0.058164089717812964,0.19985455290045828,nan
1740789316.0003438,0.2504216018035329,0.015623541282280067,0.08118063359703524,0.21739023349910896,nan
1740789316.0042498,0.26586932482905445,-0.029250721439362245,0.10264644766233094,0.23325570545173893,nan
1740789316.0081556,0.2794857506333524,-0.07124055886732719,0.12231765782386322,0.2472707052524934,nan
1740789316.0120614,0.2911018917547495,-0.11008163472266401,0.13997496064397794,0.2592766776669594,nan
1740789316.0159671,0.30057186538484004,-0.14554396391989927,0.15542568587606753,0.2691383997368528,nan
1740789316.0198731,0.30777432524772497,-0.17743355337547168,0.16850555191286154,0.27674534313952315,nan
1740789316.0237813,0.3126136209497344,-0.20559367517927332,0.17908009875713662,0.2820127621671078,nan
1740789316.0276873,0.3150206747719031,-0.22990576388316797,0.18704578660666077,0.2848824975398416,nan
1740789316.031593,0.31495356888166237,-0.25028993339370537,0.1923307517172822,0.28532348929800316,nan
1740789316.0354989,0.3123978389924959,-0.26670511269949954,0.19489521483681013,0.28333199509597157,nan
1740789316.0394046,0.30736647356948726,-0.27914880338058473,0.1947315411504329,0.27893151331839905,nan
1740789316.0433106,0.29989962073363297,-0.287656465501785,0.1918639543088973,0.27217241352107163,nan
1740789316.0472164,0.2900640080277947,-0.2923005420498365,0.18634791068680762,0.2631312797364161,nan
1740789316.0511222,0.2779520831421032,-0.29318913550096815,0.17826914350433432,0.2519099751453387,nan
1740789316.0550282,0.2636808865273697,-0.290464353369752,0.16774238980656958,0.2386344394734793,nan
1740789316.058934,0.24739066952372643,-0.28430034266086185,0.15490981649747348,0.22345323319270594,nan
1740789316.0628397,0.2292432741718356,-0.27490103599465293,0.13993916463827397,0.20653584517083634,nan
1740789316.0667455,0.2094202932310784,-0.2624976347792931,0.1230216340139959,0.1880707827890906,nan
1740789316.0706537,0.18812103108036587,-0.24734585713319845,0.10436953251943752,0.16826346571448655,nan
1740789316.0745595,0.16556028810227497,-0.2297229803011315,0.08421371719299364,0.1473339464524216,nan
1740789316.0784652,0.14196599283205055,-0.20992470903805285,0.06280085571182849,0.12551448249457933,nan
1740789316.082371,0.11757670757412579,-0.18826190284214572,0.04039053883649474,0.10304698630317803,nan
1740789316.086277,0.0926390343374754,-0.16505719599115398,0.01725227564200559,0.08018038052124761,nan
1740789316.0901828,0.06740494880737005,-0.14064154506650864,-0.00633759561618075,0.057167886659899095,nan
1740789316.0940886,0.04212909064787787,-0.11535073903305068,-0.030099047487229986,0.03426427608001482,nan
1740789316.0979946,0.01706603871272058,-0.08952190697754896,-0.053751520332129155,0.011723112353150914,nan
1740789316.1019003,-0.00753240026935649,-0.06349005829891875,-0.07701706256105809,-0.010205985946638246,nan
1740789316.105806,-0.031419861272744265,-0.037584689492739395,-0.0996234206955851,-0.03128003330004252,nan
1740789316.109712,-0.05435802114693903,-0.012126490691406767,-0.12130704658062247,-0.051265288054461546,nan
1740789316.113618,-0.07611910258515808,0.012575816178968536,-0.14181599013582827,-0.06993975880827265,nan
1740789316.1175256,-0.09648825623484647,0.03622847736769311,-0.16091264742264014,-0.0870955803725825,nan
1740789316.1214314,-0.11526579669449745,0.05855551702703389,-0.17837633549558954,-0.10254123476570674,nan
1740789316.1253374,-0.13226926978143386,0.07930133048511817,-0.19400566748601678,-0.11610359439224012,nan
1740789316.1292431,-0.14733533031860901,0.0982330372475596,-0.20762070361120818,-0.12762976648350965,nan
1740789316.133149,-0.16032141175473894,0.11514257252399841,-0.21906485628787248,-0.13698872000887846,nan
1740789316.137055,-0.1711071711792653,0.12984849887771716,-0.2282065302292657,-0.1440726785852779,nan
1740789316.1409607,-0.1795956956978433,0.1421975225585719,-0.23494048129137676,-0.14879826539120583,nan
1740789316.1448665,-0.18571445866998149,0.15206570217130877,-0.2391888808750056,-0.15110738870537138,nan
1740789316.1487722,-0.1894160169517007,0.15935934052141074,-0.2409020758553524,-0.15096785941204613,nan
1740789316.1526783,-0.1906784430051206,0.1640155537367941,-0.24005903726589098,-0.14837373461696277,nan
1740789316.156584,-0.1895054885057384,0.16600251505323838,-0.2366674942750315,-0.14334538437048214,nan
1740789316.1604898,-0.1859264788683106,0.1653193739416099,-0.23076375332802102,-0.1359292813694054,nan
1740789316.1643999,-0.17999594089517498,0.16199585451317813,-0.22241220564851813,-0.12619751637605872,nan
1740789316.1683059,-0.1717929684982883,0.1560915403335802,-0.2117045295700275,-0.11424704492382537,nan
1740789316.1722116,-0.161420334130258,0.1476948558749765,-0.1987585973634893,-0.10019867364357594,nan
1740789316.1761174,-0.14900335615324276,0.1369217578096594,-0.18371709931122712,-0.08419579721734331,nan
1740789316.1800234,-0.13468853485166754,0.12391415216810873,-0.16674590071773682,-0.06640289951743326,nan
1740789316.1839292,-0.1186419721306097,0.10883805602329748,-0.14803215031486824,-0.04700383489509709,nan
1740789316.187835,-0.10104759211308094,0.09188152479587074,-0.12778216108472237,-0.026199907819045472,nan
1740789316.1917408,-0.08210518183500816,0.07325236847893056,-0.10621908686253163,-0.00420777110808873,nan
1740789316.1956468,-0.062028273016896666,0.0531756820360002,-0.08358042017035235,0.018742835166179087,nan
1740789316.1995525,-0.041041887448662745,0.031891216913602714,-0.06011533854996544,0.04241148042956722,nan
1740789316.2034583,-0.019380169844011617,0.0096506220155768,-0.036081928192042194,0.06654955097619411,nan
1740789316.2073643,0.002716066909558644,-0.013285416402351622,-0.011744314883358788,0.09090284183219745,nan
1740789316.211274,0.025001858369450368,-0.03665010565141419,0.01263026679697692,0.11521420615834967,nan
1740789316.21518,0.04723064074738582,-0.060173517577576704,0.03677443451636388,0.13922623468920778,nan
1740789316.2190857,0.06915681216118384,-0.08358556862841518,0.060423617691088116,0.1626839374404294,nan
1740789316.2229915,0.09053827638370927,-0.10661897819652043,0.08331898375628902,0.18533739993439566,nan
1740789316.2268975,0.11113894281953654,-0.12901217485368863,0.10521029991283083,0.20694438649648578,nan
1740789316.2308033,0.13073115698434737,-0.15051212083015433,0.12585869979036812,0.22727286375655312,nan
1740789316.234709,0.1490980365687665,-0.17087702612727182,0.14503932551247595,0.24610341834591049,nan
1740789316.2386148,0.16603568922809825,-0.1898789249680585,0.1625438170013799,0.26323154390012354,nan
1740789316.2425208,0.18135528954051283,-0.20730608887324065,0.1781826220021869,0.2784697738502943,nan
1740789316.2464266,0.19488499410458912,-0.2229652524833201,0.1917871022220743,0.2916496380958543,nan
1740789316.2503324,0.2064716754863,-0.2366836303100651,0.20321141314849847,0.3026234234834089,nan
1740789316.2542384,0.21598245765715188,-0.248310704871597,0.21233413750943186,0.3112657200498617,nan
1740789316.2581506,0.22330603766885587,-0.2577197691200764,0.21905965494287546,0.3174747372029544,nan
1740789316.2620566,0.22835378056347916,-0.26480920868415336,0.2233192332253707,0.32117337638565496,nan
1740789316.2659624,0.23106057689823908,-0.26950351219277935,0.22507182934110304,0.32231004927824586,nan
1740789316.2698681,0.23138545474595384,-0.27175400079444917,0.2243045917241197,0.3208592332077987,nan
1740789316.2737741,0.22931194059018237,-0.27153927090719443,0.22103305814473487,0.3168217581323246,nan
1740789316.27768,0.22484816614180486,-0.2688653472000793,0.2153010469049511,0.31022482231876897,nan
1740789316.2815857,0.21802672073440965,-0.2637655457863948,0.20718024222392287,0.3011217366122242,nan
1740789316.2854915,0.20890425158241752,-0.25630005057226674,0.19676947790003543,0.2895913999700454,nan
1740789316.2893975,0.19756081678152437,-0.24655520862221272,0.18419372649820384,0.27573751168087063,nan
1740789316.2933033,0.18409899846929792,-0.23464255324618544,0.1696028043970834,0.25968752837707376,nan
1740789316.297209,0.16864278601882926,-0.22069756625261566,0.15316980600944485,0.24159137655273344,nan
1740789316.301115,0.15133624148531877,-0.2048781934217826,0.13508928332952008,0.22161993379158196,nan
1740789316.3050244,0.1323419617405902,-0.1873631297079415,0.11557518963464103,0.19996329426541845,nan
1740789316.3089302,0.11183935379148609,-0.16834989295291286,0.09485860864759094,0.17682883625948498,nan
1740789316.312836,0.09002274166413934,-0.14805270696638773,0.07318529272555135,0.1524391114952077,nan
1740789316.316742,0.0670993249284032,-0.1267002166789963,0.050813035658215676,0.12702957783240937,nan
1740789316.3206477,0.043287010418306245,-0.10453305968553361,0.028008907410928967,0.10084619852426287,nan
1740789316.3245535,0.01881213996069113,-0.08180131985269365,0.00504637962086037,0.0741429325532205,nan
1740789316.3284593,-0.006092862057282827,-0.05876188975542809,-0.01779762817001663,0.04717914168126814,nan
1740789316.3323653,-0.031191896680139275,-0.03567576951905828,-0.04024575069379357,0.020216940692178532,nan
1740789316.336271,-0.056247628818074276,-0.012805330173355162,-0.06202319614567768,-0.006481482121303052,nan
1740789316.3401768,-0.08102393074922444,0.009588430133967873,-0.08286075075397567,-0.03265654687190281,nan
1740789316.3440828,-0.10528830532225986,0.031248608764892463,-0.10249773719944773,-0.05805393901748213,nan
1740789316.3479886,-0.12881426375836372,0.05192507209576819,-0.12068489577438439,-0.08242721420417064,nan
1740789316.3518972,-0.1513836334767428,0.07137705255313694,-0.137187157913771,-0.10554032442073967,nan
1740789316.355803,-0.1727887721451947,0.0893756427284544,-0.1517862827854906,-0.1271700396708554,nan
1740789316.3597088,-0.19283466517835948,0.10570616127831482,-0.16428332898313022,-0.1471082404298726,nan
1740789316.3636148,-0.21134088516041438,0.12017036672817084,-0.1745009350098153,-0.1651640574631779,nan
1740789316.3675206,-0.2281433931427184,0.1325884969460572,-0.1822853841580981,-0.18116583713036977,nan
1740789316.3714263,-0.2430961634449565,0.1428011139209905,-0.18750843155981217,-0.19496291206816124,nan
1740789316.3753324,-0.2560726154530451,0.15067073554872307,-0.19006887357915045,-0.20642715911673407,nan
1740789316.3792381,-0.2669668379391563,0.1560832383736575,-0.18989384232768797,-0.21545432850955265,nan
1740789316.383144,-0.2756945936074647,0.15894901763669883,-0.18693981086538625,-0.22196513066345877,nan
1740789316.3870497,-0.28219409387130484,0.15920389350957836,-0.1811932975885464,-0.22590606936083968,nan
1740789316.3909557,-0.28642653626930314,0.1568097550308468,-0.1726712613645708,-0.22725001268404402,nan
1740789316.3948615,-0.28837639940519744,0.15175493597002707,-0.16142118212322926,-0.22599649571805938,nan
1740789316.3987699,-0.2880514928228474,0.1440543196068265,-0.14752082482307752,-0.22217175175398005,nan
1740789316.4026756,-0.2854827617783687,0.1337491721934929,-0.1310776879471857,-0.2158284714756877,nan
1740789316.4065814,-0.2807238494193333,0.12090670764232365,-0.11222814091167087,-0.20704529236762945,nan
1740789316.4104874,-0.2738504214002393,0.10561938871869458,-0.09113625796091578,-0.19592602331493508,nan
1740789316.4143932,-0.26495926042830614,0.08800397269533426,-0.06799235924242533,-0.1825986120508315,nan
1740789316.418299,-0.25416714061873164,0.06820031200890542,-0.04301127277042858,-0.1672138657134078,nan
1740789316.4222047,-0.24160949381945637,0.046369922929311115,-0.016430333869787213,-0.14994393727789834,nan
1740789316.4261107,-0.22743888221897057,0.022694337581028907,0.011492858588609977,-0.13098059300680662,nan
1740789316.4300165,-0.2118232935545778,-0.0026267431792113285,0.040482907320868275,-0.11053327828426493,nan
1740789316.4339223,-0.19494427707249523,-0.02937747654425004,0.07024927897894342,-0.08882700125073192,nan
1740789316.4378283,-0.17699494003634172,-0.057328062938570915,0.10048913749028283,-0.06610005550887497,nan
1740789316.441734,-0.1581778260202607,-0.08623706678841557,0.13089032035211648,-0.04260160481253268,nan
1740789316.4456422,-0.13870269744229552,-0.11585384875205872,0.16113442831307925,-0.018589154061445068,nan
1740789316.449548,-0.11878424578042537,-0.1459210842165684,0.1908999976394489,0.0056740679090961504,nan
1740789316.4534538,-0.09863975365763611,-0.17617734206160507,0.21986572323652614,0.0299217873443462,nan
1740789316.4573598,-0.07848673347603316,-0.20635969715259284,0.24771370028735093,0.053887399347831336,nan
1740789316.4612656,-0.05854056751830627,-0.23620634975947233,0.27413265178759977,0.07730668900368129,nan
1740789316.4651713,-0.03901217441528548,-0.2654592251054259,0.29882110940051565,0.09992053232952641,nan
1740789316.4690773,-0.020105726601198547,-0.2938665265314312,0.32149051542907914,0.12147754972565357,nan
1740789316.4729831,-0.00201644284633243,-0.3211852163137857,0.3418682144010453,0.14173668504099224,nan
1740789316.476889,0.015071520824498218,-0.34718339898660106,0.35970030377954715,0.16046968410210685,nan
1740789316.4807947,0.030987059541893194,-0.3716425830905687,0.374754314637715,0.17746344754035362,nan
1740789316.4847007,0.045573966298059085,-0.3943597985818191,0.3868216947576584,0.19252223399513305,nan
1740789316.4886065,0.058692617388817675,-0.4151495486762339,0.3957200685160564,0.2054696912551767,nan
1740789316.4925144,0.07022147870591411,-0.4338455766591116,0.4012952500820913,0.21615069461041128,nan
1740789316.4964201,0.08005841685500664,-0.45030243013920473,0.4034229888570987,0.2244329736070407,nan
1740789316.500326,0.08812180110271306,-0.46439680734953154,0.40201042870541803,0.23020851050893487,nan
1740789316.5042317,0.09435138433038937,-0.47602867237318897,0.39699726533657925,0.2333946960482066,nan
1740789316.5081377,0.09870895347071784,-0.48512212857691817,0.3883565891722876,0.23393523047414883,nan
1740789316.5120435,0.10117874230226374,-0.4916260420439663,0.37609540413810366,0.231800760458401,nan
