timestamps,TP9,AF7,AF8,TP10,Right AUX
1740790124.2484589,0.2464729189449287,-0.6676351171878042,0.11923069279507968,0.26856320804611566,nan
1740790124.2523646,0.24795915436660415,-0.638322786018953,0.11084614081286262,0.2785386195047743,nan
1740790124.2562706,0.2476288470482096,-0.6068959994139499,0.10088768411918157,0.2861934398536042,nan
1740790124.2601767,0.24545441022559494,-0.5735071026361198,0.08942232338119732,0.29146526289862773,nan
1740790124.2640827,0.24142868586182453,-0.5383191887108092,0.07653692566453435,0.2943151482394083,nan
1740790124.2679884,0.2355650564634563,-0.5015050056009924,0.062337390498008516,0.2947279890091695,nan
1740790124.2718945,0.22789733323750117,-0.46324577379253545,0.04694759984462868,0.2927126409664108,nan
1740790124.2758005,0.21847942204892554,-0.42372992413840566,0.03050816232787668,0.2883018119238278,nan
1740790124.2797065,0.20738477098793537,-0.38315176672178847,0.013174964268206921,0.2815517129107192,nan
1740790124.2836123,0.19470560566203218,-0.34171010230635707,-0.004882457834617462,0.2725414748577724,nan
1740790124.2875183,0.18055196056622608,-0.2996067886385564,-0.023482706804023028,0.26137233694422873,nan
1740790124.2914243,0.16505051703263834,-0.25704527444328673,-0.0424344579381165,0.2481666150332682,nan
1740790124.2953324,0.14834326029599215,-0.21422911440388892,-0.06153851589355506,0.23306646081930524,nan
1740790124.2992384,0.1305859701131133,-0.17136047873392324,-0.08058997400693138,0.21623242439857748,nan
1740790124.3031445,0.1119465611230714,-0.1286386711276607,-0.09938045359754566,0.19784183493135243,nan
1740790124.3070502,0.09260329071200993,-0.08625866891535235,-0.1177003998638404,0.17808701587059203,nan
1740790124.3109562,0.07274285353685349,-0.044409699146883724,-0.1353414102937412,0.15717335287023637,nan
1740790124.3148623,0.052558383050706,-0.003273864083094457,-0.15209857106455257,0.13531723394000036,nan
1740790124.3187683,0.03224738134778419,0.036975170810331255,-0.16777277671592097,0.11274388266860451,nan
1740790124.322674,0.012009599397078434,0.07617341379337043,-0.18217300844250742,0.08968510638102531,nan
1740790124.32658,-0.007955109745827242,0.11416769678803042,-0.19511854667113354,0.06637698191789183,nan
1740790124.330486,-0.0274489418756733,0.15081672718372607,-0.20644109415804443,0.04305750231811697,nan
1740790124.334392,-0.0462782738056264,0.18599203127611313,-0.21598678666000865,0.01996420804410533,nan
1740790124.3382978,-0.06425575404422325,0.21957878011646204,-0.2236180692909066,-0.0026681734913116695,nan
1740790124.342206,-0.0812023296915529,0.25147648966271413,-0.22921541796275316,-0.024610056456199857,nan
1740790124.3461118,-0.09694918793076934,0.2815995883280843,-0.23267888681452015,-0.04563926990594644,nan
1740790124.3500178,-0.11133959138273941,0.30987784630650334,-0.2339294642386246,-0.06554325317202266,nan
1740790124.3539238,-0.12423058770013395,0.3362566624035583,-0.23291022200695885,-0.08412115145827212,nan
1740790124.3578298,-0.13549457509097568,0.3606972055033772,-0.2295872440567972,-0.10118579080662911,nan
1740790124.3617356,-0.1450207069670682,0.3831764092418721,-0.22395032370154622,-0.11656551283915069,nan
1740790124.3656416,-0.15271612059415424,0.40368681992025157,-0.21601342035984136,-0.13010585112352135,nan
1740790124.3695476,-0.1585069764608843,0.42223629916480554,-0.2058148693258015,-0.14167103263016334,nan
1740790124.3734536,-0.16233929706341363,0.4388475843042916,-0.19341734060857438,-0.15114528953404216,nan
1740790124.3773596,-0.16417959590161424,0.45355771087986846,-0.1789075454257446,-0.1584339685452294,nan
1740790124.3812654,-0.16401528967941198,0.46641730310903556,-0.16239569151645353,-0.16346442700942618,nan
1740790124.3851714,-0.1618548889732641,0.4774897394799814,-0.1440146910203854,-0.16618670718229114,nan
1740790124.3890793,-0.15772796495561742,0.4868502019415457,-0.1239191272215825,-0.16657398232752213,nan
1740790124.3929853,-0.15168489211039426,0.4945846183630392,-0.10228398895548388,-0.16462277059551625,nan
1740790124.396891,-0.1437963692308721,0.5007885090544767,-0.07930318389805445,-0.160352914983846,nan
1740790124.4007971,-0.13415272332232395,0.5055657491491214,-0.05518784427244654,-0.15380733003893185,nan
1740790124.4047031,-0.12286300331846271,0.5090272595457401,-0.030164440697642174,-0.14505151830655053,nan
1740790124.4086092,-0.11005387273820529,0.5112896398774256,-0.004472721942130524,-0.13417286185339442,nan
1740790124.412515,-0.09586831253480105,0.5124737576087933,0.02163649978711212,-0.12127969643964397,nan
1740790124.416421,-0.0804641474005827,0.5127033078562109,0.047903696713881616,-0.10650017810057079,nan
1740790124.420327,-0.06401241066688312,0.512103358870762,0.07406308374616734,-0.08998095397188428,nan
1740790124.424233,-0.04669556466018708,0.5107988983161871,0.09984516309624207,-0.07188565114781387,nan
1740790124.4281387,-0.02870559492462188,0.5089133955114502,0.12497933024397667,-0.05239319917344114,nan
1740790124.4320447,-0.010241998080977937,0.5065673946883232,0.1491965154626186,-0.0316960034251944,nan
1740790124.4359524,0.008490315750533411,0.5038771540389129,0.17223183462588362,-0.009997988109405356,nan
1740790124.4398584,0.02728318409501255,0.5009533448982508,0.1938272227779641,0.012487471106481804,nan
1740790124.4437642,0.04592739425020716,0.497899824826428,0.2137340239770629,0.0355397037347194,nan
1740790124.4476702,0.06421490332862463,0.49481249762848106,0.23171551121914769,0.05893296841873482,nan
1740790124.4515762,0.08194105290228691,0.4917782724848483,0.24754931080966056,0.08243872159113537,nan
1740790124.4554822,0.09890675493516721,0.48887413336897323,0.2610297063722575,0.10582790782079422,nan
1740790124.459388,0.11492062592755581,0.4861663288109319,0.27196979875798377,0.12887324865176195,nan
1740790124.463294,0.12980104667572914,0.4837096908377464,0.2802034994356663,0.15135150679195136,nan
1740790124.4672,0.14337812576501047,0.4815470905942621,0.2855873364924276,0.17304570279905804,nan
1740790124.471106,0.15549554585756706,0.47970903673635257,0.2880020541373542,0.19374726193181377,nan
1740790124.4750118,0.16601227299898594,0.4782134212047212,0.2873539885645163,0.2132580695809798,nan
1740790124.4789178,0.1748041105381996,0.47706541544779063,0.2835762051748654,0.23139241465870145,nan
1740790124.4828253,0.18176508082011314,0.4762575185814983,0.27662938445903845,0.24797880149705195,nan
1740790124.4867313,0.18680861955359115,0.4757697573685495,0.2665024462824271,0.2628616121747178,nan
1740790124.4906373,0.1898685696618556,0.47557003628610717,0.2532129048659442,0.27590260274082923,nan
1740790124.494543,0.19089996346851412,0.4756146343458071,0.23680694939568747,0.28698221852107453,nan
1740790124.498449,0.1898795842398142,0.4758488437499536,0.2173592478960085,0.296000715555913,nan
1740790124.502355,0.18680630037018428,0.4762077439293317,0.19497247473654022,0.3028790772149612,nan
1740790124.506261,0.18170116784081985,0.4766171030274641,0.16977656488730944,0.3075597171350711,nan
1740790124.510167,0.17460729897594593,0.47699439748899575,0.1419277007597414,0.3100069618209653,nan
1740790124.514073,0.16558949794413677,0.4772499390913561,0.11160704014787473,0.31020730850406897,nan
1740790124.517979,0.15473366587784237,0.47728809754299395,0.07901919638656653,0.3081694561546747,nan
1740790124.521885,0.14214598088813038,0.477008605671798,0.04439048434558926,0.3039241098611207,nan
1740790124.5257907,0.12795186060903127,0.4763079332557165,0.007966948255066839,0.2975235611040415,nan
1740790124.5296996,0.11229471719222697,0.4750807147152551,-0.029987810415631137,0.28904104874007686,nan
1740790124.5336056,0.09533451686479995,0.47322121520378024,-0.06919498474911016,0.27856990774482593,nan
1740790124.5375116,0.07724615823729321,0.4706248191047474,-0.1093630717043291,0.2662225149263102,nan
1740790124.5414174,0.05821768548511996,0.4671895245814184,-0.15019051518926535,0.2521290428860114,nan
1740790124.5453234,0.03844835430289662,0.46281742762945066,-0.1913684576791894,0.2364360354535843,nan
1740790124.5492294,0.018146570130040215,0.45741617905902354,-0.23258357400484678,0.21930481963381626,nan
1740790124.5531354,-0.0024722804500551263,0.4509003979824722,-0.27352096001926,0.20090977076197214,nan
1740790124.5570412,-0.023188083040718017,0.44319302570544306,-0.31386704820363903,0.18143644904937453,nan
1740790124.5609472,-0.043778310424478425,0.4342266044122901,-0.3533125218994351,0.16107962699992126,nan
1740790124.5648532,-0.06402037541101926,0.423944465696054,-0.3915551997595072,0.14004122827692994,nan
1740790124.5687592,-0.08369399723773925,0.4123018148042656,-0.42830286219855584,0.11852819948714287,nan
1740790124.572665,-0.10258355697116621,0.39926669744689874,-0.46327599209059295,0.09675033701579117,nan
1740790124.5765724,-0.12048041735946438,0.3848208371330111,-0.4962104027053796,0.07491809148658451,nan
1740790124.5804782,-0.1371851828402637,0.36896033225777525,-0.5268597268902148,0.05324037262878883,nan
1740790124.5843842,-0.15250987591210036,0.3516962035396137,-0.5549977427787887,0.0319223773081276,nan
1740790124.5882902,-0.16628000682787356,0.3330547838950029,-0.580420512833416,0.011163463219202283,nan
1740790124.5921962,-0.17833651455799096,0.3130779444216441,-0.6029483147863594,-0.008844909752788111,nan
1740790124.596102,-0.18853755819020385,0.29182315182367746,-0.6224273450235043,-0.027921149209200233,nan
1740790124.600008,-0.19676013937095999,0.26936335433898234,-0.6387311771304309,-0.04589539059681097,nan
1740790124.603914,-0.20290153803556987,0.24578669500116418,-0.6517619606759126,-0.06261122903513647,nan
1740790124.60782,-0.20688054550573903,0.22119605286974922,-0.6614513478183125,-0.07792730474051253,nan
1740790124.6117258,-0.20863848103514673,0.19570841467324882,-0.6677611379617902,-0.0917187257007742,nan
1740790124.6156318,-0.20813998003699832,0.16945408111249044,-0.6706836334358344,-0.10387831294836716,nan
1740790124.6195378,-0.20537354451073883,0.14257571384763013,-0.6702417019965395,-0.11431765562499405,nan
1740790124.6234448,-0.2003518485754486,0.11522723092293384,-0.6664885448233737,-0.12296796500849753,nan
1740790124.6273506,-0.19311179449131557,0.08757256005089015,-0.6595071715826036,-0.12978071876262381,nan
1740790124.6312566,-0.18371431708292907,0.05978426076372726,-0.6494095870193398,-0.13472808885111304,nan
1740790124.6351626,-0.17224393704373975,0.032042027929206525,-0.6363356963955988,-0.13780314880701128,nan
1740790124.6390686,-0.1588080661738816,0.004531090502555799,-0.6204519398834427,-0.1390198583432284,nan
1740790124.6429744,-0.14353607015756636,-0.022559479367453585,-0.6019496687221517,-0.1384128256075648,nan
1740790124.6468804,-0.12657809699566216,-0.04903853065664555,-0.5810432785295059,-0.1360368497011222,nan
1740790124.6507864,-0.10810368164793534,-0.07471465403777262,-0.55796811759353,-0.13196624836923673,nan
1740790124.6546924,-0.08830013978314366,-0.09939804075457707,-0.5329781902378852,-0.12629397801553724,nan
1740790124.6585982,-0.067370765759197,-0.12290236123836067,-0.5063436774283877,-0.11913055535908479,nan
1740790124.6625042,-0.04553285203726391,-0.14504664448421295,-0.47834829864879497,-0.11060279212974412,nan
1740790124.6664102,-0.02301554915105933,-0.16565713896967743,-0.44928654070172147,-0.10085235615626646,nan
1740790124.670317,-5.758708564937928e-05,-0.18456913585750073,-0.41946078046860324,-0.0900341740248988,nan
1740790124.674223,0.023095119549473145,-0.20162873537836,-0.3891783297764342,-0.07831469215474941,nan
1740790124.678129,0.046191958856897815,-0.21669453763936417,-0.35874843135669887,-0.0658700146321155,nan
1740790124.682035,0.06898017672309978,-0.22963923964784425,-0.3284792354343667,-0.0528839374540867,nan
1740790124.6859407,0.09120747401834034,-0.2403511210737728,-0.29867478674556014,-0.03954589993800303,nan
1740790124.6898468,0.1126246197393232,-0.2487354021924487,-0.26963205174809146,-0.026048874946199153,nan
1740790124.6937528,0.1329880535928066,-0.25471545854419286,-0.24163801545888683,-0.012587220245273107,nan
1740790124.6976588,0.15206245146820152,-0.25823387811035126,-0.21496687672875514,0.0006454862413974056,nan
1740790124.7015646,0.16962322746486208,-0.2592533482237756,-0.189877369853211,0.013458604325048413,nan
1740790124.7054706,0.18545894662446216,-0.25775736099412705,-0.16661023922645374,0.025666559657621768,nan
1740790124.7093766,0.19937362326703037,-0.2537507277196881,-0.14538589228481852,0.03709091939518412,nan
1740790124.7132826,0.21118888083438095,-0.24725989456184325,-0.12640225427010296,0.04756239326871301,nan
1740790124.7171905,0.22074595039825443,-0.23833305365909419,-0.10983284638798767,0.05692273865089222,nan
1740790124.7210965,0.22790748648083475,-0.22704004583615334,-0.09582510676134304,0.06502654917008933,nan
1740790124.7250025,0.23255918054870728,-0.21347205310122846,-0.08449897120326524,0.07174290759983815,nan
1740790124.7289085,0.2346111544617159,-0.19774108120125902,-0.0759457282833066,0.07695688513237214,nan
1740790124.7328143,0.2339991182671308,-0.17997923460005438,-0.0702271604573882,0.08057087071427067,nan
1740790124.7367203,0.23068527900703442,-0.160337788337446,-0.06737498020366889,0.08250571586552716,nan
1740790124.7406263,0.2246589896306654,-0.13898606329752092,-0.06739056718102497,0.08270168230276202,nan
1740790124.7445323,0.21593712965020226,-0.11611011344012587,-0.07024500943254405,0.08111918172380114,nan
1740790124.7484381,0.2045642118231652,-0.09191123551132159,-0.07587944862317102,0.077739299263892,nan
1740790124.7523441,0.19061221186120683,-0.06660431362524397,-0.08420572625849265,0.07256409438146796,nan
1740790124.7562501,0.17418012092684695,-0.04041601288247102,-0.09510732481086595,0.06561667525090882,nan
1740790124.7601562,0.15539322345915665,-0.013582837839777895,-0.10844059470988526,0.05694104510741864,nan
1740790124.7640638,0.13440210563881816,0.013650926844383213,-0.12403625526640956,0.046601721380682366,nan
1740790124.7679698,0.11138140253472172,0.04103537491148971,-0.14170115482195292,0.034683130844979836,nan
1740790124.7718759,0.08652829464070355,0.06831721629321819,-0.16122027277648487,0.021288786379127022,nan
1740790124.7757819,0.06006076708524691,0.0952420733354901,-0.1823589436742668,0.006540253245627658,nan
1740790124.779688,0.032215647252857936,0.12155681380145017,-0.20486528124457357,-0.00942408495923378,nan
1740790124.7835937,0.0032464388680807556,0.14701189840473675,-0.22847277822558443,-0.026450448387443766,nan
1740790124.7874997,-0.026579027261833334,0.1713637202446168,-0.2529030559666453,-0.04437125673075905,nan
1740790124.7914057,-0.056981103694248796,0.1943769133545095,-0.2778687362258811,-0.06300688251410984,nan
1740790124.7953117,-0.08767097409177628,0.21582660763868514,-0.3030764062732958,-0.08216754395918034,nan
1740790124.7992175,-0.1183534128427682,0.23550060776004547,-0.3282296473882535,-0.10165531794147073,nan
1740790124.8031235,-0.14872962987637053,0.25320147405398014,-0.3530320961158424,-0.1212662522149237,nan
1740790124.8070295,-0.17850017297372245,0.26874848427645065,-0.37719050722739883,-0.1407925549393952,nan
1740790124.8109372,-0.20736785913408678,0.2819794559434754,-0.40041778722194393,-0.1600248386305965,nan
1740790124.814843,-0.23504070609091104,0.2927524101766573,-0.42243596740958755,-0.17875439496977394,nan
1740790124.818749,-0.26123483489419663,0.30094705932591903,-0.4429790861344387,-0.19677547646964358,nan
1740790124.822655,-0.28567731458534157,0.3064661021845724,-0.4617959505192625,-0.2138875607993161,nan
1740790124.826561,-0.3081089203892401,0.3092363123298271,-0.4786527492399974,-0.22989757362737645,nan
1740790124.8304667,-0.3282867775334989,0.3092094069985542,-0.49333548925543186,-0.24462204614954045,nan
1740790124.8343728,-0.3459868637707653,0.30636268592650706,-0.5056522311126612,-0.25788918402321565,nan
1740790124.8382788,-0.36100634491937583,0.30069943172079044,-0.5154350994068188,-0.2695408252315908,nan
1740790124.8421848,-0.3731657192388803,0.2922490655802348,-0.5225420471754165,-0.2794342654373265,nan
1740790124.8460906,-0.3823107482070138,0.2810670545053601,-0.526858355432449,-0.28744393065111523,nan
1740790124.8499966,-0.3883141532473344,0.26723456852676997,-0.5282978516720169,-0.29346287852152125,nan
1740790124.8539026,-0.39107706015359917,0.25085788890517885,-0.5268038339701145,-0.2974041112353982,nan
1740790124.85781,-0.3905301753473391,0.23206757069447426,-0.5223496902592029,-0.299201684886688,nan
1740790124.861716,-0.38663468066642714,0.2110173654874377,-0.5149392054144518,-0.29881160220730324,nan
1740790124.8656218,-0.37938283609017726,0.18788291255813186,-0.5046065519428786,-0.29621247773705567,nan
1740790124.8695278,-0.3687982826346626,0.16286020895178374,-0.49141596327591147,-0.2914059668187643,nan
1740790124.8734338,-0.35493604057311995,0.13616387132878757,-0.47546109190027336,-0.2844169522166087,nan
1740790124.8773398,-0.3378822011220934,0.10802520452147478,-0.4568640577892,-0.2752934846465058,nan
1740790124.8812456,-0.3177533127551752,0.07869009378853681,-0.43577419578357535,-0.2641064760516438,nan
1740790124.8851516,-0.294695466333016,0.04841673963141604,-0.41236651368831634,-0.25094914702854243,nan
1740790124.8890576,-0.2688830862409538,0.017473255750046206,-0.3868398758618398,-0.23593623238303332,nan
1740790124.8929636,-0.24051743767412878,-0.013864847756438311,-0.3594149299548299,-0.2192029513449681,nan
1740790124.8968694,-0.20982486307492074,-0.045317272511426365,-0.3303317971693158,-0.20090375146908246,nan
1740790124.9007754,-0.17705476348026544,-0.07660160676156666,-0.2998475489322216,-0.1812108376714203,nan
1740790124.9046829,-0.1424773431488679,-0.10743604163124952,-0.2682334951826479,-0.16031250017080725,nan
1740790124.9085886,-0.10638113828403162,-0.13754210266335107,-0.23577231153497782,-0.13841125729870188,nan
1740790124.9124947,-0.0690703529217618,-0.16664737018468662,-0.202755034378478,-0.11572183118527174,nan
1740790124.9164007,-0.030862027092392403,-0.19448816189480664,-0.16947795448874212,-0.09246897620267475,nan
1740790124.9203067,0.007916935833830045,-0.22081215119489253,-0.13623944094049675,-0.06888518172834188,nan
1740790124.9242125,0.046932854160299194,-0.2453808951508538,-0.1033367280109177,-0.04520827226292454,nan
1740790124.9281185,0.08584843550571902,-0.2679722466199694,-0.07106269833685576,-0.02167892918320834,nan
1740790124.9320245,0.1243259963552168,-0.288382625959787,-0.039702695830646034,0.001461840584534929,nan
1740790124.9359305,0.1620307021123711,-0.30642912887517426,-0.009531401762938901,0.023975262932420537,nan
1740790124.9398363,0.19863379586017224,-0.32195144833572464,0.01919019301382238,0.045627355450621104,nan
1740790124.9437423,0.2338157839672632,-0.33481359009987954,0.04621768749870669,0.06619146006678088,nan
1740790124.9476483,0.26726954691848215,-0.34490536320080273,0.07132601053164131,0.0854507227432012,nan
1740790124.9515555,0.29870334430517587,-0.35214362876651717,0.09431197166164082,0.10320049385400254,nan
1740790124.9554615,0.32784368377723655,-0.35647329274535616,0.11499659494998557,0.11925062346137984,nan
1740790124.9593675,0.35443802492854065,-0.35786803046776045,0.13322720979192224,0.133427626575641,nan
1740790124.9632733,0.37825729055083407,-0.3563307334755578,0.14887927514404573,0.1455766946111645,nan
1740790124.9671793,0.3990981594351674,-0.35189367166705443,0.1618579161028484,0.15556353063015058,nan
1740790124.9710853,0.41678511690933867,-0.344618366516415,0.17209915456935337,0.16327598758601583,nan
1740790124.9749913,0.43117224155621336,-0.33459517390343546,0.17957081872886196,0.16862549062387158,nan
1740790124.978897,0.4421447090403681,-0.32194257790874165,0.1842731192452869,0.17154822654975196,nan
1740790124.982803,0.44961999665627445,-0.3068061997627474,0.1862388833858835,0.17200608582391513,nan
1740790124.986709,0.45354877507486285,-0.289357528957078,0.18553344172238906,0.16998734484541522,nan
1740790124.9906151,0.45391547677969457,-0.26979238630730024,0.18225416556529142,0.16550707885216695,nan
1740790124.994521,0.45073853382036055,-0.24832913146837332,0.17652965684477687,0.15860729843820806,nan
1740790124.9984279,0.44407028073893823,-0.22520663002235447,0.16851859571975045,0.14935680546170418,nan
1740790125.0023339,0.4339965218142401,-0.20068199775551906,0.1584082547397791,0.13785076695627607,nan
1740790125.00624,0.42063576508611394,-0.17502814209374398,0.1464126918684375,0.12421000853635582,nan
1740790125.0101457,0.4041381289357774,-0.14853112284675543,0.13277063806523157,0.10858003167575855,nan
1740790125.0140517,0.38468393027552766,-0.1214873564009782,0.11774309838264542,0.09112976210863227,nan
1740790125.0179577,0.3624819666096024,-0.09420068927613824,0.10161068863154903,0.07205003942420123,nan
1740790125.0218637,0.3377675073355871,-0.06697936850331651,0.08467073257011236,0.05155186067262165,nan
1740790125.0257695,0.31080001263141294,-0.04013293757472309,0.06723414724831596,0.029864393440527624,nan
1740790125.0296755,0.28186060108649,-0.013969087743099993,0.04962214656363494,0.0072327763640393184,nan
1740790125.0335815,0.25124928985828987,0.011209504801059597,0.032162795227515306,-0.016084272602153758,nan
1740790125.0374875,0.21928203354078202,0.03510832488334432,0.015187447183396341,-0.039817017673451194,nan
1740790125.0413935,0.18628759009335433,0.05744411627086936,-0.0009728959656035154,-0.06368741203459147,nan
1740790125.0453002,0.15260424407564702,0.07794790054074659,-0.01599126978516213,-0.08741192376942196,nan
1740790125.049206,0.1185764190445382,0.09636788629472093,-0.0295484375400357,-0.11070445325552708,nan
1740790125.053112,0.08455121227682547,0.11247223885463065,-0.041336548418643294,-0.13327931313690314,nan
1740790125.057018,0.0508748859700088,0.12605168160058133,-0.05106272536581916,-0.1548542410456594,nan
1740790125.060924,0.017889349732263533,0.13692190142983576,-0.05845254473763593,-0.17515341459239234,nan
1740790125.0648298,-0.01407133050752776,0.144925732409784,-0.06325337067114838,-0.19391043779352335,nan
1740790125.0687358,-0.044684362063256884,0.14993509356037074,-0.06523750811645473,-0.21087126805872863,nan
1740790125.0726418,-0.07364155879306661,0.15185265881513707,-0.06420513990155995,-0.22579705312590337,nan
1740790125.0765479,-0.10065254411919869,0.15061323955775271,-0.05998701498147762,-0.23846684790506117,nan
1740790125.0804536,-0.12544779080305446,0.1461848626926941,-0.05244685714756165,-0.24868018207336573,nan
1740790125.0843596,-0.14778146590111757,0.13856952996218105,-0.041483465923446566,-0.25625945044520143,nan
1740790125.0882657,-0.1674340510374638,0.12780364714245407,-0.027032484129255754,-0.2610520996148756,nan
1740790125.0921738,-0.18421471014531943,0.11395811481475844,-0.009067809631674485,-0.2629325861234664,nan
1740790125.0960796,-0.19796337913598613,0.09713807558235993,0.012397367912999026,-0.26180408342053024,nan
1740790125.0999856,-0.20855255452796087,0.0774823158654691,0.03730992100232926,-0.25759991715865294,nan
1740790125.1038916,-0.2158887608889743,0.05516232372100935,0.06557654089227621,-0.2502847108538753,nan
1740790125.1077976,-0.2199136799831828,0.030381007472778155,0.09706390497495739,-0.2398552266455816,nan
1740790125.1117034,-0.22060492774677948,0.0033710832683091826,0.13159925905825584,-0.22634088877067504,nan
1740790125.1156094,-0.21797646860767408,-0.025606857030093924,0.16897141460868662,-0.20980398040219725,nan
1740790125.1195154,-0.2120786601867556,-0.056266582992641104,0.20893215690681727,-0.19033950766353286,nan
1740790125.1234214,-0.20299792503613837,-0.08829875006254878,0.2511980559469691,-0.16807472788606878,nan
1740790125.1273272,-0.19085604974922235,-0.12137369055999557,0.2954526678297521,-0.14316834249961488,nan
1740790125.1312332,-0.1758091154828981,-0.15514444769780641,0.3413491103871233,-0.11580935829894187,nan
1740790125.1351392,-0.15804606762792692,-0.18925002642610853,0.38851299288455293,-0.08621562418390782,nan
1740790125.1390471,-0.13778693601340847,-0.22331883251010048,0.4365456759023327,-0.05463205379191596,nan
1740790125.1429532,-0.11528072059935413,-0.25697226907486154,0.48502783394559873,-0.02132854769696634,nan
1740790125.146859,-0.09080296106247836,-0.2898284579469555,0.5335232900065005,0.013402367993186734,nan
1740790125.150765,-0.06465301197982186,-0.3215060515052033,0.5815830882362953,0.04924816678317837,nan
1740790125.154671,-0.037151048429621775,-0.3516280994406279,0.6287497681120852,0.08587918795483508,nan
1740790125.158577,-0.008634829727086473,-0.3798259338339636,0.6745618010320024,0.12295171835065281,nan
1740790125.1624827,0.020543748335283774,-0.40574303530092887,0.7185581481706392,0.16011126191933633,nan
1740790125.1663888,0.05002227999532397,-0.42903884264057285,0.7602828966969964,0.19699596695509547,nan
1740790125.1702948,0.07943161995061288,-0.44939246845697955,0.7992899301205572,0.23324017901962094,nan
1740790125.1742008,0.10839976112676393,-0.46650628361305474,0.8351475876039668,0.2684780858835956,nan
1740790125.1781065,0.13655578178644298,-0.480109334117163,0.8674432665762651,0.30234741948220484,nan
1740790125.1820126,0.16353382292373517,-0.4899605551360071,0.8957879229077038,0.33449317886269164,nan
1740790125.1859202,0.18897705620242278,-0.4958517482639544,0.9198204232710366,0.3645713374248642,nan
1740790125.1898263,0.21254160239166842,-0.4976102899504478,0.9392117051157436,0.3922524974276329,nan
1740790125.193732,0.23390036033456857,-0.4951015410803436,0.9536687009178004,0.41722545476310835,nan
1740790125.197638,0.25274670695660995,-0.48823093010107055,0.9629379850310735,0.4392006373879121,nan
1740790125.201544,0.2687980296809686,-0.4769456847765492,0.9668091035457881,0.4579133815493147,nan
1740790125.20545,0.2817990538609011,-0.4612361905989874,0.9651175500394276,0.47312701104817534,nan
1740790125.2093558,0.2915249294575379,-0.44113695708170925,0.9577473529664936,0.48463568623463277,nan
1740790125.2132618,0.2977840431718942,-0.41672717656205976,0.9446332436527793,0.49226699122584866,nan
1740790125.2171679,0.30042052456701174,-0.38813086373417877,0.9257623774105105,0.49588422995426495,nan
1740790125.2210739,0.2993164173705678,-0.35551656787581737,0.9011755841428581,0.49538840408296464,nan
1740790125.2249796,0.29439349010743576,-0.3190966535987079,0.8709681289269026,0.4907198485419576,nan
1740790125.2288857,0.2856146634500065,-0.2791261499039326,0.8352899674171848,0.48185950342262424,nan
1740790125.232793,0.2729850351629805,-0.23590117132694366,0.7943454854591556,0.468829804191588,nan
1740790125.236699,0.2565524872278566,-0.18975691897517316,0.748392717002562,0.451695175621729,nan
1740790125.240605,0.2364078636269055,-0.14106527325785506,0.6977420392167843,0.4305621184565672,nan
1740790125.2445111,0.21268471131169658,-0.0902319940458803,0.6427543485895947,0.4055788815922832,nan
1740790125.248417,0.18555858104000003,-0.03769354784267015,0.5838387266930053,0.37693471644509635,nan
1740790125.252323,0.15524588899860203,0.016086414741114764,0.5214496091794646,0.34485871413499464,nan
1740790125.256229,0.12200234439870362,0.07062090437087033,0.456083476383023,0.3096182301231723,nan
1740790125.260135,0.08612095249491358,0.1254037310465395,0.38827508859805465,0.27151690495259756,nan
1740790125.2640407,0.047929606697907634,0.1799139015421276,0.318593293647874,0.23089229372101716,nan
1740790125.2679467,0.007788287584248015,0.23362024008479487,0.2476364386936503,0.18811312082548579,nan
1740790125.2718527,-0.03391410938525641,0.28598619357761457,0.17602742232830512,0.1435761803196601,nan
1740790125.2757587,-0.07676329178397051,0.3364747804347528,0.10440842681030027,0.09770290588250077,nan
1740790125.279666,-0.12032340447900536,0.38455364020528504,0.03343537378053267,0.05093563787394571,nan
1740790125.283572,-0.16414114753393363,0.4297001396329506,-0.03622785006335215,0.0037336182147571354,nan
1740790125.287478,-0.20775014192709573,0.4714064896515418,-0.10391534811937927,-0.043431253158653295,nan
1740790125.291384,-0.25067550443314546,0.5091848270638074,-0.16896529832153379,-0.09007886377905094,nan
1740790125.2952898,-0.29243859052490134,0.542572214306646,-0.23072611344994345,-0.13572549716047408,nan
1740790125.2991958,-0.3325618620225642,0.5711355107745032,-0.28856262247937287,-0.17988856333178066,nan
1740790125.3031018,-0.37057383447136766,0.5944760696599884,-0.34186221720375154,-0.22209140864906995,nan
1740790125.3070078,-0.4060140578865874,0.6122342151758652,-0.39004090793990115,-0.26186816078432884,nan
1740790125.3109136,-0.438438083582935,0.6240934563420828,-0.4325492321839466,-0.2987685638210023,nan
1740790125.3148196,-0.46742236931617476,0.629784395247912,-0.4688779606733642,-0.332362757827104,nan
1740790125.3187256,-0.49256907491697305,0.6290882898214182,-0.4985635463958136,-0.3622459571325737,nan
1740790125.3226316,-0.5135107009951287,0.6218402336416615,-0.521193263677862,-0.38804298181562247,nan
1740790125.3265388,-0.5299145241367902,0.6079319181947623,-0.5364099865727833,-0.40941259760471826,nan
1740790125.3304448,-0.5414867833045504,0.5873139461816896,-0.5439165583325863,-0.4260516205267065,nan
1740790125.3343506,-0.5479765738724637,0.5599976680082447,-0.5434797067767155,-0.43769874417146243,nan
1740790125.3382566,-0.5491794078732596,0.5260565173983202,-0.5349334638353604,-0.44413804938965834,nan
1740790125.3421626,-0.5449404015874436,0.48562682613925107,-0.5181820514220049,-0.4452021585791308,nan
1740790125.3460686,-0.5351570545437639,0.4389081022596349,-0.49320220004656923,-0.44077499942963744,nan
1740790125.3499744,-0.5197815873042033,0.3861627604197077,-0.4600448711825592,-0.4307941460645297,nan
1740790125.3538804,-0.498822809047225,0.32771529792464726,-0.4188363593109179,-0.4152527089167378,nan
1740790125.3577864,-0.4723474899100392,0.2639509145127803,-0.3697787547385692,-0.3942007483778018,nan
1740790125.3616924,-0.44048121727083006,0.1953135788829934,-0.3131497536870636,-0.3677461912319117,nan
1740790125.3655982,-0.4034087196089879,0.12230354976717069,-0.24930180772009675,-0.33605523309865487,nan
1740790125.3695042,-0.3613736462368129,0.0454743641820399,-0.17866061027978042,-0.29935221452252325,nan
1740790125.3734112,-0.3146777960091711,-0.03457068973193756,-0.10172292388081809,-0.2579189629263229,nan
1740790125.3773172,-0.26367979304569883,-0.11718259320140795,-0.019053757318398302,-0.2120935973494201,nan
1740790125.381223,-0.20879321249949367,-0.20167108402107697,0.06871709197157767,-0.16226879767916275,nan
1740790125.385129,-0.15048416443200635,-0.28730957948905333,0.16089910955391107,-0.10888954491222508,nan
1740790125.389035,-0.0892683488605407,-0.3733404999644157,0.2567457232102749,-0.05245034380896035,nan
1740790125.392941,-0.025707599986918444,-0.4589809540562021,0.3554595178993064,0.006508055915402347,nan
1740790125.396847,0.03959405755199577,-0.5434287428681109,0.45619796945198077,0.06740241902720573,nan
1740790125.4007528,0.10599481289365653,-0.6258686374658431,0.5580796550894458,0.12961123944337924,nan
1740790125.4046588,0.17281990162151276,-0.705478880835285,0.6601908942652953,0.19247938035260004,nan
1740790125.4085648,0.2393668306624548,-0.781437863087921,0.7615927691109606,0.25532310583813295,nan
1740790125.4124708,0.30491095521509387,-0.8529309165700746,0.8613284699414168,0.3174354661364084,nan
1740790125.4163766,0.3687113638741206,-0.9191571758664646,0.9584309078953474,0.3780919950419037,nan
1740790125.4202836,0.4300170248301666,-0.979336446474277,1.0519305338723368,0.43655667467248715,nan
1740790125.4241893,0.48807314312517774,-1.03271602517575,1.1408633005185576,0.49208811987241713,nan
1740790125.4280953,0.5421276764594976,-1.0785774148655323,1.224278702126593,0.5439459319821576,nan
1740790125.4320014,0.5914379550043071,-1.116242876800093,1.3012478259748244,0.5913971695712166,nan
1740790125.4359074,0.6352773490936263,-1.1450817639324438,1.3708713478528194,0.633722882035092,nan
1740790125.4398131,0.6729419275716028,-1.1645165801743478,1.4322874043121616,0.6702246507189726,nan
1740790125.4437191,0.7037570489669086,-1.1740287120838282,1.4846792745530035,0.7002310814642184,nan
1740790125.4476252,0.7270838275661116,-1.1731637815979077,1.5272828058060026,0.7231041921896382,nan
1740790125.4515312,0.7423254168666367,-1.1615365710045344,1.5593935175929965,0.7382456393250257,nan
1740790125.455437,0.7489330538078284,-1.1388354743553033,1.5803733223382828,0.7451027276116071,nan
1740790125.459343,0.7464118086013677,-1.1048264329395072,1.589656802441425,0.7431741489711259,nan
1740790125.463249,0.7343259869011788,-1.059356316244352,1.5867569870927762,0.7320153978159093,nan
1740790125.467157,0.712304133454765,-1.0023557139864456,1.571270575790287,0.7112438123157945,nan
1740790125.471063,0.6800435892450134,-0.933841109283216,1.542882559672221,0.6805431937393505,nan
1740790125.474969,0.6373145574420449,-0.8539164078042261,1.50137019638201,0.6396679590273735,nan
1740790125.478875,0.5839636372127638,-0.7627738027630195,1.446606299191806,0.5884467852130908,nan
1740790125.4827807,0.5199167885515447,-0.6606939608396233,1.3785618064895293,0.5267857081490207,nan
1740790125.4866867,0.44518169576560357,-0.5480455195193977,1.297307603436247,0.4546706422044912,nan
1740790125.4905927,0.3598495020363206,-0.42528389185133175,1.2030155735793968,0.3721692921265986,nan
1740790125.4944987,0.26409589254328514,-0.2929493802224192,1.0959588644128866,0.2794324330739669,nan
1740790125.4984045,0.1581815089387728,-0.15166460636804802,0.9765113572554673,0.17669453989734096,nan
1740790125.5023105,0.042451683451917174,-0.0021312704442483753,0.8451463383202984,0.06427375201176212,nan
1740790125.5062165,-0.08266451346262686,0.15487374247079058,0.7024343744162115,-0.05742883436240672,nan
1740790125.5101225,-0.21665591228544295,0.31850288464821225,0.549040403299084,-0.1879305492637973,nan
1740790125.5140305,-0.3589315649786294,0.4878430676822239,0.38572005522376596,-0.32666920441654657,nan
1740790125.5179365,-0.5088237357193823,0.6619213500245265,0.21331522867722932,-0.4730058124376475,nan
1740790125.5218422,-0.6655915449019376,0.839711151112865,0.0327489495467053,-0.6262279556332455,nan
1740790125.5257483,-0.8284252438717986,1.0201389485894377,-0.15498045096157148,-0.7855537846576167,nan
1740790125.5296543,-0.9964510923918559,1.2020914108938843,-0.3488057985393561,-0.9501366218984029,nan
1740790125.5335603,-1.168736805576695,1.3844229136680597,-0.5475981315315934,-1.1190701392131106,nan
1740790125.537466,-1.3442975320157118,1.5659633849595456,-0.750174298510547,-1.2913940746208363,nan
1740790125.541372,-1.5221023200822241,1.7455264211886485,-0.9553050412348105,-1.4661004477941308,nan
1740790125.545278,-1.7010810250369417,1.9219176132764308,-1.1617235022929433,-1.6421402297411063,nan
1740790125.549184,-1.8801316055194564,2.0939430202428073,-1.3681340929516395,-1.8184304179572928,nan
1740790125.5530899,-2.0581277544172774,2.2604177259931624,-1.5732216534685741,-1.9938614645973802,nan
1740790125.5569959,-2.233926805941384,2.420174413934856,-1.7756608354197791,-2.167305001902889,nan
1740790125.5609035,-2.4063778580495767,2.5720718935123488,-1.974125633455232,-2.3376218062534173,nan
1740790125.5648096,-2.5743300471693202,2.7150035127284355,-2.1672989923541888,-2.5036699398133395,nan
1740790125.5687156,-2.736640910501278,2.847905391231219,-2.35388241431834,-2.664313006845361,nan
1740790125.5726213,-2.8921847700499446,2.9697644095901783,-2.5326054911258105,-2.818428460375924,nan
1740790125.5765274,-3.039861071940612,3.079625891953051,-2.7022352860765366,-2.9649158940393185,nan
1740790125.5804334,-3.1786026145495963,3.176600921357365,-2.8615854915887016,-3.1027052536072737,nan
1740790125.5843394,-3.307383599499659,3.2598732295509083,-3.009525289850228,-3.2307649029338963,nan
1740790125.5882452,-3.4252274406524332,3.328705606234586,-3.144987846077217,-3.3481094798127065,nan
1740790125.5921512,-3.5312142678573073,3.382445776155376,-3.2669783666658185,-3.4538074785488297,nan
1740790125.5960572,-3.624488064379374,3.420531696418853,-3.3745816578233794,-3.546988497886453,nan
1740790125.5999632,-3.7042633796114317,3.442496230728971,-3.466969124102114,-3.626850095285882,nan
1740790125.603869,-3.76983156185497,3.447971161962862,-3.543405150602571,-3.692664191398098,nan
1740790125.6077766,-3.820566459607346,3.436690509512709,-3.6032528174289435,-3.7437829719151754,nan
1740790125.6116824,-3.855929543887052,3.4084931231348428,-3.645978900224116,-3.779644237756038,nan
1740790125.6155884,-3.8754744086324253,3.3633245305954667,-3.6711581162454614,-3.7997761587481373,nan
1740790125.6194944,-3.8788506110842986,3.3012380221475106,-3.6784765814161013,-3.8038013905529717,nan
1740790125.6234004,-3.8658068192690713,3.22239496076785,-3.6677344500505606,-3.7914405195190013,nan
1740790125.6273062,-3.836193239192447,3.127064313080333,-3.6388477154562424,-3.7625148053893898,nan
1740790125.6312122,-3.789963300089154,3.01562140193889,-3.591849156298403,-3.7169481973003116,nan
1740790125.6351182,-3.7271745820024487,2.888545887697302,-3.526888420430405,-3.654768604233024,nan
1740790125.6390243,-3.6479889760390485,2.7464189911983503,-3.4442312447756875,-3.576108406981593,nan
1740790125.64293,-3.5526720738089987,2.5899199774262045,-3.344257816745567,-3.481204204719042,nan
1740790125.646836,-3.4415917887639362,2.4198219245335486,-3.2274602895297484,-3.370395795337384,nan
1740790125.650742,-3.3152162183384912,2.236986808532106,-3.094439470346835,-3.244124394850373,nan
1740790125.6546495,-3.1741107619259696,2.042359939276212,-2.945900707333718,-3.1029301072306987,nan
1740790125.6585553,-3.0189345157287386,1.8369637884303116,-2.7826490071302756,-2.9474486620545894,nan
1740790125.6624613,-2.8504359713651595,1.6218912548514557,-2.6055834213260702,-2.778407443195849,nan
1740790125.6663673,-2.6694480507387057,1.398298417198326,-2.4156907457276953,-2.596620837498924,nan
1740790125.6702733,-2.4768825150334863,1.1673968275633768,-2.2140385818309327,-2.402984937818719,nan
1740790125.674179,-2.2737237907481314,0.9304454034820744,-2.0017678148958122,-2.1984716399975532,nan
1740790125.678085,-2.0610222603742985,0.6887419787739801,-1.780084567583642,-1.9841221782132403,nan
1740790125.681991,-1.8398870696269778,0.44361457628970286,-1.5502516921855274,-1.7610401476358015,nan
1740790125.685897,-1.6114785070050113,0.19641246775446475,-1.3135798680183959,-1.5303840674358318,nan
1740790125.689803,-1.3770000148691934,-0.05150291250359976,-1.0714183735585106,-1.2933595408605578,nan
1740790125.693709,-1.1376898941431473,-0.29876713208675004,-0.825145605299632,-1.0512110723032455,nan
1740790125.697615,-0.8948127671446102,-0.544021934943229,-0.5761594171445089,-0.8052136040109832,nan
1740790125.701522,-0.6496508649216951,-0.7859243573036585,-0.3258673553501378,-0.5566638372822389,nan
1740790125.7054281,-0.40349520678479617,-1.0231557173371135,-0.07567686464068249,-0.3068714046806628,nan
1740790125.709334,-0.15763674047953685,-1.2544304118232619,0.17301445892646444,-0.057149960921567704,nan
1740790125.71324,0.0866424883664037,-1.478504454761701,0.41882849340424805,0.19119173933675213,nan
1740790125.717146,0.3280780692702699,-1.6941836949774123,0.6604160210328714,0.43685870854759223,nan
1740790125.721052,0.565431795087363,-1.9003316524136546,0.8964658911349795,0.6785784704681986,nan
1740790125.7249577,0.7974999995624301,-2.095876915908121,1.1257138464580176,0.9151096148760886,nan
1740790125.7288637,1.0231216004727113,-2.279820048798415,1.346950946596885,1.145250097833058,nan
1740790125.7327697,1.2411857871605474,-2.451239952668898,1.55903152566745,1.3678452246869355,nan
1740790125.7366757,1.4506392943184103,-2.6092996438993605,1.7608806254403557,1.5817952556773123,nan
1740790125.7405815,1.6504932074274934,-2.753251402370277,1.9515008496491117,1.786062577174135,nan
1740790125.7444875,1.8398292492316473,-2.882441256680516,2.12997859011699,1.9796783851998534,nan
1740790125.7483945,2.017805501016464,-2.9963127754995442,2.2954895806605093,2.161748831935361,nan
1740790125.7523005,2.183661517220567,-3.0944101401637907,2.4473037403770395,2.331460590352496,nan
1740790125.7562065,2.336722796991116,-3.1763804792904216,2.584789273861159,2.4880857969130843,nan
1740790125.7601123,2.476404581664246,-3.241975451974719,2.7074160020676237,2.6309863373853384,nan
1740790125.7640183,2.602214952756986,-3.2910520720118592,2.8147579038950217,2.75961744620914,nan
1740790125.7679243,2.7137572108519126,-3.3235727714920875,2.9064948550488534,2.8735305954463843,nan
1740790125.7718303,2.810731521689391,-3.339604708011822,2.9824135573006374,2.97237565513342,nan
1740790125.775736,2.892935821803864,-3.3393183255742462,3.0424076578349033,3.055902312760608,nan
1740790125.779642,2.960265982098686,-3.322985184974222,3.0864770649129873,3.1239607455889917,nan
1740790125.783548,3.0127152337967207,-3.2909750850278217,3.1147264725263555,3.176501545525491,nan
1740790125.7874541,3.050372867179979,-3.243752501371853,3.1273631130087467,3.213574902265263,nan
1740790125.79136,3.0734222193902485,-3.1818723746806934,3.124693762673311,3.2353290563225086,nan
1740790125.7952669,3.082137973254489,-3.1059752849860796,3.107121031387699,3.2420080393596873,nan
1740790125.7991726,3.0768827945758948,-3.0167820533022334,3.0751389725485465,3.2339487248414422,nan
1740790125.8030787,3.0581033405481497,-2.9150878159187927,3.029328055121988,3.2115772174369774,nan
1740790125.8069847,3.0263256768630997,-2.801755620495455,2.9703495442364156,3.1754046147285866,nan
1740790125.8108907,2.98215014565034,-2.6777095964465016,2.898939341209505,3.1260221796123653,nan
1740790125.8147964,2.9262457305735095,-2.5439277550155746,2.815901337828709,3.064095966260436,nan
1740790125.8187025,2.859343969178639,-2.4014344768899925,2.7221003431527353,2.990360946616117,nan
1740790125.8226085,2.7822324659144027,-2.251292747172554,2.618454644034829,2.9056146880815636,nan
1740790125.8265145,2.6957480620963152,-2.094596199003982,2.5059282629656368,2.8107106363022907,nan
1740790125.8304203,2.6007697214452454,-1.932461028102205,2.3855229786773773,2.706551059729619,nan
1740790125.8343263,2.49821119167694,-1.766017840950896,2.258270176230231,2.5940797149294235,nan
1740790125.8382323,2.3890135039412286,-1.596403499328731,2.12522259400958,2.4742742933868143,nan
1740790125.8421402,2.274137372698328,-1.4247530233266854,1.9874460351971528,2.3481387118194275,nan
1740790125.8460462,2.1545555588719116,-1.2521916139612927,1.8460111108435273,2.2166953087490087,nan
1740790125.8499522,2.031245258835186,-1.07982685496946,1.701985080672042,2.0809770102889042,nan
1740790125.8538582,1.9051805809729225,-0.908741151381189,1.5564238561978008,1.9420195277852412,nan
1740790125.857764,1.777325170229734,-0.7399844600303322,1.410364228668102,1.8008536491081633,nan
1740790125.86167,1.6486250392173498,-0.5745673643039327,1.2648163817441629,1.6584976840368213,nan
1740790125.865576,1.5200016621308896,-0.41345454217448974,1.120756745775222,1.5159501223328995,nan
1740790125.869482,1.3923453849390857,-0.25755867293690654,0.9791212469953197,1.3741825607712335,nan
1740790125.8733878,1.2665092020936293,-0.10773482411562173,0.8407990010345981,1.2341329526158478,nan
1740790125.8772938,1.1433029463791315,0.03522464424690255,0.7066264958184683,1.0966992298222482,nan
1740790125.8811998,1.0234879345319552,0.17059462522401792,0.577382304270141,0.962733344642662,nan
1740790125.8851058,0.9077721069307725,0.29772123260039735,0.4537823622781767,0.8330357733438761,nan
1740790125.8890135,0.796805695044241,0.41602516738399825,0.33647584218653687,0.7083505204540058,nan
1740790125.8929195,0.6911774454540277,0.525004465242154,0.22604164665749904,0.5893606573743655,nan
1740790125.8968256,0.5914114241990491,0.6242366120166178,0.12298554219673062,0.4766844243671411,nan
1740790125.9007316,0.4979644199549965,0.7133800196703124,0.027737945964519208,0.3708719199022285,nan
1740790125.9046373,0.4112239592191475,0.7921748602235414,-0.05934762622188396,0.27240239616239587,nan
1740790125.9085433,0.33150694126179275,0.8604432604062391,-0.13799544851234238,0.18168217421083463,nan
1740790125.9124494,0.25905889518036235,0.9180888648427957,-0.20800781376764446,0.09904318696584993,nan
1740790125.9163554,0.19405385599836478,0.9650957805554806,-0.2692646114963234,0.024742152750914535,nan
1740790125.9202611,0.13659485143579497,1.001526920381365,-0.32172226949389876,-0.04103962315877695,nan
1740790125.9241672,0.08671498578696173,1.027521767507322,-0.3654120789400534,-0.09819582684350409,nan
1740790125.9280732,0.04437910232059577,1.0432935877017981,-0.40043792772110853,-0.14669410690075416,nan
1740790125.9319792,0.00948600080856227,1.049126119926454,-0.4269734714811082,-0.1865744564481816,nan
1740790125.9358869,-0.01812881776558036,1.0453697798139432,-0.4452587763259075,-0.21794702873369595,nan
1740790125.9397926,-0.038689911530339564,1.0324374139714672,-0.4555964711752329,-0.2409894136512096,nan
1740790125.9436986,-0.05247819923083401,1.0107996461876436,-0.45834745144535005,-0.2559434067092142,nan
1740790125.9476047,-0.059826842639556586,0.980979859360475,-0.453926179021267,-0.26311130592933396,nan
1740790125.9515107,-0.06111675278761208,0.9435488593078728,-0.44279562631755565,-0.26285177573179785,nan
1740790125.9554164,-0.05677176570632853,0.8991192685540754,-0.4254619146104724,-0.25557532006613903,nan
1740790125.9593225,-0.047253535710263785,0.8483396996936915,-0.4024686987347674,-0.24173940984375228,nan
1740790125.9632285,-0.03305619614222803,0.791888759012278,-0.3743913516646701,-0.2218433121033572,nan
1740790125.9671345,-0.014700838925892684,0.7304689316840521,-0.3418310034324701,-0.1964226702739373,nan
1740790125.9710402,0.007270134776760795,0.6648004000733638,-0.30540848927718783,-0.16604388637954512,nan
1740790125.9749463,0.03229874003183733,0.5956148464402282,-0.26575826186146273,-0.13129835704768275,nan
1740790125.9788523,0.0598171569561407,0.523649290698664,-0.2235223218531557,-0.09279661573328803,nan
1740790125.9827597,0.0892534506054079,0.44964001281045524,-0.1793442201495149,-0.05116243365330053,nan
1740790125.9866657,0.12003721057952756,0.3743166079303282,-0.1338631835407625,-0.00702693154625388,nan
1740790125.9905717,0.1516050603902408,0.2983962205688454,-0.08770841368518931,0.03897724646478116,nan
1740790125.9944775,0.18340598846650508,0.22257800182704304,-0.041493606921771925,0.086221646907232,nan
1740790125.9983835,0.21490645491745577,0.14753783120535102,0.004188260294991545,0.13408756060077545,nan
1740790126.0022895,0.24559523080857318,0.07392334162476173,0.04876983866048699,0.18197136973009456,nan
1740790126.0061955,0.2749879297058403,0.002349283148919243,0.09171396774870769,0.22928964467361287,nan
1740790126.0101013,0.3026311945747963,-0.06660674250750423,0.13251785770623356,0.27548394977261315,nan
1740790126.0140073,0.3281065067530585,-0.13240814822378566,0.17071686041312095,0.32002532041405335,nan
1740790126.0179133,0.35103358761033837,-0.19456280382370755,0.20588780383328198,0.3624183772866865,nan
1740790126.0218194,0.371073367631249,-0.2526260338490401,0.23765186767809274,0.4022050474193325,nan
1740790126.0257251,0.3879305019635494,-0.3062031541547177,0.26567698304590887,0.438967865585818,nan
1740790126.0296326,0.4013554159268754,-0.35495153488560266,0.2896797433337068,0.47233283382491664,nan
1740790126.0335386,0.4111458685323103,-0.3985821815986323,0.3094268184017063,0.5019718211360074,nan
1740790126.0374446,0.4171480266786552,-0.4368608305039598,0.3247358686638142,0.5276044898315012,nan
1740790126.0413504,0.41925704732411384,-0.4696085579780305,0.3354759604328995,0.5489997395140829,nan
1740790126.0452564,0.41741716953948726,-0.49670190861465824,0.34156748842782436,0.5659766641591503,nan
1740790126.0491624,0.4116213228888346,-0.5180725500924427,0.34298161580747616,0.5784050222790589,nan
1740790126.0530684,0.40191026301461247,-0.5337064670149047,0.3397392463960801,0.5862052245851905,nan
1740790126.0569742,0.38837124958678393,-0.5436427095918307,0.331909547865945,0.5893478479065798,nan
1740790126.0608802,0.3711362858710718,-0.5479717165466235,0.31960804851287905,0.5878526883311571,nan
1740790126.0647862,0.3503799430443201,-0.546833234927159,0.3029943338627581,0.5817873705706232,nan
1740790126.0686922,0.3263167960010564,-0.5404138625414159,0.28226937265484203,0.5712655343774237,nan
1740790126.072598,0.29919850072364496,-0.5289442415110255,0.2576725047312726,0.5564446224293637,nan
1740790126.0765052,0.26931054630075657,-0.5126959339157041,0.22947812599884462,0.5375232974137368,nan
1740790126.0804112,0.2369687173501331,-0.4919780126720106,0.19799210789827898,0.514738519060883,nan
1740790126.0843172,0.20251530491014347,-0.46713340263658665,0.16354799070109585,0.4883623145722245,nan
1740790126.088223,0.16631510579231695,-0.4385350084357917,0.1265029914418848,0.4586982782387517,nan
1740790126.092129,0.12875125191938175,-0.4065816666921699,0.08723386837517012,0.42607783803463584,nan
1740790126.096035,0.09022091229973753,-0.3716939611385958,0.046132684516067016,0.3908563285826965,nan
1740790126.099941,0.05113091100298164,-0.33430993958134597,0.0036025130812704963,0.3534089111130614,nan
1740790126.1038468,0.011893304799149839,-0.2948807717950417,-0.03994687250576681,0.3141263818663571,nan
1740790126.1077528,-0.02707903599217023,-0.2538663872098604,-0.0841032819377409,0.273410910824801,nan
1740790126.1116588,-0.0653768004228909,-0.21173113069198646,-0.12845632351614714,0.23167175268902254,nan
1740790126.1155648,-0.10259852151489063,-0.16893947383231978,-0.17260151198410925,0.18932097165929054,nan
1740790126.1194706,-0.1383547317589601,-0.12595181795906216,-0.2161442305606321,0.14676922083486846,nan
1740790126.1233776,-0.17227195042585786,-0.08322042359271,-0.258703511069894,0.10442161592555532,nan
1740790126.1272836,-0.20399646564310425,-0.041185499285278676,-0.2999155984094673,0.06267374148985168,nan
1740790126.1311896,-0.23319787656415167,-0.00027148074980347007,-0.33943726824322135,0.02190782609234561,nan
1740790126.1350956,-0.25957236363524483,0.03911647108639485,-0.3769488697092749,-0.017510879370168996,nan
1740790126.1390014,-0.2828456579215445,0.07659572695616909,-0.41215706806963215,-0.055237488365002994,nan
1740790126.1429074,-0.3027756836575732,0.11180917757793238,-0.4447972655631808,-0.09095060134540185,nan
1740790126.1468134,-0.31915485160521256,0.14442793278642682,-0.47463568222304625,-0.12435513815565348,nan
1740790126.1507194,-0.3318119844010608,0.17415371378608926,-0.5014710820471567,-0.1551848572439439,nan
1740790126.1546252,-0.34061385881830786,0.2007209239095614,-0.5251361336308059,-0.18320454205394807,nan
1740790126.1585312,-0.34546635371955847,0.22389838640243923,-0.5454983981449045,-0.2082118384587354,nan
1740790126.1624372,-0.3463151963988227,0.24349074093754688,-0.5624609413362943,-0.23003873070442926,nan
1740790126.1663432,-0.34314630396521417,0.25933949375832865,-0.5759625700000673,-0.2485526470107733,nan
1740790126.17025,-0.3359857203700056,0.2713237195321995,-0.5859776970917889,-0.26365718969530805,nan
1740790126.174156,-0.3248991535849514,0.2793604161323052,-0.5925158432744995,-0.275292488411503,nan
1740790126.178062,-0.3099911212664815,0.2834045166323912,-0.5956207861970436,-0.2834351787831181,nan
1740790126.1819677,-0.29140371695161443,0.28344856576771044,-0.5953693721440378,-0.28809801234241955,nan
1740790126.1858737,-0.2693150123929663,0.2795220709598662,-0.5918700078528524,-0.2893291072045616,nan
1740790126.1897798,-0.24393711501920415,0.2716905407013745,-0.585260853230647,-0.28721085230169474,nan
1740790126.1936858,-0.21551390267314874,0.2600542256245735,-0.5757077383986006,-0.28185848122708446,nan
1740790126.1975915,-0.184318460703882,0.24474657991918133,-0.5634018309173464,-0.2734183347722846,nan
1740790126.2014976,-0.15065024914586655,0.2259324628953199,-0.5485570811865251,-0.2620658340520862,nan
1740790126.2054036,-0.1148320300839998,0.20380610239838204,-0.5314074758445866,-0.24800318867778623,nan
1740790126.2093096,-0.0772065873585135,0.1785888434552335,-0.5122041305078661,-0.23145686673686952,nan
1740790126.2132154,-0.03813327249061125,0.15052670695695147,-0.4912122543692913,-0.2126748553472644,nan
1740790126.2171235,0.0020155879051290205,0.11988778435294746,-0.46870802001886813,-0.19192374226017023,nan
1740790126.2210295,0.04285838692272834,0.08695949523899432,-0.4449753723457701,-0.16948565037375912,nan
1740790126.2249355,0.08400799740873931,0.052045735363886694,-0.4203028105344086,-0.1456550580805056,nan
1740790126.2288415,0.12507555996500375,0.015463942955232415,-0.3949801769764036,-0.12073553909649866,nan
1740790126.2327473,0.16567426167916585,-0.022457888624062474,-0.3692954863927262,-0.09503645580813726,nan
1740790126.2366533,0.20542306876332353,-0.06138422402676561,-0.3435318276041586,-0.06886964021964426,nan
1740790126.2405593,0.2439503770451128,-0.1009749974218405,-0.3179643692157833,-0.04254609629680901,nan
1740790126.2444654,0.2808975453616767,-0.14088859553607913,-0.2928574990074832,-0.016372756884280953,nan
1740790126.2483711,0.31592227834198405,-0.1807847863124758,-0.26846212506525846,0.009350672565060234,nan
1740790126.2522771,0.3487018268103414,-0.22032756836672543,-0.24501316466808806,0.034334752457468976,nan
1740790126.2561831,0.3789359760842912,-0.2591879177357866,-0.22272724468501573,0.05830320027185574,nan
1740790126.2600892,0.4063497947514564,-0.29704640991535275,-0.20180063476217014,0.08099560688496504,nan
1740790126.263997,0.4306961190677212,-0.3335956968582096,-0.18240743191655748,0.1021699524447932,nan
1740790126.2679029,0.4517577508968541,-0.3685428204334955,-0.1646980123312562,0.12160489853221274,nan
1740790126.2718089,0.46934935008059353,-0.401611345807301,-0.14879776319506868,0.1391018358616437,nan
1740790126.2757149,0.483319005258244,-0.4325433002764574,-0.13480610437963325,0.15448666946338274,nan
1740790126.279621,0.49354947041427943,-0.46110090524770597,-0.1227958066301397,0.1676113261346851,nan
1740790126.2835267,0.49995905778890154,-0.48706809128116846,-0.11281260979416816,0.1783549719144803,nan
1740790126.2874327,0.50250218120658,-0.510251788387364,-0.10487514145880536,0.18662493039732966,nan
1740790126.2913387,0.5011695473277397,-0.5304829860582347,-0.09897513324102042,0.19235729582478803,nan
1740790126.2952447,0.49598799577525954,-0.5476175598021055,-0.09507792891148349,0.1955172380454036,nan
1740790126.2991505,0.4870199924969149,-0.5615368632181695,-0.09312327555801912,0.19609899958665672,nan
1740790126.3030565,0.4743627840645228,-0.5721480868664123,-0.09302638614096256,0.1941255882019912,nan
1740790126.3069625,0.458147223848469,-0.5793843873432724,-0.09467925908653758,0.1896481713132358,nan
1740790126.3108702,0.4385362841118349,-0.5832047920421309,-0.09795223803212809,0.18274518173316318,nan
1740790126.3147762,0.4157232710123007,-0.5835938870425532,-0.10269579250305362,0.17352114689626913,nan
1740790126.318682,0.38992976225507164,-0.5805612974160071,-0.10874249818610483,0.16210525652069505,nan
1740790126.322588,0.3614032896807785,-0.574140970943067,-0.11590919359017314,0.14864968614512558,nan
1740790126.326494,0.330414791375654,-0.5643902777939614,-0.12399928826579774,0.13332769630774446,nan
1740790126.3304,0.29725585993658205,-0.5513889401186618,-0.13280519640760394,0.11633152923846424,nan
1740790126.3343058,0.26223581529290396,-0.5352378067142074,-0.14211086859783917,0.09787012680145463,nan
1740790126.3382118,0.22567863196497895,-0.5160574889773409,-0.15169439367397897,0.07816669503575831,nan
1740790126.3421178,0.1879197518142199,-0.49398687520331197,-0.16133064222421123,0.057456141983469954,nan
1740790126.3460238,0.1493028142014289,-0.4691815409526294,-0.17079392303393962,0.03598241655626631,nan
1740790126.3499296,0.11017633601375112,-0.4418120736741397,-0.17986062392369728,0.013995776963578312,nan
1740790126.3538356,0.07089037424240828,-0.41206233004481996,-0.18831180883045717,-0.00824998229617201,nan
1740790126.357743,0.031793203693870196,-0.38012764456564885,-0.19593574368377978,-0.030500315698572793,nan
1740790126.361649,-0.006771958000365805,-0.3462130078424906,-0.2025303246060289,-0.05250269514302876,nan
1740790126.365555,-0.04447014663931353,-0.3105312326864811,-0.20790538321003563,-0.07400933293034427,nan
1740790126.369461,-0.08097773856849252,-0.27330112569709925,-0.211884845263204,-0.0947798313044803,nan
1740790126.3733668,-0.11598539957252242,-0.23474568135195062,-0.21430872071699905,-0.11458373156812247,nan
1740790126.3772728,-0.14920086805619728,-0.19509031483056916,-0.2150349050455454,-0.13320293702125105,nan
1740790126.3811789,-0.18035154687875174,-0.15456114885723818,-0.21394077397520533,-0.15043398546327985,nan
1740790126.3850849,-0.20918688029586122,-0.11338336877303871,-0.2109245559951815,-0.16609014872593755,nan
1740790126.3889906,-0.23548049476851596,-0.07177965885434792,-0.2059064694924728,-0.18000333864692278,nan
1740790126.3928967,-0.2590320848931091,-0.029968731599088347,-0.19882961392672224,-0.1920258010324884,nan
1740790126.3968027,-0.27966902836700225,0.011836039680867598,-0.18966060712441785,-0.20203158146777422,nan
1740790126.4007087,-0.29724771670101735,0.05342787607579033,-0.17838996349946998,-0.20991774929246804,nan
1740790126.4046159,-0.3116545912964383,0.09460772872373759,-0.16503221076997962,-0.21560536864064933,nan
1740790126.408522,-0.322806877489653,0.13518528904896476,-0.1496257455103785,-0.21904020812059552,nan
1740790126.412428,-0.3306530122026404,0.17497986931704743,-0.13223243062549314,-0.2201931834554913,nan
1740790126.416334,-0.33517276389182227,0.21382115079260866,-0.11293694053033153,-0.21906053019119456,nan
1740790126.4202397,-0.3363770465311413,0.2515497983317911,-0.09184586243907908,-0.21566370637430032,nan
1740790126.4241457,-0.33430743236766214,0.288017941755686,-0.06908656468238383,-0.21004902788436805,nan
1740790126.4280517,-0.3290353711201252,0.3230895258169303,-0.04480584535822549,-0.20228704184048638,nan
1740790126.4319577,-0.3206611261243938,0.35664053197470963,-0.019168376854684366,-0.19247164616698906,nan
1740790126.4358635,-0.3093124406371801,0.3885590765191883,0.007645036159349046,-0.18071896596968784,nan
1740790126.4397695,-0.295142950065085,0.4187453908221011,0.03543936581729932,-0.1671659998170968,nan
1740790126.4436755,-0.2783303582655461,0.44711169062397793,0.06400741610507632,-0.1519690513168875,nan
1740790126.4475815,-0.25907439824748696,0.4735819422897939,0.09313200135232191,-0.1353019635038896,nan
1740790126.4514887,-0.23759459956209375,0.49809153486467955,0.12258822446245107,-0.11735417549173649,nan
1740790126.4553947,-0.21412788640030658,0.5205868675320988,0.15214583025646705,-0.09832862256740947,nan
1740790126.4593005,-0.18892603188780568,0.5410248627125744,0.18157160864463617,-0.07843950240993379,nan
1740790126.4632065,-0.16225299527769188,0.5593724155371907,0.21063182194643204,-0.05790993137749342,nan
1740790126.4671125,-0.13438216967547406,0.5756057907838892,0.23909463055544977,-0.03696951581968842,nan
1740790126.4710186,-0.10559356858306515,0.5897099785748292,0.26673249129208443,-0.015851864124582667,nan
1740790126.4749243,-0.07617097991368231,0.6016780202002369,0.2933245031998752,0.005207934302668627,nan
1740790126.4788303,-0.04639911620623171,0.6115103153602448,0.3186586762158845,0.025975836715111927,nan
1740790126.4827363,-0.01656078955708435,0.6192139219047957,0.3425340990731173,0.04622135499129967,nan
1740790126.4866424,0.013065860706707434,0.6248018588078772,0.3647629839629748,0.0657200178537587,nan
1740790126.4905481,0.042210060359035746,0.6282924226426009,0.3851725668848071,0.0842557618828044,nan
1740790126.4944541,0.07061098639457693,0.6297085272358401,0.40360684422233184,0.10162322671175815,nan
1740790126.498361,0.09802022201204767,0.6290770754843089,0.41992812789525985,0.11762993087860431,nan
1740790126.5022671,0.12420405706792705,0.6264283715183406,0.43401840341941034,0.13209830613316026,nan
1740790126.5061731,0.14894561236270837,0.621795580516356,0.4457804773485006,0.14486756954343494,nan
1740790126.5100791,0.17204676808082658,0.6152142425141055,0.45513890284294534,0.1557954144934979,nan
1740790126.513985,0.19332987884765782,0.6067218455311031,0.46204067449114816,0.16475950359926633,nan
1740790126.517891,0.21263926016963014,0.5963574622654005,0.4664556859719564,0.17165874866783262,nan
1740790126.521797,0.22984243346255664,0.5841614535008869,0.46837694666719093,0.17641436506838443,nan
1740790126.525703,0.24483111942322092,0.5701752402424973,0.4678205558842041,0.17897069024514506,nan
1740790126.5296087,0.2575219721339037,0.5544411454583071,0.4648254359035672,0.17929575856073635,nan
1740790126.5335147,0.26785704898180884,0.5370023051773596,0.45945282759986883,0.17738162718664335,nan
1740790126.5374207,0.2758040141977634,0.5179026475822469,0.4517855548678402,0.17324445033032423,nan
1740790126.5413268,0.2813560765437047,0.4971869376591811,0.4419270664962227,0.16692430167961067,nan
1740790126.5452335,0.28453166437867417,0.47490088393867386,0.43000026644297956,0.1584847475282779,nan
1740790126.5491395,0.2853738439814343,0.4510913028891495,0.4161461456541311,0.14801217559581623,nan
1740790126.5530453,0.2839494895779179,0.4258063356254735,0.40052223061227377,0.135614887043903,nan
1740790126.5569513,0.2803482159881772,0.39909571077486655,0.38330086567899574,0.12142196159696438,nan
1740790126.5608573,0.274681087145904,0.37101104661382617,0.36466734798890027,0.10558190797034017,nan
1740790126.5647633,0.2670791159312933,0.34160618495965744,0.3448179351448344,0.08826111397431183,nan
1740790126.568669,0.25769157277361443,0.3109375487764422,0.32395774723923876,0.0696421126739922,nan
1740790126.572575,0.24668412230415368,0.27906451504353186,0.30229858577267754,0.049921682824104835,nan
1740790126.576481,0.23423680895572202,0.24604979413967018,0.28005669284734513,0.029308803445921298,nan
1740790126.580387,0.22054191379663912,0.21195980682066623,0.2574504745729713,0.008022483855048165,nan
1740790126.584293,0.20580170604218076,0.17686504981503248,0.2346982129298354,-0.013710508330504474,nan
1740790126.588199,0.19022611359451283,0.14084044113051067,0.21201579038605914,-0.03565799768423847,nan
1740790126.592107,0.17403033761540504,0.10396563635372603,0.18961445136403263,-0.05758480570258164,nan
1740790126.5960128,0.1574324365292524,0.06632530753297879,0.16769862419644063,-0.07925518501110135,nan
1740790126.5999188,0.14065090498464977,0.028009376656433462,0.14646382651122988,-0.10043525803728481,nan
1740790126.6038249,0.12390227317100534,-0.010886803730572506,0.12609467604477775,-0.120895435150649,nan
1740790126.6077309,0.10739875149533823,-0.050262329591035985,0.10676302771384985,-0.14041278753359485,nan
1740790126.6116366,0.09134594497874408,-0.09001069023713518,0.08862625639219338,-0.15877335055935596,nan
1740790126.6155427,0.0759406608400544,-0.13001978422324023,0.07182570325171037,-0.17577433421077873,nan
1740790126.6194487,0.06136883160629625,-0.17017201067555476,0.056485301757933225,-0.1912262180671378,nan
1740790126.6233547,0.0478035747385085,-0.21034443948471857,0.0427103974737,-0.20495470960511186,nan
1740790126.6272604,0.03540340820204948,-0.25040906277502906,0.030586773743964457,-0.2168025459915211,nan
1740790126.6311665,0.024310639659936885,-0.2902331290089426,0.020179893130433568,-0.22663112117443548,nan
1740790126.6350725,0.014649945044710885,-0.32967956000066734,0.011534362160325827,-0.23432192188885972,nan
1740790126.6389804,0.006527150189274778,-0.36860745001094686,0.00467362457309256,-0.23977775816473373,nan
1740790126.6428864,2.822699232384536e-05,-0.4068726449897024,-0.000400114182643175,-0.24292377603802465,nan
1740790126.6467924,-0.004781486717756842,-0.44432839893717513,-0.003705730907099627,-0.24370824239878416,nan
1740790126.6506982,-0.007857836850849707,-0.4808261032808856,-0.005282799225083503,-0.242103094240151,nan
1740790126.6546042,-0.009178167937129231,-0.5162160841278088,-0.005190979374489794,-0.23810424697583096,nan
1740790126.6585102,-0.008741401389507379,-0.5503484612613061,-0.003509190184220921,-0.23173165894618256,nan
1740790126.6624162,-0.006567877803557295,-0.5830740618225888,-0.00033457252436525764,-0.22302915170967616,nan
1740790126.666322,-0.0026989664237558587,-0.6142453807580115,0.004218744281544492,-0.21206398819237007,nan
1740790126.670228,0.0028035526676743637,-0.643717579337139,0.01002105950766173,-0.19892621321806672,nan
1740790126.674134,0.009858325724631948,-0.6713495123617944,0.016928686024881658,-0.18372776334135643,nan
1740790126.67804,0.01836547169358987,-0.6970047741019696,0.024785685955309125,-0.16660135523083555,nan
1740790126.6819458,0.02820782542302175,-0.7205527525181339,0.033425738094903734,-0.1476991640770653,nan
1740790126.6858535,0.03925236338429118,-0.7418696809675498,0.042674116821191155,-0.12719130560705386,nan
1740790126.6897595,0.051351795708286206,-0.7608396763497648,0.05234976102026331,-0.1052641372533637,nan
1740790126.6936655,0.06434630666418277,-0.7773557525274067,0.06226741061025309,-0.0821183958316925,nan
1740790126.6975715,0.07806542422162463,-0.7913207978651843,0.07223978751677888,-0.05796719070817681,nan
1740790126.7014773,0.09232999806002022,-0.8026485058636278,0.08207979747720497,-0.033033872870722604,nan
1740790126.7053833,0.1069542643309426,-0.8112642481243172,0.09160272881975999,-0.007549801543220899,nan
1740790126.7092893,0.12174797465196034,-0.8171058792682736,0.1006284243831903,0.018247969014234137,nan
1740790126.7131953,0.13651856622032857,-0.8201244639357629,0.10898340301239752,0.04411905910181026,nan
1740790126.717101,0.15107334958824095,-0.8202849166194364,0.1165029075828626,0.06982216561898326,nan
1740790126.721007,0.16522169054041375,-0.8175665458175603,0.12303285726610509,0.09511747229756129,nan
1740790126.7249131,0.17877716266010268,-0.8119634948331432,0.12843168274245145,0.11976904383055337,nan
1740790126.7288191,0.19155964755880203,-0.8034850724795456,0.1325720242855447,0.14354717979399095,nan
1740790126.7327266,0.20339736037327935,-0.7921559679743837,0.13534227407303154,0.16623070469670398,nan
1740790126.7366326,0.2141287789939242,-0.7780163454007626,0.13664794570489475,0.18760917116848574,nan
1740790126.7405386,0.22360445657116249,-0.7611218142767433,0.13641285571829814,0.2074849542030549,nan
1740790126.7444446,0.23168869814016374,-0.7415432739884449,0.1345801038570245,0.22567521549909766,nan
1740790126.7483504,0.23826108369415502,-0.7193666310964895,0.13111284096423648,0.2420137182787446,nan
1740790126.7522564,0.243217821707659,-0.6946923898064494,0.1259948155978524,0.2563524744944144,nan
