timestamps,TP9,AF7,AF8,TP10,Right AUX
1741044331.6227164,-17.08984375,-24.4140625,-38.0859375,-30.2734375,0.0
1741044331.6266224,-7.8125,-19.53125,-33.69140625,-26.3671875,0.0
1741044331.6305282,-17.578125,-19.53125,-26.3671875,-24.90234375,0.0
1741044331.6344342,-22.4609375,-17.08984375,-24.90234375,-22.4609375,0.0
1741044331.6383402,-7.8125,-17.08984375,-23.92578125,-18.06640625,0.0
1741044331.642246,-19.04296875,-44.43359375,-34.66796875,-18.5546875,0.0
1741044331.646152,-32.71484375,-35.15625,-32.2265625,-12.20703125,0.0
1741044331.6500578,-38.57421875,-11.71875,-21.484375,-12.20703125,0.0
1741044331.6539638,-27.83203125,-12.6953125,-24.4140625,-7.32421875,0.0
1741044331.6578698,-15.625,-24.4140625,-34.1796875,-5.859375,0.0
1741044331.6617756,-28.3203125,-22.4609375,-35.15625,-14.16015625,0.0
1741044331.6656816,-47.8515625,-15.625,-29.296875,-12.6953125,0.0
1741044331.66959,-42.96875,-17.578125,-31.25,-13.18359375,0.0
1741044331.6734958,-20.01953125,-22.4609375,-40.52734375,-17.08984375,0.0
1741044331.6774018,-13.671875,-13.18359375,-38.57421875,-14.6484375,0.0
1741044331.6813078,-36.1328125,-4.8828125,-26.85546875,-14.16015625,0.0
1741044331.6852136,-46.875,-10.7421875,-19.53125,-16.11328125,0.0
1741044331.6891196,-22.94921875,-17.578125,-26.3671875,-9.27734375,0.0
1741044331.6930254,-9.27734375,-20.99609375,-37.59765625,-13.671875,0.0
1741044331.6969314,-22.94921875,-1.953125,-34.1796875,-23.4375,0.0
1741044331.7008374,-39.55078125,-10.25390625,-26.85546875,-33.69140625,0.0
1741044331.7047431,-39.0625,-31.73828125,-36.62109375,-37.59765625,0.0
1741044331.7086492,-16.6015625,-15.625,-44.921875,-36.1328125,0.0
1741044331.7125552,-15.13671875,-1.953125,-35.64453125,-36.1328125,0.0
1741044331.7164648,-39.55078125,-17.08984375,-34.66796875,-29.296875,0.0
1741044331.7203708,-41.50390625,-24.4140625,-41.50390625,-26.3671875,0.0
1741044331.7242765,-20.01953125,-8.7890625,-30.76171875,-27.83203125,0.0
1741044331.7281826,-19.53125,-14.16015625,-32.71484375,-27.83203125,0.0
1741044331.7320883,-41.015625,-30.76171875,-38.57421875,-24.4140625,0.0
1741044331.7359943,-40.0390625,-24.90234375,-37.59765625,-21.97265625,0.0
1741044331.7399004,-18.06640625,-6.34765625,-31.25,-18.5546875,0.0
1741044331.7438061,-14.16015625,-16.11328125,-41.015625,-24.4140625,0.0
1741044331.7477121,-25.87890625,-30.2734375,-50.29296875,-25.390625,0.0
1741044331.751618,-42.48046875,-28.3203125,-39.0625,-17.578125,0.0
1741044331.755524,-27.34375,-28.3203125,-28.3203125,-12.20703125,0.0
1741044331.75943,-17.578125,-40.52734375,-46.38671875,-19.53125,0.0
1741044331.7633393,-33.69140625,-27.83203125,-38.57421875,-10.7421875,0.0
1741044331.7672453,-46.875,-14.16015625,-30.2734375,-9.27734375,0.0
1741044331.7711513,-29.78515625,-20.01953125,-28.80859375,-13.671875,0.0
1741044331.775057,-20.01953125,-23.92578125,-28.80859375,-7.32421875,0.0
1741044331.778963,-25.390625,-16.11328125,-24.90234375,-4.39453125,0.0
1741044331.7828689,-46.38671875,-22.94921875,-35.15625,-16.11328125,0.0
1741044331.7867749,-39.55078125,-18.5546875,-46.875,-13.18359375,0.0
1741044331.790681,-19.53125,-17.578125,-32.2265625,-12.6953125,0.0
1741044331.7945867,-28.80859375,-35.15625,-31.73828125,-29.78515625,0.0
1741044331.7984927,-50.29296875,-33.69140625,-31.73828125,-27.34375,0.0
1741044331.8023984,-56.15234375,-23.92578125,-32.2265625,-22.94921875,0.0
1741044331.8063045,-40.52734375,-22.4609375,-41.9921875,-24.4140625,0.0
1741044331.8102138,0.0,-30.2734375,-37.59765625,-23.92578125,0.0
1741044331.8141198,0.0,-26.85546875,-37.109375,-31.25,0.0
1741044331.8180258,0.0,-25.87890625,-51.7578125,-43.9453125,0.0
1741044331.8219316,0.0,-23.4375,-53.22265625,-32.71484375,0.0
1741044331.8258376,0.0,-17.578125,-41.9921875,-15.13671875,0.0
1741044331.8297434,0.0,-21.484375,-42.48046875,-17.08984375,0.0
1741044331.8336494,0.0,-21.484375,-36.1328125,-24.4140625,0.0
1741044331.8375554,0.0,-10.7421875,-31.73828125,-21.97265625,0.0
1741044331.8414612,0.0,-12.6953125,-33.69140625,-17.08984375,0.0
1741044331.8453672,0.0,-7.8125,-32.71484375,-26.85546875,0.0
1741044331.849273,0.0,-11.71875,-46.38671875,-29.78515625,0.0
1741044331.853179,0.0,-22.4609375,-46.875,-20.99609375,0.0
1741044331.857088,-17.08984375,-11.71875,-32.71484375,-23.92578125,0.0
1741044331.860994,-11.23046875,-5.37109375,-37.59765625,-31.25,0.0
1741044331.8649,-22.94921875,-14.16015625,-40.0390625,-30.76171875,0.0
1741044331.868806,-13.671875,-23.92578125,-35.15625,-22.94921875,0.0
1741044331.872712,-0.48828125,-17.08984375,-37.59765625,-33.69140625,0.0
1741044331.8766177,4.39453125,-15.13671875,-42.48046875,-41.50390625,0.0
1741044331.8805237,-10.25390625,-13.671875,-41.015625,-33.203125,0.0
1741044331.8844297,-22.4609375,-18.06640625,-35.64453125,-15.625,0.0
1741044331.8883355,-20.5078125,-28.3203125,-38.0859375,-14.6484375,0.0
1741044331.8922415,-22.94921875,-27.83203125,-43.9453125,-33.203125,0.0
1741044331.8961473,-31.73828125,-21.484375,-41.50390625,-27.83203125,0.0
1741044331.9000533,-41.9921875,-20.99609375,-40.52734375,-17.578125,0.0
1741044331.9039624,0.0,-19.04296875,-25.87890625,-11.23046875,0.0
1741044331.9078681,0.0,-19.04296875,-15.625,-2.9296875,0.0
1741044331.9117742,0.0,-30.2734375,-31.25,-8.7890625,0.0
1741044331.9156802,0.0,-35.64453125,-27.83203125,-8.30078125,0.0
1741044331.919586,0.0,-39.55078125,-24.4140625,-6.8359375,0.0
1741044331.923492,0.0,-43.9453125,-30.2734375,-12.6953125,0.0
1741044331.9273977,0.0,-44.921875,-28.3203125,-14.6484375,0.0
1741044331.9313037,0.0,-45.41015625,-44.43359375,-17.578125,0.0
1741044331.9352098,0.0,-26.85546875,-35.15625,-20.99609375,0.0
1741044331.9391155,0.0,-20.01953125,-22.4609375,-10.7421875,0.0
1741044331.9430215,0.0,-36.62109375,-46.875,-15.13671875,0.0
1741044331.9469273,0.0,-30.2734375,-38.0859375,-19.53125,0.0
1741044331.9508362,-47.36328125,-17.08984375,-20.99609375,-12.6953125,0.0
1741044331.954742,-40.52734375,-28.3203125,-32.71484375,-12.20703125,0.0
1741044331.958648,-28.3203125,-34.66796875,-30.2734375,-14.6484375,0.0
1741044331.962554,-33.203125,-24.90234375,-32.71484375,-18.06640625,0.0
1741044331.9664598,-48.828125,-19.04296875,-37.109375,-18.5546875,0.0
1741044331.9703658,-48.828125,-23.92578125,-36.62109375,-19.04296875,0.0
1741044331.9742718,-27.83203125,-32.71484375,-44.43359375,-12.6953125,0.0
1741044331.9781775,-21.484375,-32.2265625,-46.875,-5.859375,0.0
1741044331.9820836,-36.1328125,-21.97265625,-50.29296875,-14.6484375,0.0
1741044331.9859893,-40.0390625,-23.92578125,-41.50390625,-19.53125,0.0
1741044331.9898953,-21.97265625,-21.484375,-38.0859375,-16.6015625,0.0
1741044331.9938014,-13.18359375,-10.7421875,-36.1328125,-13.18359375,0.0
1741044331.9977098,0.0,-16.6015625,-42.96875,-18.06640625,0.0
1741044332.0016158,0.0,-23.92578125,-44.43359375,-11.23046875,0.0
1741044332.0055218,0.0,-21.97265625,-32.71484375,-10.7421875,0.0
1741044332.0094275,0.0,-25.87890625,-41.50390625,-22.94921875,0.0
1741044332.0133336,0.0,-29.296875,-51.7578125,-26.3671875,0.0
1741044332.0172393,0.0,-24.90234375,-35.64453125,-15.625,0.0
1741044332.0211453,0.0,-18.06640625,-27.83203125,-4.8828125,0.0
1741044332.0250514,0.0,-14.16015625,-27.83203125,-11.23046875,0.0
1741044332.0289571,0.0,-20.01953125,-36.1328125,-19.53125,0.0
1741044332.0328631,0.0,-28.3203125,-38.57421875,-11.71875,0.0
1741044332.0367692,0.0,-19.04296875,-24.4140625,-0.9765625,0.0
1741044332.040675,0.0,-15.625,-36.62109375,-10.25390625,0.0
1741044332.0445833,-17.578125,-13.18359375,-41.9921875,-17.578125,0.0
1741044332.0484893,-30.76171875,-13.671875,-28.80859375,-21.484375,0.0
1741044332.0523953,-32.2265625,-18.5546875,-33.203125,-24.4140625,0.0
1741044332.056301,-13.18359375,-22.94921875,-30.76171875,-14.16015625,0.0
1741044332.0602071,-6.8359375,-22.94921875,-32.71484375,-9.27734375,0.0
1741044332.064113,-20.5078125,-31.25,-38.57421875,-20.99609375,0.0
1741044332.068019,-34.66796875,-27.34375,-35.64453125,-26.3671875,0.0
1741044332.071925,-26.3671875,-11.71875,-29.296875,-22.94921875,0.0
1741044332.0758307,-11.71875,-16.6015625,-26.85546875,-18.5546875,0.0
1741044332.0797367,-7.8125,-15.625,-30.2734375,-12.6953125,0.0
1741044332.0836425,-16.6015625,-8.7890625,-29.296875,-21.97265625,0.0
1741044332.0875485,-13.18359375,-3.41796875,-24.90234375,-18.06640625,0.0
1741044332.0914583,0.0,-13.671875,-30.76171875,-19.04296875,0.0
1741044332.0953643,0.0,-23.92578125,-37.109375,-30.76171875,0.0
1741044332.09927,0.0,-14.6484375,-30.2734375,-22.94921875,0.0
1741044332.103176,0.0,-16.11328125,-32.2265625,-19.04296875,0.0
1741044332.107082,0.0,-21.484375,-42.96875,-19.04296875,0.0
1741044332.110988,0.0,-28.80859375,-38.0859375,-21.484375,0.0
1741044332.114894,0.0,-24.90234375,-31.25,-23.4375,0.0
1741044332.1187997,0.0,-21.97265625,-36.62109375,-38.0859375,0.0
1741044332.1227057,0.0,-19.53125,-42.48046875,-37.109375,0.0
1741044332.1266115,0.0,-21.97265625,-43.45703125,-29.78515625,0.0
1741044332.1305175,0.0,-21.97265625,-41.9921875,-40.52734375,0.0
1741044332.1344235,0.0,-20.5078125,-42.48046875,-35.15625,0.0
1741044332.1383328,-22.4609375,-19.53125,-36.1328125,-21.97265625,0.0
1741044332.1422389,-12.6953125,-15.13671875,-34.66796875,-28.3203125,0.0
1741044332.1461446,-27.83203125,-23.92578125,-35.64453125,-19.53125,0.0
1741044332.1500506,-31.73828125,-20.5078125,-32.2265625,-1.953125,0.0
1741044332.1539567,-42.48046875,-22.94921875,-42.96875,-26.85546875,0.0
1741044332.1578624,-41.9921875,-31.73828125,-49.31640625,-41.50390625,0.0
1741044332.1617684,-26.3671875,-22.94921875,-49.31640625,-34.66796875,0.0
1741044332.1656742,-42.96875,-22.94921875,-49.31640625,-32.71484375,0.0
1741044332.1695802,-51.7578125,-30.2734375,-46.875,-29.78515625,0.0
1741044332.1734862,-31.25,-25.87890625,-52.24609375,-30.76171875,0.0
1741044332.177392,-32.71484375,-19.53125,-61.5234375,-34.1796875,0.0
1741044332.181298,-50.29296875,-22.94921875,-68.84765625,-37.59765625,0.0
1741044332.1852074,-57.6171875,-21.484375,-72.75390625,-40.52734375,0.0
1741044332.1891131,-41.50390625,-20.01953125,-68.359375,-32.2265625,0.0
1741044332.1930192,-17.08984375,-17.578125,-71.2890625,-25.390625,0.0
1741044332.196925,-26.85546875,-11.23046875,-76.66015625,-31.73828125,0.0
1741044332.200831,-34.66796875,-14.6484375,-81.0546875,-25.87890625,0.0
1741044332.204737,-19.53125,-13.671875,-83.984375,-19.04296875,0.0
1741044332.2086427,-1.953125,-7.32421875,-93.75,-30.2734375,0.0
1741044332.2125487,9.765625,-13.671875,-97.65625,-19.53125,0.0
1741044332.2164545,-3.90625,-16.6015625,-96.19140625,-10.25390625,0.0
1741044332.2203605,-4.39453125,-11.23046875,-99.12109375,-16.11328125,0.0
1741044332.2242665,24.90234375,-5.859375,-104.00390625,-11.23046875,0.0
1741044332.2281723,32.2265625,-3.41796875,-108.88671875,-13.18359375,0.0
1741044332.2320817,17.578125,-1.953125,-104.4921875,-17.08984375,0.0
1741044332.2359874,24.90234375,-3.90625,-102.05078125,-8.7890625,0.0
1741044332.2398934,56.15234375,-3.41796875,-106.93359375,-8.30078125,0.0
1741044332.2437992,73.73046875,3.41796875,-110.83984375,-5.37109375,0.0
1741044332.2477052,67.3828125,5.859375,-110.3515625,7.32421875,0.0
1741044332.2516112,50.78125,-1.46484375,-115.234375,1.46484375,0.0
1741044332.255517,61.03515625,-2.9296875,-118.65234375,1.46484375,0.0
1741044332.259423,80.078125,-5.37109375,-118.1640625,6.8359375,0.0
1741044332.2633288,75.68359375,-5.37109375,-113.28125,7.8125,0.0
1741044332.2672348,56.640625,0.9765625,-115.72265625,-1.46484375,0.0
1741044332.2711408,56.15234375,-2.44140625,-113.28125,-2.9296875,0.0
1741044332.2750466,74.21875,-9.27734375,-112.3046875,13.671875,0.0
1741044332.2789557,0.0,-1.953125,-98.6328125,13.18359375,0.0
1741044332.2828617,0.0,-8.30078125,-89.35546875,0.0,0.0
1741044332.2867675,0.0,-18.5546875,-98.14453125,0.48828125,0.0
1741044332.2906735,0.0,-8.30078125,-90.8203125,4.39453125,0.0
1741044332.2945793,0.0,-3.90625,-82.03125,-1.953125,0.0
1741044332.2984853,0.0,-8.30078125,-79.1015625,-3.90625,0.0
1741044332.3023913,0.0,-8.30078125,-80.56640625,0.9765625,0.0
1741044332.306297,0.0,-9.27734375,-83.0078125,7.32421875,0.0
1741044332.310203,0.0,-9.765625,-76.66015625,-1.46484375,0.0
1741044332.3141088,0.0,-8.7890625,-67.3828125,-8.30078125,0.0
1741044332.3180149,0.0,-9.765625,-80.56640625,0.48828125,0.0
1741044332.3219209,0.0,-16.11328125,-82.03125,6.8359375,0.0
1741044332.3258295,28.3203125,-19.04296875,-65.91796875,-0.48828125,0.0
1741044332.3297355,24.4140625,-15.625,-62.5,-0.9765625,0.0
1741044332.3336413,15.13671875,-16.11328125,-62.01171875,8.30078125,0.0
1741044332.3375473,11.23046875,-17.578125,-63.4765625,7.32421875,0.0
1741044332.3414533,7.32421875,-19.04296875,-60.546875,-3.90625,0.0
1741044332.345359,7.8125,-21.484375,-61.5234375,-8.7890625,0.0
1741044332.349265,-6.8359375,-29.296875,-62.01171875,-4.39453125,0.0
1741044332.3531709,-17.08984375,-22.4609375,-67.3828125,-4.8828125,0.0
1741044332.357077,-2.9296875,-11.71875,-72.75390625,-10.7421875,0.0
1741044332.360983,19.04296875,-13.18359375,-58.10546875,-13.18359375,0.0
1741044332.3648887,12.6953125,-11.71875,-52.24609375,-6.34765625,0.0
1741044332.3687947,0.48828125,-6.34765625,-45.41015625,1.953125,0.0
1741044332.3727047,19.04296875,-6.34765625,-39.55078125,3.90625,0.0
1741044332.3766105,31.73828125,-12.20703125,-44.43359375,-2.44140625,0.0
1741044332.3805165,18.06640625,-10.7421875,-47.8515625,-1.46484375,0.0
1741044332.3844225,5.37109375,-17.578125,-47.36328125,1.953125,0.0
1741044332.3883283,15.625,-20.5078125,-38.57421875,10.7421875,0.0
1741044332.3922343,27.34375,-20.5078125,-40.0390625,12.20703125,0.0
1741044332.39614,20.01953125,-26.3671875,-46.875,11.71875,0.0
1741044332.400046,1.46484375,-17.08984375,-42.96875,12.20703125,0.0
1741044332.4039521,-1.46484375,-21.484375,-43.45703125,1.953125,0.0
1741044332.407858,15.625,-25.87890625,-40.0390625,-1.46484375,0.0
1741044332.411764,16.6015625,-18.06640625,-26.85546875,5.859375,0.0
1741044332.4156697,-6.8359375,-14.16015625,-20.01953125,5.37109375,0.0
1741044332.4195783,-25.87890625,-14.6484375,-26.85546875,-0.48828125,0.0
1741044332.423484,-19.53125,-25.87890625,-33.203125,-5.859375,0.0
1741044332.42739,-4.39453125,-18.06640625,-27.83203125,-4.8828125,0.0
1741044332.431296,-13.18359375,-10.25390625,-33.203125,-4.39453125,0.0
1741044332.435202,-28.3203125,-19.04296875,-38.0859375,-3.90625,0.0
1741044332.439108,-21.484375,-23.92578125,-31.25,-6.34765625,0.0
1741044332.4430137,-12.20703125,-22.94921875,-26.3671875,-10.25390625,0.0
1741044332.4469197,-23.4375,-20.5078125,-26.85546875,-9.765625,0.0
1741044332.4508257,-43.9453125,-27.83203125,-34.1796875,-19.04296875,0.0
1741044332.4547315,-48.33984375,-44.43359375,-44.43359375,-24.4140625,0.0
1741044332.4586375,-34.66796875,-36.1328125,-42.48046875,-22.4609375,0.0
1741044332.4625432,-34.1796875,-21.484375,-35.64453125,-22.94921875,0.0
1741044332.466453,0.0,-28.80859375,-47.8515625,-23.4375,0.0
1741044332.470359,0.0,-36.62109375,-47.36328125,-12.20703125,0.0
1741044332.4742649,0.0,-34.1796875,-30.2734375,-2.9296875,0.0
1741044332.4781709,0.0,-23.92578125,-29.78515625,-20.99609375,0.0
1741044332.482077,0.0,-27.83203125,-32.2265625,-30.2734375,0.0
1741044332.4859827,0.0,-32.71484375,-37.109375,-25.87890625,0.0
1741044332.4898887,0.0,-25.87890625,-44.921875,-17.08984375,0.0
1741044332.4937947,0.0,-25.87890625,-42.48046875,-9.765625,0.0
1741044332.4977005,0.0,-20.99609375,-39.55078125,-4.8828125,0.0
1741044332.5016065,0.0,-20.5078125,-42.48046875,-5.859375,0.0
1741044332.5055122,0.0,-17.578125,-46.38671875,-8.7890625,0.0
1741044332.5094182,0.0,-18.06640625,-49.8046875,-11.71875,0.0
1741044332.5133276,1.46484375,-22.4609375,-46.875,-18.06640625,0.0
1741044332.5172336,-22.4609375,-20.01953125,-50.29296875,-20.5078125,0.0
1741044332.5211396,-8.30078125,-19.04296875,-67.3828125,-9.765625,0.0
1741044332.5250454,14.16015625,-10.25390625,-53.22265625,-6.8359375,0.0
1741044332.5289514,14.16015625,-6.8359375,-45.41015625,-7.32421875,0.0
1741044332.5328572,11.71875,-4.39453125,-46.38671875,-5.37109375,0.0
1741044332.5367632,-1.46484375,-1.46484375,-45.8984375,-12.6953125,0.0
1741044332.5406692,9.765625,-3.41796875,-49.8046875,-16.6015625,0.0
1741044332.544575,23.4375,-10.25390625,-50.29296875,-19.53125,0.0
1741044332.548481,1.46484375,-6.8359375,-48.33984375,-21.484375,0.0
1741044332.5523868,-15.625,-4.8828125,-44.921875,-19.04296875,0.0
1741044332.5562928,-13.671875,-18.06640625,-47.36328125,-18.5546875,0.0
1741044332.5602021,-2.44140625,-23.92578125,-49.8046875,-26.85546875,0.0
1741044332.564108,-12.20703125,-18.5546875,-46.38671875,-33.69140625,0.0
1741044332.568014,-32.2265625,-18.5546875,-45.41015625,-34.1796875,0.0
1741044332.57192,-22.4609375,-29.296875,-50.29296875,-34.66796875,0.0
1741044332.5758257,-4.8828125,-36.62109375,-48.33984375,-34.66796875,0.0
1741044332.5797317,-3.90625,-29.78515625,-51.26953125,-27.34375,0.0
1741044332.5836375,-13.671875,-20.5078125,-42.48046875,-25.87890625,0.0
1741044332.5875435,-15.13671875,-14.6484375,-31.25,-23.92578125,0.0
1741044332.5914495,-1.46484375,-21.97265625,-41.015625,-15.625,0.0
1741044332.5953553,0.48828125,-15.13671875,-41.9921875,-15.13671875,0.0
1741044332.5992613,-17.08984375,-11.23046875,-40.52734375,-9.27734375,0.0
1741044332.6031673,-21.484375,-25.390625,-44.43359375,-5.859375,0.0
1741044332.6070764,0.0,-35.64453125,-48.828125,-16.6015625,0.0
1741044332.6109824,0.0,-37.59765625,-42.96875,-18.5546875,0.0
1741044332.6148882,0.0,-28.80859375,-36.1328125,-13.18359375,0.0
1741044332.6187942,0.0,-21.484375,-35.15625,-7.32421875,0.0
1741044332.6227,0.0,-20.01953125,-35.64453125,-0.48828125,0.0
1741044332.626606,0.0,-25.87890625,-39.0625,-7.32421875,0.0
1741044332.630512,0.0,-23.92578125,-39.0625,-12.6953125,0.0
1741044332.6344178,0.0,-17.578125,-32.2265625,-0.48828125,0.0
1741044332.6383238,0.0,-11.71875,-24.4140625,1.953125,0.0
1741044332.6422298,0.0,-19.04296875,-33.69140625,-16.6015625,0.0
1741044332.6461356,0.0,-23.92578125,-39.55078125,-18.06640625,0.0
1741044332.6500416,0.0,-24.90234375,-34.66796875,-9.765625,0.0
1741044332.6539505,-39.0625,-36.62109375,-37.109375,-20.01953125,0.0
1741044332.6578565,-16.6015625,-25.87890625,-37.109375,-16.11328125,0.0
1741044332.6617622,-21.97265625,-17.578125,-29.296875,-10.25390625,0.0
1741044332.6656682,-48.828125,-26.3671875,-27.34375,-20.99609375,0.0
1741044332.669574,-61.03515625,-26.85546875,-32.71484375,-23.4375,0.0
1741044332.67348,-41.50390625,-22.94921875,-35.64453125,-19.53125,0.0
1741044332.677386,-18.06640625,-23.4375,-33.203125,-12.20703125,0.0
1741044332.6812918,-27.34375,-30.76171875,-34.1796875,-12.20703125,0.0
1741044332.6851978,-45.8984375,-29.296875,-37.109375,-20.99609375,0.0
1741044332.6891036,-34.66796875,-22.94921875,-36.62109375,-17.578125,0.0
1741044332.6930096,-11.23046875,-18.06640625,-40.52734375,-15.13671875,0.0
1741044332.6969156,-16.11328125,-16.11328125,-44.43359375,-18.5546875,0.0
1741044332.7008243,-34.66796875,-11.71875,-41.50390625,-21.97265625,0.0
1741044332.7047303,-24.90234375,-10.25390625,-39.0625,-22.94921875,0.0
1741044332.7086363,-6.34765625,-16.6015625,-39.55078125,-26.3671875,0.0
1741044332.712542,-6.8359375,-11.23046875,-43.45703125,-28.80859375,0.0
1741044332.716448,-14.16015625,-3.41796875,-43.9453125,-26.3671875,0.0
1741044332.7203538,-4.8828125,-2.44140625,-35.64453125,-17.08984375,0.0
1741044332.7242599,-5.859375,-20.01953125,-46.38671875,-30.76171875,0.0
1741044332.7281659,-9.27734375,-27.34375,-56.15234375,-41.015625,0.0
1741044332.7320716,-12.6953125,-20.99609375,-40.0390625,-33.203125,0.0
1741044332.7359776,-14.16015625,-19.53125,-25.390625,-18.5546875,0.0
1741044332.7398834,6.34765625,-20.01953125,-35.15625,-7.8125,0.0
1741044332.7437894,11.23046875,-22.94921875,-41.50390625,-3.41796875,0.0
1741044332.747698,0.0,-23.4375,-32.2265625,-7.32421875,0.0
1741044332.751604,0.0,-25.390625,-28.3203125,-12.20703125,0.0
1741044332.7555099,0.0,-25.390625,-26.85546875,-7.8125,0.0
1741044332.7594159,0.0,-20.99609375,-37.109375,-4.8828125,0.0
1741044332.7633216,0.0,-11.71875,-36.1328125,-11.71875,0.0
1741044332.7672276,0.0,-24.4140625,-29.78515625,-15.13671875,0.0
1741044332.7711337,0.0,-33.69140625,-36.62109375,-4.8828125,0.0
1741044332.7750394,0.0,-13.671875,-34.66796875,-4.39453125,0.0
1741044332.7789454,0.0,-17.08984375,-33.203125,-17.578125,0.0
1741044332.7828512,0.0,-35.64453125,-41.015625,-26.3671875,0.0
1741044332.7867572,0.0,-37.59765625,-46.38671875,-29.296875,0.0
1741044332.7906632,0.0,-30.76171875,-34.1796875,-26.85546875,0.0
1741044332.7945716,-39.55078125,-26.85546875,-29.296875,-25.87890625,0.0
1741044332.7984774,-45.41015625,-28.3203125,-36.62109375,-27.34375,0.0
1741044332.8023834,-44.43359375,-22.94921875,-38.0859375,-21.484375,0.0
1741044332.8062894,-32.2265625,-18.5546875,-37.109375,-28.3203125,0.0
1741044332.8101952,-17.08984375,-16.11328125,-35.15625,-34.1796875,0.0
1741044332.8141012,-19.53125,-25.87890625,-46.875,-39.55078125,0.0
1741044332.8180072,-26.3671875,-25.390625,-50.29296875,-43.9453125,0.0
1741044332.821913,-10.7421875,-4.39453125,-39.55078125,-28.3203125,0.0
1741044332.825819,-8.7890625,-10.25390625,-41.9921875,-27.83203125,0.0
1741044332.8297248,-16.6015625,-23.92578125,-47.36328125,-47.8515625,0.0
1741044332.8336308,-25.87890625,-7.8125,-43.9453125,-51.7578125,0.0
1741044332.8375368,-35.15625,-8.7890625,-47.36328125,-55.6640625,0.0
1741044332.8414464,-24.90234375,-27.83203125,-51.7578125,-56.15234375,0.0
1741044332.8453524,-18.5546875,-28.80859375,-49.8046875,-50.29296875,0.0
1741044332.8492582,-44.43359375,-20.99609375,-45.8984375,-50.78125,0.0
1741044332.8531642,-57.6171875,-22.94921875,-45.41015625,-46.875,0.0
1741044332.8570702,-42.96875,-33.203125,-48.828125,-37.59765625,0.0
1741044332.860976,-30.76171875,-27.83203125,-46.38671875,-33.69140625,0.0
1741044332.864882,-50.29296875,-27.34375,-51.26953125,-38.0859375,0.0
1741044332.8687878,-60.546875,-33.69140625,-48.33984375,-32.71484375,0.0
1741044332.8726938,-46.875,-39.0625,-37.59765625,-14.6484375,0.0
1741044332.8765998,-31.73828125,-50.29296875,-37.59765625,-5.37109375,0.0
1741044332.8805056,-25.87890625,-35.15625,-28.3203125,8.7890625,0.0
1741044332.8844116,-39.55078125,-16.6015625,-22.4609375,11.23046875,0.0
1741044332.888321,-46.875,-27.34375,-43.45703125,-19.53125,0.0
1741044332.892227,-29.78515625,-28.3203125,-36.1328125,-21.484375,0.0
1741044332.896133,-31.25,-23.92578125,-26.85546875,-13.671875,0.0
1741044332.9000387,-44.43359375,-29.78515625,-32.71484375,-16.11328125,0.0
1741044332.9039447,-35.64453125,-24.4140625,-45.41015625,-10.7421875,0.0
1741044332.9078505,-20.01953125,-22.4609375,-45.41015625,-16.11328125,0.0
1741044332.9117565,-20.5078125,-31.25,-30.2734375,-26.3671875,0.0
1741044332.9156625,-36.62109375,-23.92578125,-28.80859375,-17.578125,0.0
1741044332.9195683,-34.1796875,-23.4375,-30.2734375,-3.90625,0.0
1741044332.9234743,-33.203125,-27.83203125,-30.76171875,-7.8125,0.0
1741044332.9273803,-30.2734375,-24.4140625,-28.80859375,-11.71875,0.0
1741044332.931286,-25.390625,-23.4375,-31.25,-7.8125,0.0
1741044332.9351954,-34.1796875,-26.3671875,-34.66796875,-18.5546875,0.0
1741044332.9391012,-22.4609375,-19.53125,-32.2265625,-20.99609375,0.0
1741044332.9430072,-6.8359375,-20.01953125,-36.62109375,-30.76171875,0.0
1741044332.9469132,-2.9296875,-24.4140625,-31.25,-32.2265625,0.0
1741044332.950819,-15.13671875,-12.6953125,-23.4375,-15.13671875,0.0
1741044332.954725,-34.66796875,-21.97265625,-33.69140625,-28.80859375,0.0
1741044332.958631,-24.90234375,-33.69140625,-45.41015625,-51.26953125,0.0
1741044332.9625368,-6.34765625,-24.90234375,-47.8515625,-41.9921875,0.0
1741044332.9664428,-15.625,-26.85546875,-42.48046875,-28.3203125,0.0
1741044332.9703486,-29.296875,-24.4140625,-43.45703125,-38.0859375,0.0
1741044332.9742546,-15.13671875,-13.18359375,-36.62109375,-35.64453125,0.0
1741044332.9781606,-0.9765625,-15.625,-31.25,-29.296875,0.0
1741044332.9820697,-17.578125,-10.25390625,-44.921875,-38.57421875,0.0
1741044332.9859755,-28.3203125,-5.859375,-38.0859375,-35.15625,0.0
1741044332.9898815,-7.32421875,-11.23046875,-29.296875,-16.11328125,0.0
1741044332.9937875,4.39453125,-16.6015625,-28.80859375,-14.16015625,0.0
1741044332.9976933,-12.20703125,-23.4375,-34.66796875,-22.94921875,0.0
1741044333.0015993,-27.34375,-16.6015625,-27.83203125,-8.7890625,0.0
1741044333.005505,-31.73828125,-9.765625,-18.5546875,-4.39453125,0.0
1741044333.009411,-20.01953125,-23.92578125,-37.59765625,-18.5546875,0.0
1741044333.013317,-13.18359375,-31.25,-41.9921875,-18.5546875,0.0
1741044333.017223,-24.4140625,-29.296875,-39.0625,-13.18359375,0.0
1741044333.021129,-32.71484375,-24.90234375,-42.96875,-12.6953125,0.0
1741044333.025035,-18.06640625,-18.06640625,-48.33984375,-7.32421875,0.0
1741044333.0289438,-12.6953125,-11.23046875,-53.7109375,-5.37109375,0.0
1741044333.0328498,-22.94921875,-22.4609375,-35.64453125,-5.859375,0.0
1741044333.0367556,-31.73828125,-32.2265625,-25.87890625,-5.37109375,0.0
1741044333.0406616,-18.5546875,-12.6953125,-19.53125,4.39453125,0.0
1741044333.0445673,-1.953125,-7.32421875,-23.92578125,0.48828125,0.0
1741044333.0484734,-1.46484375,-23.4375,-41.50390625,-6.34765625,0.0
1741044333.0523794,-21.97265625,-24.90234375,-31.73828125,-0.9765625,0.0
1741044333.0562851,-27.83203125,-24.4140625,-23.4375,4.39453125,0.0
1741044333.0601912,-20.01953125,-8.30078125,-33.203125,-8.30078125,0.0
1741044333.064097,-22.4609375,-20.01953125,-34.66796875,-3.41796875,0.0
1741044333.068003,-21.484375,-38.0859375,-27.34375,7.32421875,0.0
1741044333.071909,-14.6484375,4.8828125,-26.3671875,-5.859375,0.0
1741044333.0758176,-11.71875,-2.44140625,-26.3671875,-24.4140625,0.0
1741044333.0797236,-20.99609375,-21.484375,-34.66796875,-29.296875,0.0
1741044333.0836296,-32.2265625,-17.578125,-56.640625,-24.90234375,0.0
1741044333.0875354,-29.78515625,-31.25,-39.0625,-19.53125,0.0
1741044333.0914414,-16.11328125,11.23046875,-35.64453125,-20.01953125,0.0
1741044333.0953472,-22.4609375,24.4140625,-45.41015625,-33.203125,0.0
1741044333.0992532,-44.921875,-28.3203125,-40.0390625,-37.109375,0.0
1741044333.1031592,-54.19921875,-39.0625,-34.1796875,-24.4140625,0.0
1741044333.107065,-21.97265625,-7.32421875,-17.578125,0.0,0.0
1741044333.110971,16.11328125,-22.94921875,-88.37890625,21.97265625,0.0
1741044333.1148767,-2.9296875,-129.39453125,-141.11328125,-1.953125,0.0
1741044333.1187828,7.8125,-100.5859375,-44.43359375,14.16015625,0.0
1741044333.1226914,0.0,44.921875,-102.5390625,101.07421875,0.0
1741044333.1265974,0.0,12.6953125,-26.85546875,20.01953125,0.0
1741044333.1305032,0.0,-65.91796875,4.8828125,-48.33984375,0.0
1741044333.1344092,0.0,-40.52734375,-23.4375,2.44140625,0.0
1741044333.138315,0.0,-75.1953125,-0.9765625,-25.390625,0.0
1741044333.142221,0.0,91.796875,42.48046875,-18.5546875,0.0
1741044333.146127,0.0,46.38671875,-26.85546875,14.16015625,0.0
1741044333.1500328,0.0,-125.9765625,-199.70703125,119.62890625,0.0
1741044333.1539388,0.0,108.88671875,37.59765625,193.359375,0.0
1741044333.1578448,0.0,156.73828125,98.6328125,78.61328125,0.0
1741044333.1617506,0.0,143.5546875,121.58203125,97.65625,0.0
1741044333.1656566,0.0,95.703125,150.390625,168.9453125,0.0
1741044333.169565,80.078125,38.57421875,43.45703125,69.3359375,0.0
1741044333.173471,145.5078125,451.171875,255.37109375,81.54296875,0.0
1741044333.1773767,271.484375,294.921875,258.7890625,178.7109375,0.0
1741044333.1812828,164.0625,83.984375,82.51953125,140.625,0.0
1741044333.1851885,2.9296875,355.95703125,148.92578125,-50.29296875,0.0
1741044333.1890945,-4.8828125,397.94921875,301.26953125,-147.94921875,0.0
1741044333.1930006,75.68359375,469.23828125,422.36328125,-95.703125,0.0
1741044333.1969063,86.9140625,609.375,445.3125,-91.796875,0.0
1741044333.2008123,-14.6484375,478.515625,419.921875,-187.01171875,0.0
1741044333.204718,11.23046875,420.41015625,444.82421875,-172.36328125,0.0
1741044333.2086241,-103.515625,453.125,428.22265625,-233.88671875,0.0
1741044333.2125301,-353.02734375,351.5625,411.1328125,-392.08984375,0.0
1741044333.2164397,-349.12109375,263.18359375,466.30859375,-306.15234375,0.0
1741044333.2203457,-416.015625,487.79296875,367.67578125,-282.2265625,0.0
1741044333.2242515,-702.1484375,694.82421875,420.8984375,-435.05859375,0.0
1741044333.2281575,-950.68359375,756.34765625,625.0,-535.15625,0.0
1741044333.2320633,-1000.0,860.83984375,612.79296875,-585.44921875,0.0
1741044333.2359693,-992.1875,926.26953125,499.0234375,-594.7265625,0.0
1741044333.2398753,-1000.0,971.19140625,552.734375,-552.24609375,0.0
1741044333.243781,-1000.0,969.23828125,421.38671875,-615.234375,0.0
1741044333.247687,-1000.0,969.7265625,393.5546875,-599.12109375,0.0
1741044333.251593,-1000.0,970.21484375,494.140625,-507.8125,0.0
1741044333.255499,-1000.0,970.21484375,498.046875,-456.0546875,0.0
1741044333.259405,-1000.0,970.21484375,604.00390625,-296.875,0.0
1741044333.2633142,-1000.0,970.21484375,415.0390625,-468.75,0.0
1741044333.2672203,-1000.0,970.21484375,360.83984375,-548.33984375,0.0
1741044333.2711263,-1000.0,970.21484375,425.78125,-436.5234375,0.0
1741044333.275032,-1000.0,970.21484375,391.6015625,-469.23828125,0.0
1741044333.278938,-1000.0,969.7265625,433.59375,-469.7265625,0.0
1741044333.2828438,-1000.0,970.21484375,479.00390625,-341.796875,0.0
1741044333.2867498,-1000.0,970.21484375,359.86328125,-435.05859375,0.0
1741044333.2906559,-1000.0,970.21484375,279.296875,-492.67578125,0.0
1741044333.2945616,-1000.0,970.21484375,313.4765625,-396.97265625,0.0
1741044333.2984676,-1000.0,970.21484375,291.50390625,-366.69921875,0.0
1741044333.3023736,-994.140625,970.21484375,306.15234375,-323.73046875,0.0
1741044333.3062794,-948.73046875,971.6796875,333.49609375,-262.20703125,0.0
1741044333.3101888,-900.390625,965.8203125,248.046875,-299.31640625,0.0
1741044333.3140948,-817.87109375,972.16796875,199.21875,-318.84765625,0.0
1741044333.3180006,-688.96484375,954.1015625,205.56640625,-270.01953125,0.0
1741044333.3219066,-554.6875,785.15625,189.94140625,-241.69921875,0.0
1741044333.3258126,-400.87890625,601.5625,174.8046875,-208.0078125,0.0
1741044333.3297184,-243.1640625,500.0,166.50390625,-163.57421875,0.0
1741044333.3336244,-124.0234375,411.1328125,155.2734375,-140.625,0.0
1741044333.3375301,8.30078125,340.33203125,144.04296875,-119.62890625,0.0
1741044333.3414361,169.921875,283.203125,156.25,-69.82421875,0.0
1741044333.3453422,265.13671875,211.9140625,138.671875,-66.40625,0.0
1741044333.349248,326.66015625,155.2734375,102.05078125,-73.73046875,0.0
1741044333.353154,376.953125,130.859375,93.26171875,-49.31640625,0.0
1741044333.357063,0.0,103.515625,93.75,-39.0625,0.0
1741044333.360969,0.0,70.80078125,78.61328125,-33.203125,0.0
1741044333.364875,0.0,70.3125,71.2890625,-23.4375,0.0
1741044333.3687809,0.0,100.09765625,76.66015625,-13.671875,0.0
1741044333.3726869,0.0,102.5390625,56.640625,-3.90625,0.0
1741044333.3765926,0.0,94.23828125,42.96875,0.48828125,0.0
1741044333.3804986,0.0,94.23828125,54.19921875,1.953125,0.0
1741044333.3844047,0.0,99.609375,48.33984375,9.765625,0.0
1741044333.3883104,0.0,109.375,35.15625,18.06640625,0.0
1741044333.3922164,0.0,112.79296875,29.296875,18.06640625,0.0
1741044333.3961222,0.0,116.2109375,19.53125,35.15625,0.0
1741044333.4000282,0.0,104.00390625,9.765625,51.7578125,0.0
1741044333.4039333,405.76171875,78.125,2.44140625,67.87109375,0.0
1741044333.4078393,423.828125,92.7734375,-12.20703125,80.56640625,0.0
1741044333.4117453,413.0859375,116.69921875,-29.296875,78.125,0.0
1741044333.415651,401.3671875,104.00390625,-33.69140625,86.9140625,0.0
1741044333.419557,405.2734375,102.05078125,-40.0390625,104.4921875,0.0
1741044333.4234629,400.390625,77.63671875,-64.94140625,101.07421875,0.0
1741044333.4273689,377.44140625,34.66796875,-93.75,87.40234375,0.0
1741044333.431275,360.3515625,29.78515625,-99.609375,105.95703125,0.0
1741044333.4351807,360.3515625,47.8515625,-104.98046875,110.3515625,0.0
1741044333.4390867,372.0703125,28.3203125,-134.765625,99.12109375,0.0
1741044333.4429924,383.7890625,7.32421875,-146.484375,103.02734375,0.0
1741044333.4468985,386.23046875,-11.23046875,-151.85546875,100.09765625,0.0
1741044333.4508073,348.6328125,-29.296875,-158.203125,93.26171875,0.0
1741044333.454713,336.42578125,-28.80859375,-162.59765625,102.5390625,0.0
1741044333.458619,340.33203125,-41.015625,-177.734375,105.46875,0.0
1741044333.462525,334.9609375,-51.7578125,-187.98828125,104.4921875,0.0
1741044333.466431,317.3828125,-68.359375,-199.70703125,100.09765625,0.0
1741044333.470337,303.7109375,-83.49609375,-189.94140625,106.93359375,0.0
1741044333.4742427,307.12890625,-97.65625,-189.94140625,113.76953125,0.0
1741044333.4781487,303.7109375,-118.65234375,-199.70703125,106.4453125,0.0
1741044333.4820545,291.9921875,-117.1875,-193.359375,104.98046875,0.0
1741044333.4859605,278.3203125,-103.515625,-197.265625,100.5859375,0.0
1741044333.4898665,277.34375,-122.55859375,-214.84375,92.28515625,0.0
1741044333.4937723,283.69140625,-145.99609375,-225.09765625,81.54296875,0.0
1741044333.497681,0.0,-147.4609375,-223.6328125,74.21875,0.0
1741044333.501587,0.0,-154.78515625,-218.26171875,84.47265625,0.0
1741044333.5054927,0.0,-170.41015625,-210.44921875,79.58984375,0.0
1741044333.5093987,0.0,-172.36328125,-218.26171875,67.3828125,0.0
1741044333.5133045,0.0,-160.15625,-220.21484375,69.82421875,0.0
1741044333.5172105,0.0,-177.734375,-204.58984375,72.265625,0.0
1741044333.5211165,0.0,-208.49609375,-197.75390625,76.171875,0.0
1741044333.5250223,0.0,-194.3359375,-208.984375,56.15234375,0.0
1741044333.5289283,0.0,-183.10546875,-208.49609375,34.66796875,0.0
1741044333.5328343,0.0,-191.89453125,-201.171875,40.52734375,0.0
1741044333.53674,0.0,-202.1484375,-211.9140625,41.015625,0.0
1741044333.540646,0.0,-202.1484375,-210.9375,42.48046875,0.0
1741044333.5445516,276.3671875,-195.3125,-209.47265625,33.69140625,0.0
1741044333.5484576,254.39453125,-192.3828125,-211.9140625,29.296875,0.0
1741044333.5523634,234.375,-187.01171875,-209.9609375,42.96875,0.0
1741044333.5562694,241.2109375,-193.84765625,-221.19140625,38.0859375,0.0
1741044333.5601754,248.046875,-198.2421875,-202.1484375,30.2734375,0.0
1741044333.5640812,221.6796875,-198.2421875,-187.5,41.50390625,0.0
1741044333.5679872,207.51953125,-187.01171875,-196.2890625,38.0859375,0.0
1741044333.571893,209.9609375,-184.08203125,-188.4765625,36.62109375,0.0
1741044333.575799,213.8671875,-190.91796875,-194.3359375,25.390625,0.0
1741044333.579705,196.2890625,-212.890625,-197.75390625,18.5546875,0.0
1741044333.5836108,175.29296875,-200.1953125,-184.08203125,25.87890625,0.0
1741044333.5875168,182.6171875,-166.9921875,-179.6875,20.01953125,0.0
1741044333.5914226,187.5,-168.45703125,-184.5703125,22.94921875,0.0
1741044333.5953283,172.8515625,-185.546875,-194.82421875,22.4609375,0.0
1741044333.5992343,166.9921875,-182.6171875,-178.22265625,19.04296875,0.0
1741044333.60314,170.8984375,-164.55078125,-159.66796875,38.0859375,0.0
1741044333.6070461,175.78125,-173.828125,-161.62109375,43.45703125,0.0
1741044333.6109521,175.78125,-186.03515625,-167.96875,39.0625,0.0
1741044333.614858,144.04296875,-175.78125,-166.50390625,33.69140625,0.0
1741044333.618764,129.8828125,-161.1328125,-167.48046875,29.296875,0.0
1741044333.6226697,146.484375,-156.73828125,-166.50390625,33.203125,0.0
1741044333.6265757,142.578125,-162.59765625,-155.76171875,42.96875,0.0
1741044333.6304817,111.81640625,-158.69140625,-145.99609375,37.59765625,0.0
1741044333.6343875,96.19140625,-174.31640625,-145.99609375,22.4609375,0.0
1741044333.638297,83.49609375,-178.22265625,-151.3671875,25.87890625,0.0
1741044333.6422029,81.0546875,-147.94921875,-137.20703125,29.296875,0.0
1741044333.6461089,74.70703125,-135.25390625,-137.6953125,25.390625,0.0
1741044333.6500149,54.6875,-137.6953125,-138.671875,31.73828125,0.0
1741044333.6539207,38.57421875,-158.203125,-130.37109375,24.90234375,0.0
1741044333.6578267,49.31640625,-156.73828125,-137.6953125,14.6484375,0.0
1741044333.6617324,63.4765625,-138.671875,-133.30078125,22.94921875,0.0
1741044333.6656384,54.19921875,-152.83203125,-130.859375,28.80859375,0.0
1741044333.6695445,35.15625,-170.41015625,-140.625,20.5078125,0.0
1741044333.6734502,41.50390625,-157.2265625,-134.27734375,21.97265625,0.0
1741044333.6773562,62.01171875,-128.41796875,-131.34765625,20.01953125,0.0
1741044333.681262,66.40625,-120.60546875,-126.46484375,12.20703125,0.0
1741044333.6851714,52.734375,-122.0703125,-122.0703125,19.04296875,0.0
1741044333.6890774,51.26953125,-114.2578125,-125.9765625,21.484375,0.0
1741044333.6929832,67.87109375,-115.234375,-130.859375,17.08984375,0.0
1741044333.6968892,81.0546875,-110.3515625,-117.67578125,32.71484375,0.0
1741044333.7007952,65.91796875,-118.65234375,-111.328125,35.64453125,0.0
1741044333.704701,32.71484375,-139.6484375,-122.0703125,11.23046875,0.0
1741044333.708607,44.921875,-124.51171875,-114.2578125,9.765625,0.0
1741044333.7125127,61.03515625,-113.28125,-116.2109375,16.6015625,0.0
1741044333.7164187,47.36328125,-119.140625,-117.67578125,26.3671875,0.0
1741044333.7203248,38.57421875,-104.4921875,-111.328125,25.87890625,0.0
1741044333.7242305,44.921875,-109.86328125,-111.81640625,12.6953125,0.0
1741044333.7281365,54.6875,-109.86328125,-112.3046875,1.46484375,0.0
1741044333.7320457,43.9453125,-92.7734375,-117.67578125,-1.953125,0.0
1741044333.7359517,17.578125,-103.515625,-106.4453125,4.39453125,0.0
1741044333.7398574,23.92578125,-105.95703125,-99.609375,1.953125,0.0
1741044333.7437634,30.76171875,-98.14453125,-100.5859375,-5.859375,0.0
1741044333.7476692,23.4375,-94.7265625,-96.6796875,-5.37109375,0.0
1741044333.7515752,12.20703125,-102.05078125,-106.4453125,-1.46484375,0.0
1741044333.7554812,18.06640625,-99.12109375,-103.515625,9.765625,0.0
1741044333.759387,35.15625,-104.4921875,-90.8203125,23.92578125,0.0
1741044333.763293,41.015625,-114.74609375,-86.42578125,23.92578125,0.0
1741044333.767199,11.71875,-120.60546875,-99.609375,1.953125,0.0
1741044333.7711048,-1.953125,-121.58203125,-114.74609375,-1.46484375,0.0
1741044333.7750108,20.5078125,-114.2578125,-108.88671875,4.39453125,0.0
1741044333.7789197,25.390625,-92.28515625,-89.84375,2.9296875,0.0
1741044333.7828257,12.20703125,-78.61328125,-92.7734375,-1.953125,0.0
1741044333.7867315,-4.8828125,-79.58984375,-95.21484375,0.0,0.0
1741044333.7906375,0.0,-81.0546875,-87.890625,1.953125,0.0
1741044333.7945435,25.390625,-83.0078125,-81.54296875,6.34765625,0.0
1741044333.7984493,29.296875,-82.03125,-79.58984375,11.71875,0.0
1741044333.8023553,16.11328125,-85.9375,-74.21875,4.8828125,0.0
1741044333.806261,18.06640625,-99.609375,-73.2421875,1.46484375,0.0
1741044333.810167,22.4609375,-91.796875,-80.078125,-3.90625,0.0
1741044333.814073,10.7421875,-83.49609375,-80.56640625,-0.48828125,0.0
1741044333.8179789,6.8359375,-91.30859375,-68.84765625,8.7890625,0.0
1741044333.8218849,16.6015625,-101.5625,-71.77734375,17.578125,0.0
1741044333.8257937,22.94921875,-90.8203125,-76.171875,15.625,0.0
1741044333.8296995,28.80859375,-76.66015625,-66.40625,9.765625,0.0
1741044333.8336055,19.04296875,-76.171875,-63.96484375,14.16015625,0.0
1741044333.8375113,-2.44140625,-78.125,-75.68359375,0.0,0.0
1741044333.8414173,11.71875,-72.75390625,-79.1015625,4.8828125,0.0
1741044333.8453233,32.2265625,-75.1953125,-66.40625,19.53125,0.0
1741044333.849229,10.7421875,-84.47265625,-69.3359375,7.32421875,0.0
1741044333.853135,-6.8359375,-81.54296875,-72.75390625,14.16015625,0.0
1741044333.857041,8.30078125,-69.82421875,-67.87109375,15.13671875,0.0
1741044333.860947,26.85546875,-76.171875,-80.078125,7.8125,0.0
1741044333.864853,22.4609375,-97.65625,-79.1015625,12.6953125,0.0
1741044333.8687587,7.32421875,-84.9609375,-57.12890625,12.6953125,0.0
1741044333.8726673,14.6484375,-55.6640625,-61.03515625,19.53125,0.0
1741044333.8765733,31.25,-57.6171875,-73.73046875,11.23046875,0.0
1741044333.8804793,31.25,-58.59375,-71.2890625,0.9765625,0.0
1741044333.884385,16.11328125,-57.12890625,-72.75390625,4.8828125,0.0
1741044333.8882911,2.9296875,-63.96484375,-80.56640625,3.41796875,0.0
1741044333.892197,15.625,-60.546875,-71.2890625,0.0,0.0
1741044333.896103,38.0859375,-60.05859375,-65.4296875,10.25390625,0.0
1741044333.900009,24.90234375,-54.6875,-69.82421875,14.6484375,0.0
1741044333.9039147,-1.953125,-55.6640625,-76.171875,-1.46484375,0.0
1741044333.9078207,3.41796875,-62.98828125,-82.03125,-5.859375,0.0
1741044333.9117265,11.71875,-70.3125,-77.63671875,-5.859375,0.0
1741044333.9156325,-0.48828125,-71.77734375,-63.4765625,-0.9765625,0.0
1741044333.919541,-4.39453125,-67.87109375,-54.19921875,8.7890625,0.0
1741044333.923447,-0.9765625,-69.3359375,-59.08203125,4.8828125,0.0
1741044333.927353,1.953125,-52.24609375,-55.6640625,7.32421875,0.0
1741044333.9312587,5.859375,-54.19921875,-57.12890625,2.9296875,0.0
1741044333.9351647,-3.90625,-66.40625,-64.453125,-1.46484375,0.0
1741044333.9390705,-4.39453125,-54.19921875,-57.12890625,9.765625,0.0
1741044333.9429765,9.27734375,-58.10546875,-59.5703125,-0.48828125,0.0
1741044333.9468825,-13.671875,-70.3125,-67.3828125,-16.6015625,0.0
1741044333.9507883,-36.62109375,-65.4296875,-67.3828125,-10.7421875,0.0
1741044333.9546943,-28.80859375,-74.21875,-72.265625,-6.8359375,0.0
1741044333.9586003,-13.671875,-78.125,-68.84765625,-4.39453125,0.0
1741044333.962506,-4.39453125,-74.21875,-60.546875,-8.7890625,0.0
1741044333.966416,0.0,-74.21875,-52.24609375,-9.27734375,0.0
1741044333.970322,0.0,-60.05859375,-58.10546875,-5.859375,0.0
1741044333.9742277,0.0,-57.12890625,-63.96484375,-5.859375,0.0
1741044333.9781337,0.0,-62.98828125,-62.01171875,-7.8125,0.0
1741044333.9820395,0.0,-66.89453125,-61.03515625,-8.7890625,0.0
1741044333.9859455,0.0,-75.68359375,-58.59375,0.9765625,0.0
1741044333.9898515,0.0,-75.1953125,-67.87109375,1.953125,0.0
1741044333.9937572,0.0,-62.5,-63.4765625,1.953125,0.0
1741044333.9976633,0.0,-63.4765625,-65.91796875,5.37109375,0.0
1741044334.001569,0.0,-73.73046875,-83.0078125,-0.9765625,0.0
1741044334.005475,0.0,-66.40625,-64.94140625,-5.37109375,0.0
1741044334.009381,0.0,-63.4765625,-56.640625,-5.37109375,0.0
1741044334.0132904,-6.8359375,-62.01171875,-62.98828125,-10.7421875,0.0
1741044334.0171964,-14.16015625,-65.4296875,-58.10546875,-12.20703125,0.0
1741044334.0211022,-6.34765625,-52.734375,-56.640625,-4.39453125,0.0
1741044334.0250082,17.08984375,-46.875,-57.12890625,2.9296875,0.0
1741044334.028914,29.296875,-56.15234375,-59.08203125,3.90625,0.0
1741044334.03282,19.04296875,-57.6171875,-59.08203125,8.7890625,0.0
1741044334.036726,7.32421875,-51.7578125,-57.12890625,14.16015625,0.0
1741044334.0406318,9.27734375,-50.78125,-51.7578125,10.7421875,0.0
1741044334.0445378,18.5546875,-61.5234375,-65.91796875,1.953125,0.0
1741044334.0484438,16.11328125,-57.6171875,-68.84765625,7.32421875,0.0
1741044334.0523496,7.8125,-40.52734375,-51.7578125,19.04296875,0.0
1741044334.0562556,7.8125,-45.41015625,-45.8984375,20.5078125,0.0
1741044334.060165,26.85546875,-51.7578125,-41.50390625,17.08984375,0.0
1741044334.0640707,23.92578125,-52.24609375,-44.921875,9.765625,0.0
1741044334.0679767,0.0,-54.19921875,-50.78125,15.13671875,0.0
1741044334.0718825,1.46484375,-45.41015625,-51.7578125,24.4140625,0.0
1741044334.0757885,29.78515625,-38.57421875,-40.0390625,23.92578125,0.0
1741044334.0796945,38.0859375,-47.36328125,-38.0859375,14.6484375,0.0
1741044334.0836003,9.27734375,-64.94140625,-58.59375,0.48828125,0.0
1741044334.0875063,1.46484375,-54.19921875,-66.89453125,-3.90625,0.0
1741044334.091412,11.71875,-55.17578125,-71.77734375,-2.44140625,0.0
1741044334.095318,11.23046875,-58.10546875,-67.87109375,-13.18359375,0.0
1741044334.099224,-6.8359375,-52.734375,-42.48046875,-14.6484375,0.0
1741044334.1031299,-20.99609375,-50.29296875,-44.43359375,-12.20703125,0.0
1741044334.1070392,0.0,-46.38671875,-59.08203125,-10.7421875,0.0
1741044334.110945,0.0,-41.50390625,-41.50390625,-4.8828125,0.0
1741044334.114851,0.0,-39.55078125,-38.57421875,-10.7421875,0.0
1741044334.118757,0.0,-49.31640625,-44.43359375,-3.41796875,0.0
1741044334.1226628,0.0,-58.59375,-55.17578125,-17.578125,0.0
1741044334.1265688,0.0,-53.7109375,-64.94140625,-35.15625,0.0
