timestamps,TP9,AF7,AF8,TP10,Right AUX
1741085958.882671,-43.9453125,-26.85546875,-56.640625,-63.4765625,0.0
1741085958.886576,-44.921875,-22.4609375,-58.10546875,-83.49609375,0.0
1741085958.8904808,30.76171875,-17.578125,-47.8515625,-34.66796875,0.0
1741085958.8943856,41.9921875,-14.16015625,-48.33984375,-19.53125,0.0
1741085958.8982904,-44.43359375,-20.5078125,-52.734375,-76.66015625,0.0
1741085958.9021952,-93.26171875,-25.390625,-55.6640625,-107.421875,0.0
1741085958.9061,-34.1796875,-25.87890625,-59.08203125,-59.5703125,0.0
1741085958.9100046,13.18359375,-26.3671875,-52.24609375,-19.53125,0.0
1741085958.9139094,-37.59765625,-21.97265625,-59.08203125,-55.17578125,0.0
1741085958.9178143,-84.47265625,-33.69140625,-71.2890625,-100.09765625,0.0
1741085958.921719,-37.59765625,-38.57421875,-58.10546875,-77.63671875,0.0
1741085958.925624,21.97265625,-32.71484375,-52.24609375,-28.3203125,0.0
1741085958.9295435,-3.90625,-29.296875,-54.19921875,-42.96875,0.0
1741085958.9334483,-77.1484375,-47.8515625,-47.8515625,-83.0078125,0.0
1741085958.9373531,-72.75390625,-55.17578125,-45.8984375,-65.91796875,0.0
1741085958.941258,-7.8125,-34.1796875,-42.48046875,-12.6953125,0.0
1741085958.9451628,-4.39453125,-39.0625,-38.57421875,-0.9765625,0.0
1741085958.9490676,-75.1953125,-64.94140625,-51.7578125,-45.8984375,0.0
1741085958.9529722,-83.0078125,-65.4296875,-49.31640625,-52.734375,0.0
1741085958.956877,-12.6953125,-44.43359375,-39.0625,-4.39453125,0.0
1741085958.9607818,-6.34765625,-37.109375,-42.96875,8.7890625,0.0
1741085958.9646866,-83.0078125,-54.6875,-51.26953125,-30.2734375,0.0
1741085958.9685915,-116.69921875,-66.40625,-49.31640625,-57.12890625,0.0
1741085958.9724963,-51.7578125,-58.59375,-48.828125,-30.76171875,0.0
1741085958.9764156,0.9765625,-46.875,-58.10546875,-1.953125,0.0
1741085958.9803205,-29.78515625,-44.921875,-53.22265625,-21.484375,0.0
1741085958.9842253,-93.26171875,-60.546875,-51.26953125,-67.3828125,0.0
1741085958.98813,-55.17578125,-43.9453125,-48.828125,-53.22265625,0.0
1741085958.992035,29.78515625,-15.13671875,-39.55078125,0.0,0.0
1741085958.9959397,0.48828125,-32.2265625,-44.43359375,-5.37109375,0.0
1741085958.9998446,-61.5234375,-42.96875,-52.734375,-48.33984375,0.0
1741085959.0037491,-27.34375,-27.34375,-45.41015625,-47.36328125,0.0
1741085959.007654,41.9921875,-20.01953125,-39.55078125,5.859375,0.0
1741085959.0115588,24.4140625,-30.2734375,-46.38671875,17.578125,0.0
1741085959.0154636,-63.96484375,-44.43359375,-57.6171875,-41.9921875,0.0
1741085959.0193684,-86.42578125,-34.1796875,-59.08203125,-67.87109375,0.0
1741085959.0232892,-9.27734375,-26.3671875,-42.96875,-14.16015625,0.0
1741085959.027194,30.76171875,-33.69140625,-22.4609375,19.53125,0.0
1741085959.0310988,-26.3671875,-29.78515625,-19.04296875,-16.11328125,0.0
1741085959.0350037,-63.4765625,-31.25,-27.34375,-54.19921875,0.0
1741085959.0389082,-19.04296875,-37.59765625,-27.34375,-28.3203125,0.0
1741085959.042813,17.08984375,-39.0625,-28.80859375,2.9296875,0.0
1741085959.046718,-21.484375,-31.25,-39.55078125,-29.296875,0.0
1741085959.0506227,-72.75390625,-30.2734375,-46.38671875,-76.66015625,0.0
1741085959.0545275,-62.5,-43.9453125,-52.24609375,-67.87109375,0.0
1741085959.0584323,-14.6484375,-42.48046875,-49.8046875,-25.87890625,0.0
1741085959.0623372,-21.484375,-29.78515625,-43.9453125,-27.83203125,0.0
1741085959.0662417,-85.44921875,-51.7578125,-53.7109375,-74.21875,0.0
1741085959.0701625,-62.98828125,-51.7578125,-59.5703125,-74.70703125,0.0
1741085959.0740674,18.5546875,-24.4140625,-41.9921875,-12.20703125,0.0
1741085959.0779722,3.90625,-32.2265625,-33.69140625,1.953125,0.0
1741085959.081877,-83.49609375,-55.17578125,-30.2734375,-51.26953125,0.0
1741085959.0857818,-105.46875,-65.91796875,-30.76171875,-67.3828125,0.0
1741085959.0896864,-17.578125,-56.15234375,-36.62109375,-10.25390625,0.0
1741085959.0935912,13.18359375,-53.22265625,-24.90234375,29.78515625,0.0
1741085959.097496,-66.40625,-61.5234375,-17.08984375,-7.8125,0.0
1741085959.1014009,-102.05078125,-71.2890625,-33.203125,-48.33984375,0.0
1741085959.1053057,-49.31640625,-71.2890625,-39.0625,-19.04296875,0.0
1741085959.1092105,13.18359375,-60.05859375,-29.296875,25.87890625,0.0
1741085959.1131153,-14.6484375,-58.10546875,-34.66796875,1.46484375,0.0
1741085959.1170359,-76.66015625,-70.3125,-41.50390625,-39.0625,0.0
1741085959.1209404,-39.55078125,-67.3828125,-40.52734375,-17.08984375,0.0
1741085959.1248453,28.80859375,-54.6875,-42.48046875,15.13671875,0.0
1741085959.12875,22.4609375,-55.6640625,-43.9453125,11.23046875,0.0
1741085959.132655,-34.66796875,-58.59375,-46.875,-20.99609375,0.0
1741085959.1365597,-30.76171875,-57.12890625,-51.7578125,-31.25,0.0
1741085959.1404645,33.69140625,-37.109375,-47.8515625,11.23046875,0.0
1741085959.1443694,57.12890625,-29.78515625,-46.875,45.8984375,0.0
1741085959.148274,-13.18359375,-45.41015625,-50.29296875,0.48828125,0.0
1741085959.1521788,-50.29296875,-38.57421875,-46.38671875,-42.96875,0.0
1741085959.1560836,15.625,-32.2265625,-48.828125,-2.9296875,0.0
1741085959.1599884,68.359375,-41.9921875,-57.12890625,36.62109375,0.0
1741085959.1639087,18.06640625,-46.38671875,-59.5703125,0.9765625,0.0
1741085959.1678135,-48.33984375,-40.0390625,-42.48046875,-45.8984375,0.0
1741085959.1717181,-17.08984375,-27.83203125,-33.203125,-16.6015625,0.0
1741085959.175623,46.38671875,-20.01953125,-37.109375,34.66796875,0.0
1741085959.1795278,21.97265625,-24.4140625,-38.0859375,22.94921875,0.0
1741085959.1834326,-50.78125,-38.57421875,-45.41015625,-30.76171875,0.0
1741085959.1873374,-34.66796875,-37.109375,-46.875,-26.85546875,0.0
1741085959.1912422,40.0390625,-42.96875,-46.38671875,26.3671875,0.0
1741085959.195147,41.9921875,-45.8984375,-46.875,24.90234375,0.0
1741085959.1990516,-27.83203125,-37.109375,-42.48046875,-25.87890625,0.0
1741085959.2029564,-40.0390625,-42.96875,-45.8984375,-42.48046875,0.0
1741085959.2068613,22.94921875,-38.0859375,-44.43359375,0.48828125,0.0
1741085959.2107813,34.1796875,-30.76171875,-34.1796875,36.1328125,0.0
1741085959.2146862,-35.15625,-38.57421875,-31.73828125,-9.27734375,0.0
1741085959.218591,-72.75390625,-49.31640625,-44.921875,-57.6171875,0.0
1741085959.2224958,-24.4140625,-48.828125,-44.43359375,-22.4609375,0.0
1741085959.2264006,11.71875,-43.45703125,-27.83203125,14.16015625,0.0
1741085959.2303052,-43.9453125,-51.7578125,-37.109375,-15.13671875,0.0
1741085959.23421,-97.16796875,-50.78125,-50.78125,-55.17578125,0.0
1741085959.2381148,-50.29296875,-52.24609375,-41.9921875,-41.9921875,0.0
1741085959.2420197,9.27734375,-55.17578125,-35.15625,-5.37109375,0.0
1741085959.2459245,-17.08984375,-47.36328125,-34.66796875,-12.20703125,0.0
1741085959.2498293,-87.890625,-54.6875,-39.0625,-54.6875,0.0
1741085959.253734,-86.42578125,-68.84765625,-47.36328125,-60.546875,0.0
1741085959.257654,-6.34765625,-49.8046875,-45.41015625,-13.671875,0.0
1741085959.2615588,5.859375,-36.1328125,-44.43359375,-7.8125,0.0
1741085959.2654636,-59.08203125,-46.875,-46.875,-59.08203125,0.0
1741085959.2693684,-73.2421875,-43.9453125,-47.36328125,-76.66015625,0.0
1741085959.273273,-6.34765625,-37.59765625,-47.36328125,-25.87890625,0.0
1741085959.2771778,37.59765625,-46.875,-47.8515625,14.16015625,0.0
1741085959.2810826,-24.4140625,-62.5,-59.08203125,-25.390625,0.0
1741085959.2849874,-72.265625,-46.875,-59.08203125,-67.87109375,0.0
1741085959.2888923,-32.2265625,-27.83203125,-54.19921875,-40.52734375,0.0
1741085959.292797,10.7421875,-25.390625,-49.8046875,0.9765625,0.0
1741085959.296702,-13.18359375,-25.87890625,-46.38671875,-22.4609375,0.0
1741085959.3006065,-73.73046875,-35.64453125,-57.6171875,-73.73046875,0.0
1741085959.3045263,-44.43359375,-27.34375,-51.7578125,-53.7109375,0.0
1741085959.3084311,28.3203125,-17.08984375,-45.41015625,1.953125,0.0
1741085959.312336,0.9765625,-23.4375,-50.29296875,-11.23046875,0.0
1741085959.3162408,-74.21875,-33.203125,-62.5,-66.40625,0.0
1741085959.3201456,-62.5,-35.64453125,-57.12890625,-57.12890625,0.0
1741085959.3240502,24.4140625,-28.80859375,-46.875,-6.34765625,0.0
1741085959.327955,40.0390625,-38.0859375,-46.875,1.953125,0.0
1741085959.3318598,-34.66796875,-39.55078125,-42.48046875,-43.45703125,0.0
1741085959.3357646,-56.15234375,-35.64453125,-49.8046875,-70.80078125,0.0
1741085959.3396695,5.859375,-34.66796875,-47.8515625,-25.87890625,0.0
1741085959.3435743,38.57421875,-24.90234375,-34.66796875,18.5546875,0.0
1741085959.347479,-17.08984375,-45.8984375,-41.9921875,-24.90234375,0.0
1741085959.3513985,-58.59375,-45.41015625,-41.50390625,-72.265625,0.0
1741085959.3553033,-12.6953125,-29.296875,-34.1796875,-34.66796875,0.0
1741085959.359208,38.57421875,-27.83203125,-34.66796875,11.71875,0.0
1741085959.363113,-2.44140625,-19.04296875,-30.2734375,-11.23046875,0.0
1741085959.3670177,-72.265625,-29.296875,-36.1328125,-68.84765625,0.0
1741085959.3709223,-47.8515625,-40.0390625,-35.64453125,-65.4296875,0.0
1741085959.3748271,10.7421875,-31.73828125,-32.2265625,-15.625,0.0
1741085959.378732,-2.44140625,-33.69140625,-36.62109375,-21.97265625,0.0
1741085959.3826368,-72.265625,-41.9921875,-31.25,-69.3359375,0.0
1741085959.3865416,-87.890625,-47.36328125,-39.55078125,-76.171875,0.0
1741085959.3904464,-25.87890625,-36.1328125,-44.921875,-34.66796875,0.0
1741085959.3943512,-5.859375,-25.87890625,-43.45703125,-18.5546875,0.0
1741085959.398272,0.0,-38.57421875,-37.59765625,-56.640625,0.0
1741085959.4021769,0.0,-47.8515625,-27.83203125,-81.0546875,0.0
1741085959.4060817,0.0,-41.015625,-32.71484375,-41.015625,0.0
1741085959.4099865,0.0,-31.25,-36.1328125,-6.8359375,0.0
1741085959.4138913,0.0,-49.31640625,-39.55078125,-40.0390625,0.0
1741085959.4177961,0.0,-65.91796875,-41.50390625,-75.68359375,0.0
1741085959.4217007,0.0,-55.17578125,-39.0625,-45.41015625,0.0
1741085959.4256055,0.0,-32.71484375,-33.203125,12.6953125,0.0
1741085959.4295104,0.0,-35.15625,-32.2265625,-2.9296875,0.0
1741085959.4334152,0.0,-50.78125,-41.50390625,-52.734375,0.0
1741085959.43732,0.0,-37.59765625,-42.96875,-43.9453125,0.0
1741085959.4412248,0.0,-37.59765625,-43.9453125,0.9765625,0.0
1741085959.4451456,11.71875,-41.50390625,-46.875,-1.46484375,0.0
1741085959.4490504,-59.5703125,-36.62109375,-45.41015625,-44.921875,0.0
1741085959.452955,-55.6640625,-31.25,-42.48046875,-52.734375,0.0
1741085959.4568598,3.90625,-28.3203125,-35.64453125,-6.8359375,0.0
1741085959.4607646,21.97265625,-34.66796875,-34.66796875,18.5546875,0.0
1741085959.4646695,-47.8515625,-48.828125,-44.921875,-26.3671875,0.0
1741085959.4685743,-83.49609375,-51.7578125,-50.29296875,-51.26953125,0.0
1741085959.472479,-21.97265625,-40.52734375,-38.0859375,-14.16015625,0.0
1741085959.476384,24.90234375,-44.43359375,-31.73828125,23.92578125,0.0
1741085959.4802885,-12.6953125,-52.734375,-39.55078125,-8.30078125,0.0
1741085959.4841933,-71.77734375,-36.62109375,-42.96875,-58.10546875,0.0
1741085959.4880981,-46.38671875,-29.296875,-38.57421875,-36.62109375,0.0
1741085959.4920187,0.0,-29.78515625,-36.62109375,5.859375,0.0
1741085959.4959235,0.0,-25.87890625,-33.69140625,6.34765625,0.0
1741085959.4998283,0.0,-37.109375,-32.2265625,-33.203125,0.0
1741085959.5037332,0.0,-41.50390625,-30.2734375,-30.76171875,0.0
1741085959.507638,0.0,-36.1328125,-30.2734375,12.20703125,0.0
1741085959.5115428,0.0,-37.109375,-33.69140625,13.18359375,0.0
1741085959.5154476,0.0,-38.57421875,-40.0390625,-34.66796875,0.0
1741085959.5193522,0.0,-44.43359375,-40.52734375,-57.6171875,0.0
1741085959.523257,0.0,-50.29296875,-34.1796875,-14.6484375,0.0
1741085959.5271618,0.0,-35.15625,-35.64453125,7.8125,0.0
1741085959.5310667,0.0,-31.73828125,-37.59765625,-35.15625,0.0
1741085959.5349715,0.0,-47.36328125,-42.48046875,-72.75390625,0.0
1741085959.5388916,-58.59375,-47.8515625,-46.38671875,-44.43359375,0.0
1741085959.5427964,-7.32421875,-30.2734375,-46.875,-11.71875,0.0
1741085959.5467012,-34.66796875,-28.3203125,-48.33984375,-41.015625,0.0
1741085959.550606,-96.6796875,-42.48046875,-65.91796875,-93.26171875,0.0
1741085959.5545108,-78.125,-44.43359375,-68.359375,-84.9609375,0.0
1741085959.5584157,-11.23046875,-41.015625,-47.36328125,-32.71484375,0.0
1741085959.5623205,-21.97265625,-37.59765625,-50.29296875,-39.55078125,0.0
1741085959.5662253,-81.0546875,-57.12890625,-61.5234375,-79.1015625,0.0
1741085959.5701299,-72.265625,-63.4765625,-53.22265625,-79.1015625,0.0
1741085959.5740347,-22.94921875,-43.45703125,-44.43359375,-48.828125,0.0
1741085959.5779395,-11.71875,-42.48046875,-50.78125,-32.71484375,0.0
1741085959.5818443,-75.1953125,-57.12890625,-57.12890625,-72.75390625,0.0
1741085959.5857644,-103.02734375,-63.96484375,-51.7578125,-92.7734375,0.0
1741085959.5896692,-36.62109375,-57.12890625,-46.38671875,-41.015625,0.0
1741085959.593574,4.39453125,-53.22265625,-42.48046875,-2.9296875,0.0
1741085959.5974789,-44.921875,-58.10546875,-47.36328125,-39.55078125,0.0
1741085959.6013837,-74.70703125,-52.734375,-50.29296875,-60.546875,0.0
1741085959.6052883,-25.87890625,-56.640625,-42.48046875,-19.04296875,0.0
1741085959.609193,-4.8828125,-61.5234375,-36.62109375,4.8828125,0.0
1741085959.613098,-46.875,-48.33984375,-36.62109375,-15.625,0.0
1741085959.6170027,-88.37890625,-46.38671875,-37.59765625,-51.7578125,0.0
1741085959.6209075,-63.96484375,-52.734375,-33.69140625,-35.15625,0.0
1741085959.6248124,6.34765625,-44.43359375,-36.1328125,20.01953125,0.0
1741085959.6287172,5.859375,-51.26953125,-38.0859375,17.08984375,0.0
1741085959.632637,0.0,-59.5703125,-44.43359375,-34.66796875,0.0
1741085959.6365418,0.0,-50.78125,-40.0390625,-41.50390625,0.0
1741085959.6404467,0.0,-43.9453125,-30.76171875,10.7421875,0.0
1741085959.6443515,0.0,-41.50390625,-28.80859375,34.1796875,0.0
1741085959.6482563,0.0,-58.10546875,-32.71484375,-11.23046875,0.0
1741085959.6521611,0.0,-68.359375,-44.43359375,-47.8515625,0.0
1741085959.6560657,0.0,-57.12890625,-39.55078125,-2.44140625,0.0
1741085959.6599705,0.0,-41.9921875,-30.76171875,41.015625,0.0
1741085959.6638753,0.0,-37.109375,-28.80859375,-6.8359375,0.0
1741085959.6677802,0.0,-39.0625,-30.76171875,-44.43359375,0.0
1741085959.671685,0.0,-40.52734375,-32.2265625,-7.8125,0.0
1741085959.6755898,0.0,-32.2265625,-34.1796875,27.83203125,0.0
1741085959.6795096,-7.8125,-22.4609375,-36.62109375,-4.39453125,0.0
1741085959.6834145,-67.3828125,-33.203125,-41.50390625,-55.17578125,0.0
1741085959.687319,-40.52734375,-32.71484375,-45.8984375,-47.36328125,0.0
1741085959.6912239,20.01953125,-27.34375,-41.015625,-7.8125,0.0
1741085959.6951287,12.6953125,-26.3671875,-45.8984375,-9.27734375,0.0
1741085959.6990335,-50.29296875,-27.34375,-43.9453125,-47.36328125,0.0
1741085959.7029383,-63.4765625,-44.921875,-34.1796875,-54.19921875,0.0
1741085959.7068431,1.953125,-40.52734375,-26.3671875,-8.7890625,0.0
1741085959.710748,14.6484375,-31.73828125,-20.01953125,0.9765625,0.0
1741085959.7146525,-72.265625,-43.45703125,-38.0859375,-63.96484375,0.0
1741085959.7185574,-107.91015625,-47.36328125,-45.8984375,-99.609375,0.0
1741085959.7224622,-47.36328125,-42.48046875,-43.45703125,-62.5,0.0
1741085959.7263818,-5.859375,-39.55078125,-55.6640625,-26.85546875,0.0
1741085959.7302866,-53.22265625,-53.7109375,-58.10546875,-53.7109375,0.0
1741085959.7341912,-115.72265625,-59.08203125,-51.26953125,-91.796875,0.0
1741085959.738096,-73.73046875,-43.45703125,-39.55078125,-58.59375,0.0
1741085959.7420008,-2.9296875,-37.59765625,-46.38671875,-15.13671875,0.0
1741085959.7459056,-36.1328125,-52.734375,-62.01171875,-29.78515625,0.0
1741085959.7498105,-99.609375,-59.08203125,-52.24609375,-71.77734375,0.0
1741085959.7537153,-74.70703125,-47.36328125,-49.8046875,-79.58984375,0.0
1741085959.75762,-1.46484375,-43.45703125,-55.6640625,-33.203125,0.0
1741085959.7615247,5.859375,-50.78125,-56.640625,-22.94921875,0.0
1741085959.7654295,-58.10546875,-49.31640625,-52.734375,-65.91796875,0.0
1741085959.7693343,-70.80078125,-50.29296875,-54.19921875,-76.171875,0.0
1741085959.773255,-2.9296875,-42.96875,-56.15234375,-30.2734375,0.0
1741085959.77716,13.18359375,-36.1328125,-46.38671875,-13.671875,0.0
1741085959.7810647,-48.33984375,-44.43359375,-46.38671875,-57.6171875,0.0
1741085959.7849696,-81.0546875,-45.41015625,-48.828125,-78.125,0.0
1741085959.7888744,-33.69140625,-41.9921875,-52.734375,-38.0859375,0.0
1741085959.7927792,16.6015625,-30.2734375,-59.5703125,-8.7890625,0.0
1741085959.7966838,-35.64453125,-34.66796875,-57.12890625,-33.203125,0.0
1741085959.8005886,-99.12109375,-48.828125,-49.31640625,-70.80078125,0.0
1741085959.8044934,-57.6171875,-38.57421875,-52.24609375,-58.59375,0.0
1741085959.8083982,20.99609375,-24.90234375,-53.22265625,0.0,0.0
1741085959.812303,2.9296875,-24.4140625,-54.6875,-0.48828125,0.0
1741085959.816208,-67.87109375,-45.41015625,-54.6875,-56.640625,0.0
1741085959.8201287,0.0,-57.12890625,-51.26953125,-59.5703125,0.0
1741085959.8240335,0.0,-37.59765625,-47.8515625,-11.23046875,0.0
1741085959.827938,0.0,-25.390625,-39.55078125,4.8828125,0.0
1741085959.831843,0.0,-34.1796875,-44.43359375,-39.0625,0.0
1741085959.8357477,0.0,-40.52734375,-45.8984375,-53.7109375,0.0
1741085959.8396525,0.0,-31.73828125,-34.66796875,-3.90625,0.0
1741085959.8435574,0.0,-20.99609375,-29.296875,30.2734375,0.0
1741085959.8474622,0.0,-24.4140625,-36.62109375,-1.953125,0.0
1741085959.851367,0.0,-42.96875,-45.41015625,-40.52734375,0.0
1741085959.8552718,0.0,-40.0390625,-33.69140625,-14.16015625,0.0
1741085959.8591764,0.0,-19.53125,-33.203125,21.484375,0.0
1741085959.8630812,0.0,-25.390625,-38.57421875,2.44140625,0.0
1741085959.8670018,-82.51953125,-47.36328125,-43.45703125,-50.29296875,0.0
1741085959.8709066,-62.98828125,-49.8046875,-45.8984375,-46.38671875,0.0
1741085959.8748114,8.7890625,-35.64453125,-22.4609375,4.39453125,0.0
1741085959.8787162,-3.41796875,-42.48046875,-26.3671875,2.9296875,0.0
1741085959.882621,-82.51953125,-62.5,-45.41015625,-59.08203125,0.0
1741085959.8865259,-84.47265625,-55.17578125,-50.78125,-73.2421875,0.0
1741085959.8904305,-16.6015625,-49.31640625,-56.640625,-27.83203125,0.0
1741085959.8943353,-4.8828125,-56.640625,-47.8515625,-15.13671875,0.0
1741085959.89824,-59.08203125,-57.12890625,-44.921875,-56.15234375,0.0
1741085959.902145,-97.16796875,-52.734375,-47.36328125,-91.796875,0.0
1741085959.9060497,-45.8984375,-52.734375,-48.33984375,-66.89453125,0.0
1741085959.9099545,5.859375,-54.6875,-55.6640625,-31.73828125,0.0
1741085959.9138749,-47.36328125,-60.05859375,-57.12890625,-66.89453125,0.0
1741085959.9177794,-97.65625,-54.19921875,-53.22265625,-100.5859375,0.0
1741085959.9216843,-49.31640625,-47.8515625,-62.98828125,-65.4296875,0.0
1741085959.925589,7.8125,-40.52734375,-53.7109375,-21.484375,0.0
1741085959.929494,-31.25,-51.7578125,-44.43359375,-34.66796875,0.0
1741085959.9333987,-88.37890625,-62.5,-56.640625,-81.0546875,0.0
1741085959.9373035,-63.96484375,-41.015625,-55.6640625,-78.125,0.0
1741085959.9412084,1.46484375,-35.64453125,-49.8046875,-17.08984375,0.0
1741085959.9451132,4.8828125,-41.50390625,-52.734375,0.0,0.0
1741085959.9490178,-71.2890625,-41.015625,-60.05859375,-62.98828125,0.0
1741085959.9529226,-84.47265625,-42.96875,-59.08203125,-76.171875,0.0
1741085959.9568274,-14.16015625,-39.55078125,-49.31640625,-23.92578125,0.0
1741085959.9607475,13.18359375,-34.66796875,-45.8984375,-7.8125,0.0
1741085959.9646523,-43.9453125,-33.203125,-41.015625,-41.015625,0.0
1741085959.9685571,-74.21875,-41.50390625,-38.57421875,-61.03515625,0.0
1741085959.972462,-16.6015625,-41.9921875,-37.59765625,-32.71484375,0.0
1741085959.9763668,26.85546875,-27.83203125,-32.2265625,-5.37109375,0.0
1741085959.9802716,-28.80859375,-28.80859375,-37.109375,-32.2265625,0.0
1741085959.9841762,-83.0078125,-39.0625,-42.48046875,-69.3359375,0.0
1741085959.988081,-46.38671875,-43.45703125,-46.38671875,-46.38671875,0.0
1741085959.9919858,14.16015625,-30.2734375,-40.0390625,0.0,0.0
1741085959.9958906,-14.6484375,-31.25,-40.0390625,-10.25390625,0.0
1741085959.9997954,-87.40234375,-36.1328125,-54.6875,-48.828125,0.0
1741085960.0037003,-63.96484375,-36.1328125,-36.1328125,-34.66796875,0.0
1741085960.0076203,0.0,-39.55078125,-11.23046875,13.671875,0.0
1741085960.011525,0.0,-22.4609375,-12.20703125,16.6015625,0.0
1741085960.0154297,0.0,-32.71484375,-29.296875,-34.66796875,0.0
1741085960.0193346,0.0,-49.31640625,-41.9921875,-60.546875,0.0
1741085960.0232394,0.0,-36.62109375,-33.203125,-20.01953125,0.0
1741085960.0271442,0.0,-30.2734375,-28.3203125,10.7421875,0.0
1741085960.031049,0.0,-41.50390625,-32.2265625,-31.25,0.0
1741085960.0349538,0.0,-55.17578125,-33.69140625,-77.1484375,0.0
1741085960.0388584,0.0,-58.10546875,-44.921875,-49.8046875,0.0
1741085960.0427632,0.0,-51.26953125,-52.24609375,-8.7890625,0.0
1741085960.046668,0.0,-36.1328125,-37.59765625,-31.25,0.0
1741085960.0505729,0.0,-41.9921875,-39.55078125,-75.1953125,0.0
1741085960.0544925,-75.1953125,-53.22265625,-50.29296875,-61.03515625,0.0
1741085960.0583973,-9.765625,-44.43359375,-40.52734375,-17.578125,0.0
1741085960.062302,-21.484375,-36.1328125,-25.87890625,-26.3671875,0.0
1741085960.066207,-93.26171875,-45.41015625,-35.15625,-84.9609375,0.0
1741085960.0701118,-100.09765625,-55.6640625,-54.6875,-86.9140625,0.0
1741085960.0740166,-13.671875,-46.875,-49.31640625,-33.69140625,0.0
1741085960.0779214,0.0,-46.38671875,-48.33984375,-20.5078125,0.0
1741085960.081826,-81.54296875,-56.15234375,-63.96484375,-69.3359375,0.0
1741085960.0857308,-98.6328125,-55.6640625,-68.84765625,-89.35546875,0.0
1741085960.0896356,-25.390625,-49.31640625,-50.29296875,-34.66796875,0.0
1741085960.0935404,13.18359375,-36.1328125,-39.0625,0.9765625,0.0
1741085960.0974452,-50.29296875,-37.109375,-35.64453125,-44.43359375,0.0
1741085960.1013649,-96.6796875,-60.546875,-47.36328125,-85.9375,0.0
1741085960.1052694,-39.55078125,-53.22265625,-54.6875,-48.828125,0.0
1741085960.1091743,13.671875,-26.3671875,-53.7109375,-4.8828125,0.0
1741085960.113079,-32.71484375,-26.3671875,-49.8046875,-28.3203125,0.0
1741085960.116984,-76.171875,-31.25,-42.48046875,-61.5234375,0.0
1741085960.1208887,-28.3203125,-41.015625,-47.36328125,-38.57421875,0.0
1741085960.1247935,27.34375,-40.52734375,-52.24609375,1.46484375,0.0
1741085960.1286983,14.16015625,-25.87890625,-41.9921875,1.46484375,0.0
1741085960.132603,-46.875,-32.2265625,-35.64453125,-33.69140625,0.0
1741085960.1365077,-56.640625,-40.52734375,-41.50390625,-41.9921875,0.0
1741085960.1404126,5.859375,-36.1328125,-36.1328125,-1.46484375,0.0
1741085960.1443174,19.04296875,-25.390625,-31.73828125,17.08984375,0.0
1741085960.1482382,-47.36328125,-36.62109375,-45.8984375,-18.5546875,0.0
1741085960.152143,-61.5234375,-53.22265625,-40.0390625,-37.109375,0.0
1741085960.1560478,9.765625,-42.48046875,-21.484375,1.46484375,0.0
1741085960.1599526,43.45703125,-10.7421875,-20.5078125,33.203125,0.0
1741085960.1638575,-23.4375,-26.3671875,-23.92578125,-3.41796875,0.0
1741085960.1677623,-71.2890625,-62.5,-33.203125,-36.62109375,0.0
1741085960.1716669,-25.390625,-62.5,-43.9453125,-15.13671875,0.0
1741085960.1755717,31.25,-45.8984375,-46.875,20.5078125,0.0
1741085960.1794765,-6.8359375,-31.73828125,-38.57421875,0.9765625,0.0
1741085960.1833813,-81.0546875,-52.24609375,-54.19921875,-55.17578125,0.0
1741085960.1872861,-61.03515625,-78.125,-60.546875,-48.33984375,0.0
1741085960.191191,27.83203125,-87.40234375,-28.3203125,6.8359375,0.0
1741085960.1951115,39.0625,-100.5859375,-53.22265625,18.06640625,0.0
1741085960.1990163,-10.25390625,-126.46484375,-64.94140625,-9.765625,0.0
1741085960.2029212,35.15625,-72.265625,2.9296875,41.50390625,0.0
1741085960.206826,103.02734375,-135.25390625,-126.953125,80.56640625,0.0
1741085960.2107308,125.0,-324.21875,-130.859375,105.95703125,0.0
1741085960.2146356,159.1796875,84.9609375,-62.5,180.17578125,0.0
1741085960.2185404,134.765625,55.6640625,-103.02734375,126.953125,0.0
1741085960.222445,163.0859375,-432.6171875,-102.05078125,170.8984375,0.0
1741085960.2263498,306.640625,85.44921875,47.36328125,319.82421875,0.0
1741085960.2302547,146.484375,427.734375,109.375,70.3125,0.0
1741085960.2341595,-150.87890625,23.92578125,3.41796875,-174.31640625,0.0
1741085960.2380643,-45.8984375,205.078125,144.53125,-38.0859375,0.0
1741085960.2419848,-45.8984375,511.71875,198.2421875,-98.14453125,0.0
1741085960.2458897,-151.3671875,578.61328125,312.01171875,-179.6875,0.0
1741085960.2497945,6.8359375,792.48046875,605.95703125,-11.71875,0.0
1741085960.2536993,94.7265625,981.4453125,899.4140625,58.10546875,0.0
1741085960.257604,140.13671875,964.84375,971.19140625,65.91796875,0.0
1741085960.2615087,96.19140625,966.796875,963.8671875,20.01953125,0.0
1741085960.2654135,-93.26171875,970.703125,970.21484375,-120.1171875,0.0
1741085960.2693183,165.52734375,969.7265625,970.21484375,108.3984375,0.0
1741085960.2732232,213.37890625,970.21484375,969.7265625,74.21875,0.0
1741085960.277128,-166.50390625,969.7265625,969.7265625,-287.59765625,0.0
1741085960.2810328,-267.578125,970.21484375,969.7265625,-333.0078125,0.0
1741085960.2849374,-261.71875,969.7265625,969.7265625,-329.58984375,0.0
1741085960.2888577,-84.47265625,970.21484375,969.7265625,-171.38671875,0.0
1741085960.2927625,90.8203125,970.21484375,969.7265625,-21.97265625,0.0
1741085960.2966673,53.22265625,970.21484375,970.21484375,-33.203125,0.0
1741085960.3005722,-143.5546875,970.21484375,970.21484375,-166.50390625,0.0
1741085960.304477,-232.91015625,970.21484375,969.7265625,-280.2734375,0.0
1741085960.3083816,-3.90625,969.7265625,970.21484375,-128.41796875,0.0
1741085960.3122864,62.98828125,969.7265625,970.21484375,-85.9375,0.0
1741085960.3161912,24.4140625,969.7265625,970.21484375,-86.9140625,0.0
1741085960.320096,36.62109375,970.21484375,969.7265625,-48.828125,0.0
1741085960.3240008,66.40625,970.21484375,969.7265625,-125.48828125,0.0
1741085960.3279057,112.79296875,969.7265625,969.7265625,-97.16796875,0.0
1741085960.3318105,-102.05078125,969.7265625,969.7265625,-163.0859375,0.0
1741085960.3357306,-172.36328125,969.7265625,969.7265625,-189.94140625,0.0
1741085960.3396351,-22.4609375,969.7265625,969.7265625,-82.03125,0.0
1741085960.34354,-56.640625,969.7265625,969.7265625,-129.8828125,0.0
1741085960.3474448,-127.44140625,969.7265625,970.21484375,-180.6640625,0.0
1741085960.3513496,-88.8671875,969.7265625,970.21484375,-143.06640625,0.0
1741085960.3552544,122.55859375,969.7265625,970.21484375,26.3671875,0.0
1741085960.3591592,80.078125,969.7265625,970.21484375,-42.48046875,0.0
1741085960.363064,-118.65234375,970.21484375,969.7265625,-206.0546875,0.0
1741085960.3669689,-128.90625,969.7265625,969.7265625,-166.50390625,0.0
1741085960.3708735,-106.4453125,970.21484375,970.21484375,-158.203125,0.0
1741085960.3747783,-100.09765625,969.7265625,970.21484375,-162.109375,0.0
1741085960.378683,-120.1171875,969.7265625,969.7265625,-149.90234375,0.0
1741085960.382603,-156.73828125,969.7265625,969.7265625,-165.0390625,0.0
1741085960.3865077,-131.34765625,969.7265625,969.7265625,-139.6484375,0.0
1741085960.3904126,-56.15234375,969.7265625,970.21484375,-74.21875,0.0
1741085960.3943174,-48.33984375,970.21484375,970.21484375,-45.8984375,0.0
1741085960.3982222,-110.83984375,970.21484375,970.21484375,-77.1484375,0.0
1741085960.402127,-133.30078125,969.7265625,969.7265625,-79.1015625,0.0
1741085960.4060316,-91.796875,969.7265625,969.7265625,-36.62109375,0.0
1741085960.4099364,-63.4765625,969.7265625,970.21484375,1.953125,0.0
1741085960.4138412,-131.8359375,969.7265625,969.7265625,-23.4375,0.0
1741085960.417746,-189.453125,969.7265625,969.7265625,-52.24609375,0.0
1741085960.421651,-144.04296875,969.7265625,969.7265625,-12.6953125,0.0
1741085960.4255557,-114.74609375,970.21484375,970.21484375,25.87890625,0.0
1741085960.4294753,-174.8046875,969.7265625,967.7734375,13.18359375,0.0
1741085960.4333801,-254.8828125,966.796875,973.14453125,-33.203125,0.0
1741085960.437285,-271.484375,973.14453125,945.3125,-36.1328125,0.0
1741085960.4411898,-279.78515625,920.8984375,868.65234375,-1.46484375,0.0
1741085960.4450946,-365.72265625,810.05859375,809.5703125,-20.99609375,0.0
1741085960.4489992,-495.1171875,715.8203125,752.44140625,-93.75,0.0
1741085960.452904,-565.91796875,639.6484375,682.6171875,-134.27734375,0.0
1741085960.4568088,-570.80078125,578.61328125,630.37109375,-138.671875,0.0
1741085960.4607136,-599.12109375,502.44140625,571.2890625,-180.17578125,0.0
1741085960.4646184,-673.828125,419.921875,500.9765625,-269.04296875,0.0
1741085960.4685233,-716.30859375,351.07421875,437.98828125,-336.9140625,0.0
1741085960.472428,-678.7109375,277.34375,373.53515625,-351.07421875,0.0
1741085960.4763474,-611.81640625,216.796875,318.84765625,-368.1640625,0.0
1741085960.4802523,-645.99609375,161.62109375,259.765625,-428.22265625,0.0
1741085960.484157,-698.2421875,86.42578125,191.89453125,-470.703125,0.0
1741085960.488062,-642.08984375,4.39453125,133.30078125,-446.2890625,0.0
1741085960.4919665,-551.7578125,-80.56640625,77.63671875,-399.4140625,0.0
1741085960.4958713,-532.71484375,-160.15625,38.57421875,-391.11328125,0.0
1741085960.4997761,-561.03515625,-229.00390625,9.765625,-400.87890625,0.0
1741085960.503681,-513.18359375,-292.48046875,-20.01953125,-370.60546875,0.0
1741085960.5075858,-388.671875,-356.93359375,-58.59375,-288.0859375,0.0
1741085960.5114906,-325.1953125,-420.41015625,-99.609375,-233.88671875,0.0
1741085960.5153954,-382.8125,-499.0234375,-134.27734375,-270.99609375,0.0
1741085960.5193002,-375.0,-571.77734375,-166.9921875,-289.0625,0.0
1741085960.523221,0.0,-623.046875,-187.5,-233.88671875,0.0
1741085960.5271258,0.0,-696.2890625,-219.7265625,-179.6875,0.0
1741085960.5310307,0.0,-776.85546875,-255.859375,-191.40625,0.0
1741085960.5349355,0.0,-839.84375,-292.48046875,-208.984375,0.0
1741085960.5388403,0.0,-895.5078125,-332.03125,-164.0625,0.0
1741085960.542745,0.0,-964.84375,-366.69921875,-114.74609375,0.0
1741085960.5466497,0.0,-1000.0,-393.5546875,-116.69921875,0.0
1741085960.5505545,0.0,-998.53515625,-431.15234375,-143.06640625,0.0
1741085960.5544593,0.0,-1000.0,-461.9140625,-118.65234375,0.0
1741085960.5583642,0.0,-1000.0,-487.3046875,-63.4765625,0.0
1741085960.562269,0.0,-1000.0,-530.2734375,-62.98828125,0.0
1741085960.5661738,0.0,-1000.0,-571.2890625,-101.07421875,0.0
1741085960.5700943,-72.265625,-1000.0,-599.609375,-66.89453125,0.0
1741085960.5739992,12.20703125,-1000.0,-612.79296875,-4.39453125,0.0
1741085960.577904,29.296875,-1000.0,-634.27734375,3.41796875,0.0
1741085960.5818088,-29.78515625,-1000.0,-669.921875,-23.92578125,0.0
1741085960.5857136,-37.59765625,-1000.0,-701.171875,-31.25,0.0
1741085960.5896184,52.734375,-1000.0,-720.703125,21.97265625,0.0
1741085960.593523,107.91015625,-1000.0,-739.74609375,58.10546875,0.0
1741085960.5974278,60.546875,-1000.0,-758.30078125,38.0859375,0.0
1741085960.6013327,21.484375,-1000.0,-780.2734375,24.90234375,0.0
1741085960.6052375,75.68359375,-1000.0,-805.6640625,57.12890625,0.0
1741085960.6091423,125.48828125,-1000.0,-815.91796875,100.5859375,0.0
1741085960.6130471,91.796875,-1000.0,-816.40625,91.796875,0.0
1741085960.6169677,39.55078125,-1000.0,-823.2421875,43.9453125,0.0
1741085960.6208723,77.63671875,-1000.0,-818.359375,62.98828125,0.0
1741085960.624777,151.85546875,-1000.0,-819.3359375,120.1171875,0.0
1741085960.628682,132.32421875,-1000.0,-833.49609375,112.3046875,0.0
1741085960.6325867,60.546875,-1000.0,-840.8203125,65.91796875,0.0
1741085960.6364915,61.03515625,-1000.0,-850.09765625,62.98828125,0.0
1741085960.6403964,140.625,-1000.0,-841.30859375,118.1640625,0.0
1741085960.6443012,163.57421875,-1000.0,-820.80078125,147.94921875,0.0
1741085960.648206,80.56640625,-1000.0,-819.3359375,104.00390625,0.0
1741085960.6521106,44.921875,-1000.0,-822.75390625,63.96484375,0.0
1741085960.6560154,101.07421875,-999.51171875,-815.91796875,102.05078125,0.0
1741085960.6599202,129.39453125,-997.55859375,-799.8046875,132.32421875,0.0
1741085960.6638405,70.80078125,-984.375,-781.73828125,90.33203125,0.0
1741085960.6677454,18.06640625,-962.890625,-775.390625,43.9453125,0.0
1741085960.6716502,62.98828125,-946.77734375,-770.99609375,61.03515625,0.0
1741085960.675555,125.0,-932.6171875,-763.18359375,97.65625,0.0
1741085960.6794596,86.42578125,-914.0625,-759.27734375,72.265625,0.0
1741085960.6833644,19.04296875,-900.390625,-746.58203125,33.69140625,0.0
1741085960.6872692,46.875,-885.7421875,-736.81640625,43.45703125,0.0
1741085960.691174,116.2109375,-868.65234375,-726.07421875,82.51953125,0.0
1741085960.6950788,99.609375,-863.76953125,-724.12109375,65.4296875,0.0
1741085960.6989837,-3.41796875,-854.98046875,-716.30859375,3.90625,0.0
1741085960.7028885,-28.80859375,-834.47265625,-704.58984375,-6.34765625,0.0
1741085960.7067933,40.52734375,-813.4765625,-694.3359375,25.390625,0.0
1741085960.7107131,60.546875,-802.734375,-671.38671875,35.64453125,0.0
1741085960.714618,-11.23046875,-803.7109375,-659.1796875,-12.20703125,0.0
1741085960.7185228,-55.6640625,-793.45703125,-654.296875,-40.0390625,0.0
1741085960.7224276,8.30078125,-773.4375,-646.484375,1.46484375,0.0
1741085960.7263324,59.5703125,-745.1171875,-632.32421875,38.0859375,0.0
1741085960.7302372,1.46484375,-734.86328125,-624.51171875,13.18359375,0.0
1741085960.734142,-58.10546875,-740.234375,-625.0,-33.203125,0.0
1741085960.738047,-2.9296875,-729.4921875,-616.69921875,-9.765625,0.0
1741085960.7419515,75.68359375,-698.2421875,-588.8671875,49.8046875,0.0
1741085960.7458563,49.8046875,-679.6875,-598.14453125,33.203125,0.0
1741085960.749761,-13.671875,-680.6640625,-607.91015625,-28.3203125,0.0
1741085960.753666,1.953125,-673.33984375,-579.1015625,-27.34375,0.0
1741085960.7575874,71.2890625,-651.3671875,-565.91796875,28.80859375,0.0
1741085960.7614923,63.96484375,-623.53515625,-553.7109375,48.33984375,0.0
1741085960.765397,-16.11328125,-617.1875,-543.9453125,11.23046875,0.0
1741085960.7693017,-9.27734375,-602.05078125,-537.109375,1.46484375,0.0
1741085960.7732065,77.1484375,-575.68359375,-531.73828125,52.24609375,0.0
1741085960.7771113,104.98046875,-568.359375,-529.78515625,72.265625,0.0
1741085960.781016,39.55078125,-574.21875,-519.04296875,34.66796875,0.0
1741085960.784921,0.0,-575.68359375,-509.765625,6.34765625,0.0
1741085960.7888258,58.10546875,-553.7109375,-497.0703125,28.80859375,0.0
1741085960.7927306,106.4453125,-533.69140625,-487.3046875,75.1953125,0.0
1741085960.7966354,50.78125,-526.3671875,-485.83984375,59.08203125,0.0
1741085960.80054,-7.8125,-515.625,-472.65625,8.7890625,0.0
1741085960.8044598,28.3203125,-507.32421875,-461.42578125,16.6015625,0.0
1741085960.8083646,90.33203125,-503.41796875,-459.47265625,63.96484375,0.0
1741085960.8122694,71.2890625,-479.00390625,-450.68359375,56.15234375,0.0
1741085960.8161743,12.20703125,-466.30859375,-443.359375,7.8125,0.0
1741085960.820079,28.80859375,-462.40234375,-436.5234375,12.20703125,0.0
1741085960.8239837,83.49609375,-451.171875,-430.17578125,52.24609375,0.0
1741085960.8278885,66.89453125,-448.2421875,-431.640625,52.24609375,0.0
1741085960.8317933,-3.90625,-445.3125,-428.22265625,-0.48828125,0.0
1741085960.8356981,-15.13671875,-435.05859375,-426.7578125,-28.80859375,0.0
1741085960.839603,42.48046875,-438.4765625,-427.24609375,9.765625,0.0
1741085960.8435078,48.33984375,-439.94140625,-419.43359375,27.34375,0.0
1741085960.8474126,-20.5078125,-422.8515625,-413.0859375,-20.5078125,0.0
1741085960.851332,-62.01171875,-429.6875,-406.73828125,-49.31640625,0.0
1741085960.8552368,7.8125,-434.5703125,-398.92578125,-5.859375,0.0
1741085960.8591416,75.1953125,-416.9921875,-392.08984375,34.1796875,0.0
1741085960.8630464,8.30078125,-408.69140625,-403.80859375,-11.71875,0.0
1741085960.8669512,-77.63671875,-404.296875,-396.484375,-74.70703125,0.0
1741085960.8708558,-53.7109375,-407.71484375,-379.39453125,-62.98828125,0.0
1741085960.8747606,1.46484375,-406.73828125,-385.7421875,-20.5078125,0.0
1741085960.8786654,-38.57421875,-384.27734375,-381.34765625,-30.2734375,0.0
1741085960.8825703,-118.65234375,-380.37109375,-369.62890625,-90.8203125,0.0
1741085960.886475,-117.67578125,-394.53125,-368.65234375,-103.515625,0.0
1741085960.89038,-38.0859375,-393.06640625,-350.09765625,-36.1328125,0.0
1741085960.8942847,-44.921875,-383.30078125,-350.5859375,-47.8515625,0.0
1741085960.8982055,-125.9765625,-392.578125,-353.02734375,-123.53515625,0.0
1741085960.9021103,-141.6015625,-400.87890625,-342.28515625,-131.8359375,0.0
1741085960.9060152,-94.7265625,-377.9296875,-358.3984375,-94.23828125,0.0
1741085960.90992,-65.4296875,-364.74609375,-353.02734375,-71.2890625,0.0
1741085960.9138246,-98.14453125,-384.765625,-326.66015625,-83.984375,0.0
1741085960.9177294,-118.1640625,-363.28125,-310.546875,-100.09765625,0.0
1741085960.9216342,-77.1484375,-291.9921875,-326.171875,-86.9140625,0.0
1741085960.925539,-47.8515625,-279.296875,-320.3125,-60.05859375,0.0
1741085960.9294438,-87.40234375,-285.64453125,-304.19921875,-65.91796875,0.0
1741085960.9333487,-147.94921875,-304.6875,-304.19921875,-111.81640625,0.0
1741085960.9372535,-120.1171875,-295.41015625,-284.66796875,-102.5390625,0.0
1741085960.941158,-30.2734375,-277.34375,-281.73828125,-31.73828125,0.0
1741085960.9450788,-15.625,-281.25,-283.69140625,-17.578125,0.0
1741085960.9489837,-70.3125,-291.50390625,-284.1796875,-68.84765625,0.0
1741085960.9528885,-63.4765625,-282.71484375,-287.59765625,-63.4765625,0.0
1741085960.9567933,17.578125,-265.13671875,-271.97265625,-9.765625,0.0
1741085960.9606981,35.15625,-257.8125,-258.7890625,8.30078125,0.0
1741085960.964603,-41.9921875,-263.671875,-257.8125,-25.390625,0.0
1741085960.9685075,-65.91796875,-256.34765625,-264.16015625,-50.78125,0.0
1741085960.9724123,-3.90625,-237.79296875,-265.13671875,-26.85546875,0.0
1741085960.9763172,40.52734375,-249.0234375,-250.9765625,7.32421875,0.0
1741085960.980222,2.44140625,-247.0703125,-243.1640625,-19.53125,0.0
1741085960.9841268,-49.31640625,-227.05078125,-246.09375,-64.453125,0.0
1741085960.9880316,-11.71875,-214.84375,-242.1875,-34.1796875,0.0
1741085960.9919522,0.0,-209.47265625,-232.91015625,15.13671875,0.0
1741085960.995857,0.0,-206.0546875,-229.00390625,6.34765625,0.0
1741085960.9997618,0.0,-225.09765625,-239.74609375,-52.734375,0.0
1741085961.0036664,0.0,-238.76953125,-247.55859375,-59.08203125,0.0
1741085961.0075712,0.0,-214.84375,-232.421875,1.953125,0.0
1741085961.011476,0.0,-227.05078125,-232.91015625,4.39453125,0.0
1741085961.0153809,0.0,-245.60546875,-231.4453125,-43.45703125,0.0
1741085961.0192857,0.0,-232.421875,-219.23828125,-57.6171875,0.0
1741085961.0231905,0.0,-227.05078125,-226.5625,-9.27734375,0.0
1741085961.0270953,0.0,-221.6796875,-227.5390625,11.71875,0.0
1741085961.0310001,0.0,-224.12109375,-231.4453125,-43.9453125,0.0
1741085961.0349047,0.0,-231.93359375,-240.234375,-63.96484375,0.0
1741085961.038825,-15.625,-223.6328125,-243.1640625,-14.16015625,0.0
1741085961.0427299,30.76171875,-216.796875,-249.51171875,5.37109375,0.0
1741085961.0466347,-20.01953125,-224.12109375,-248.046875,-28.80859375,0.0
1741085961.0505395,-75.68359375,-244.140625,-248.53515625,-63.4765625,0.0
1741085961.0544443,-37.109375,-245.1171875,-246.09375,-42.48046875,0.0
1741085961.058349,26.3671875,-224.609375,-236.81640625,5.859375,0.0
1741085961.0622537,10.25390625,-224.609375,-236.328125,-4.8828125,0.0
1741085961.0661585,-48.33984375,-225.09765625,-232.421875,-43.9453125,0.0
1741085961.0700634,-29.296875,-213.37890625,-236.328125,-31.25,0.0
1741085961.0739682,51.26953125,-190.91796875,-241.69921875,16.11328125,0.0
1741085961.077873,51.7578125,-185.05859375,-250.0,20.5078125,0.0
1741085961.0817778,-14.6484375,-197.75390625,-251.46484375,-27.83203125,0.0
1741085961.0856977,-29.78515625,-201.171875,-244.140625,-55.17578125,0.0
1741085961.0896025,33.69140625,-190.4296875,-244.140625,-9.27734375,0.0
1741085961.0935073,63.4765625,-188.96484375,-255.859375,22.94921875,0.0
1741085961.097412,3.90625,-200.1953125,-252.44140625,-15.13671875,0.0
1741085961.101317,-24.4140625,-200.68359375,-239.74609375,-47.36328125,0.0
1741085961.1052217,43.45703125,-189.94140625,-230.46875,0.9765625,0.0
1741085961.1091266,84.9609375,-182.6171875,-222.16796875,44.43359375,0.0
1741085961.1130314,28.80859375,-181.15234375,-228.02734375,18.06640625,0.0
1741085961.116936,-32.71484375,-174.31640625,-231.93359375,-29.78515625,0.0
1741085961.1208408,-5.37109375,-164.0625,-231.4453125,-20.5078125,0.0
1741085961.1247456,59.08203125,-172.8515625,-227.5390625,36.62109375,0.0
1741085961.1286504,34.1796875,-181.640625,-224.609375,22.4609375,0.0
1741085961.1325705,-44.43359375,-174.8046875,-217.28515625,-30.2734375,0.0
1741085961.136475,-33.69140625,-167.48046875,-214.84375,-27.34375,0.0
1741085961.14038,55.17578125,-173.828125,-208.0078125,25.390625,0.0
1741085961.1442847,68.359375,-170.8984375,-199.70703125,37.59765625,0.0
1741085961.1481895,-9.765625,-174.31640625,-211.42578125,-19.53125,0.0
1741085961.1520944,-28.3203125,-171.875,-209.47265625,-44.921875,0.0
1741085961.1559992,22.94921875,-166.015625,-204.58984375,-5.37109375,0.0
1741085961.159904,48.828125,-168.9453125,-200.1953125,20.5078125,0.0
1741085961.1638088,-9.27734375,-165.52734375,-202.63671875,-19.04296875,0.0
1741085961.1677134,-63.96484375,-168.9453125,-201.171875,-60.05859375,0.0
1741085961.1716182,-27.34375,-167.48046875,-192.3828125,-37.109375,0.0
1741085961.175523,10.25390625,-166.015625,-195.3125,-2.44140625,0.0
1741085961.179443,-29.78515625,-181.15234375,-192.87109375,-26.3671875,0.0
1741085961.1833477,-86.42578125,-199.21875,-196.2890625,-71.2890625,0.0
1741085961.1872525,-74.21875,-183.10546875,-208.0078125,-71.2890625,0.0
1741085961.1911573,-8.30078125,-143.06640625,-199.70703125,-18.06640625,0.0
1741085961.1950622,-20.5078125,-136.71875,-196.77734375,-11.23046875,0.0
1741085961.1989667,-96.6796875,-151.85546875,-199.21875,-68.84765625,0.0
1741085961.2028716,-93.26171875,-173.33984375,-198.2421875,-82.03125,0.0
1741085961.2067764,-36.1328125,-177.24609375,-199.70703125,-40.0390625,0.0
1741085961.2106812,-24.90234375,-168.9453125,-195.3125,-28.3203125,0.0
1741085961.214586,-78.125,-171.875,-192.3828125,-61.5234375,0.0
1741085961.2184908,-95.703125,-182.12890625,-193.359375,-80.078125,0.0
1741085961.2223957,-24.4140625,-177.24609375,-204.58984375,-35.15625,0.0
1741085961.226315,13.18359375,-154.78515625,-197.265625,4.39453125,0.0
1741085961.2302198,-50.78125,-149.4140625,-187.98828125,-32.2265625,0.0
1741085961.2341247,-102.5390625,-155.2734375,-192.3828125,-77.63671875,0.0
1741085961.2380295,-38.57421875,-145.5078125,-186.03515625,-47.36328125,0.0
1741085961.241934,27.34375,-135.25390625,-187.01171875,0.9765625,0.0
1741085961.2458389,0.9765625,-142.578125,-193.84765625,-11.23046875,0.0
1741085961.2497437,-46.875,-146.484375,-191.40625,-53.7109375,0.0
1741085961.2536485,-47.8515625,-145.5078125,-194.3359375,-52.24609375,0.0
1741085961.2575533,21.484375,-149.90234375,-185.546875,18.06640625,0.0
1741085961.2614582,19.04296875,-159.1796875,-178.7109375,25.390625,0.0
1741085961.265363,-55.17578125,-144.53125,-172.8515625,-30.2734375,0.0
1741085961.2692678,-46.875,-124.51171875,-159.66796875,-36.1328125,0.0
1741085961.2731886,30.76171875,-117.67578125,-162.109375,-6.34765625,0.0
1741085961.2770934,59.5703125,-121.09375,-168.9453125,10.7421875,0.0
1741085961.2809982,-0.48828125,-116.69921875,-176.26953125,-13.671875,0.0
1741085961.2849028,-36.62109375,-118.65234375,-171.38671875,-31.25,0.0
1741085961.2888076,15.13671875,-128.90625,-154.78515625,-2.44140625,0.0
1741085961.2927125,62.5,-121.58203125,-139.6484375,30.2734375,0.0
1741085961.2966173,22.94921875,-122.0703125,-133.30078125,5.37109375,0.0
1741085961.300522,-21.484375,-119.140625,-139.6484375,-30.76171875,0.0
1741085961.304427,9.27734375,-120.60546875,-143.06640625,-7.8125,0.0
1741085961.3083317,56.15234375,-113.76953125,-143.06640625,37.59765625,0.0
1741085961.3122365,19.53125,-95.21484375,-135.7421875,21.97265625,0.0
1741085961.3161411,-44.921875,-101.07421875,-141.11328125,-27.34375,0.0
1741085961.320062,-24.90234375,-107.421875,-153.3203125,-21.97265625,0.0
1741085961.3239667,40.52734375,-103.515625,-134.27734375,26.3671875,0.0
1741085961.3278716,30.76171875,-105.46875,-126.46484375,22.4609375,0.0
1741085961.3317764,-54.19921875,-121.58203125,-138.671875,-31.73828125,0.0
1741085961.335681,-73.2421875,-129.8828125,-130.859375,-42.48046875,0.0
1741085961.3395858,5.37109375,-123.53515625,-127.44140625,2.9296875,0.0
1741085961.3434906,25.87890625,-124.51171875,-140.625,12.6953125,0.0
1741085961.3473954,-50.29296875,-119.62890625,-147.4609375,-37.109375,0.0
1741085961.3513002,-82.03125,-121.09375,-150.87890625,-61.5234375,0.0
1741085961.355205,-31.73828125,-122.55859375,-156.25,-37.109375,0.0
1741085961.3591099,9.27734375,-114.2578125,-148.92578125,-12.20703125,0.0
1741085961.3630147,-30.76171875,-124.0234375,-143.06640625,-33.203125,0.0
1741085961.3669353,0.0,-139.16015625,-145.99609375,-73.2421875,0.0
1741085961.3708398,0.0,-137.20703125,-148.4375,-62.01171875,0.0
1741085961.3747447,0.0,-123.046875,-149.90234375,-21.484375,0.0
1741085961.3786495,0.0,-117.1875,-153.3203125,-26.3671875,0.0
1741085961.3825543,0.0,-124.0234375,-158.69140625,-71.77734375,0.0
1741085961.386459,0.0,-134.27734375,-158.203125,-74.70703125,0.0
