timestamps,TP9,AF7,AF8,TP10,Right AUX
1741051000.7574332,-34.66796875,-51.7578125,-34.1796875,-34.66796875,0.0
1741051000.7613387,-20.01953125,-44.43359375,-26.3671875,-36.1328125,0.0
1741051000.7652442,-36.62109375,-33.203125,-24.4140625,-32.2265625,0.0
1741051000.7691495,-43.9453125,-39.55078125,-32.2265625,-29.78515625,0.0
1741051000.773055,-32.71484375,-45.41015625,-40.52734375,-38.57421875,0.0
1741051000.7769606,-20.99609375,-39.55078125,-46.38671875,-46.38671875,0.0
1741051000.7808661,-41.9921875,-42.96875,-43.9453125,-51.7578125,0.0
1741051000.7847717,-59.5703125,-37.109375,-40.0390625,-40.52734375,0.0
1741051000.788677,-45.8984375,-40.0390625,-60.05859375,-39.0625,0.0
1741051000.7925825,-29.78515625,-46.875,-55.6640625,-49.31640625,0.0
1741051000.796488,-24.4140625,-41.50390625,-28.3203125,-39.55078125,0.0
1741051000.8003936,-34.66796875,-33.203125,-20.5078125,-21.484375,0.0
1741051000.8043077,-41.50390625,-38.0859375,-37.59765625,-27.83203125,0.0
1741051000.8082132,-24.4140625,-42.96875,-43.9453125,-41.015625,0.0
1741051000.8121188,-8.7890625,-35.64453125,-34.1796875,-34.66796875,0.0
1741051000.8160243,-26.3671875,-33.69140625,-40.0390625,-25.390625,0.0
1741051000.8199296,-41.015625,-36.1328125,-53.22265625,-27.83203125,0.0
1741051000.8238351,-5.859375,-42.96875,-46.875,-21.484375,0.0
1741051000.8277407,12.20703125,-50.29296875,-36.62109375,-11.71875,0.0
1741051000.8316462,-24.4140625,-50.78125,-48.33984375,-23.4375,0.0
1741051000.8355515,-55.17578125,-51.26953125,-53.22265625,-38.0859375,0.0
1741051000.839457,-43.45703125,-50.78125,-60.546875,-37.109375,0.0
1741051000.8433626,-16.6015625,-47.36328125,-51.7578125,-28.80859375,0.0
1741051000.847268,-27.34375,-42.96875,-43.45703125,-34.66796875,0.0
1741051000.8511817,-57.12890625,-50.29296875,-53.7109375,-39.55078125,0.0
1741051000.8550873,-45.8984375,-45.41015625,-41.50390625,-24.90234375,0.0
1741051000.8589928,-15.625,-40.52734375,-32.2265625,-27.34375,0.0
1741051000.8628983,-29.296875,-44.921875,-43.45703125,-45.8984375,0.0
1741051000.8668036,-63.96484375,-51.26953125,-38.0859375,-41.015625,0.0
1741051000.8707092,-57.12890625,-62.5,-39.55078125,-28.80859375,0.0
1741051000.8746147,-44.43359375,-64.453125,-50.78125,-33.203125,0.0
1741051000.8785203,-49.31640625,-55.6640625,-57.12890625,-45.41015625,0.0
1741051000.8824255,-60.05859375,-45.41015625,-46.875,-42.48046875,0.0
1741051000.886331,-55.6640625,-46.38671875,-32.71484375,-31.25,0.0
1741051000.8902366,-31.25,-54.6875,-31.25,-32.2265625,0.0
1741051000.8941422,-15.625,-40.0390625,-26.3671875,-33.203125,0.0
1741051000.8980606,-26.85546875,-30.76171875,-33.203125,-27.34375,0.0
1741051000.9019659,-43.45703125,-31.25,-41.9921875,-20.5078125,0.0
1741051000.9058714,-44.43359375,-41.9921875,-35.64453125,-28.80859375,0.0
1741051000.909777,-29.78515625,-52.734375,-37.59765625,-39.0625,0.0
1741051000.9136825,-36.1328125,-51.7578125,-33.203125,-35.64453125,0.0
1741051000.917588,-62.01171875,-56.15234375,-36.1328125,-28.3203125,0.0
1741051000.9214933,-48.828125,-48.33984375,-44.921875,-21.97265625,0.0
1741051000.9253988,-16.6015625,-39.0625,-35.64453125,-28.80859375,0.0
1741051000.9293044,-14.6484375,-38.57421875,-32.2265625,-37.59765625,0.0
1741051000.93321,-40.52734375,-41.9921875,-36.62109375,-23.4375,0.0
1741051000.9371152,-40.0390625,-37.109375,-38.57421875,-18.06640625,0.0
1741051000.9410207,-14.16015625,-38.0859375,-41.50390625,-29.78515625,0.0
1741051000.9449384,1.46484375,-33.69140625,-35.64453125,-21.484375,0.0
1741051000.948844,-15.13671875,-22.4609375,-33.69140625,-8.7890625,0.0
1741051000.9527495,-32.71484375,-28.80859375,-45.8984375,-10.7421875,0.0
1741051000.956655,-13.671875,-34.66796875,-47.8515625,-13.671875,0.0
1741051000.9605606,-2.44140625,-39.0625,-45.41015625,-20.01953125,0.0
1741051000.9644659,-31.73828125,-48.828125,-43.9453125,-30.76171875,0.0
1741051000.9683714,-43.9453125,-43.9453125,-27.34375,-23.4375,0.0
1741051000.972277,-18.06640625,-29.78515625,-23.92578125,-11.23046875,0.0
1741051000.9761825,-14.16015625,-39.55078125,-40.0390625,-22.4609375,0.0
1741051000.9800878,-33.203125,-50.29296875,-38.57421875,-25.87890625,0.0
1741051000.9839933,-55.17578125,-40.0390625,-35.15625,-30.76171875,0.0
1741051000.9878988,-48.33984375,-40.0390625,-45.8984375,-39.0625,0.0
1741051000.9918156,-17.578125,-43.9453125,-41.015625,-34.1796875,0.0
1741051000.995721,-5.859375,-39.55078125,-26.85546875,-32.2265625,0.0
1741051000.9996264,-25.87890625,-38.0859375,-25.390625,-27.34375,0.0
1741051001.003532,-36.62109375,-37.109375,-24.90234375,-30.2734375,0.0
1741051001.0074375,-25.390625,-52.734375,-46.875,-42.96875,0.0
1741051001.011343,-27.83203125,-59.08203125,-60.546875,-43.9453125,0.0
1741051001.0152485,-53.7109375,-48.828125,-49.31640625,-46.875,0.0
1741051001.0191538,-63.96484375,-49.31640625,-44.921875,-51.26953125,0.0
1741051001.0230594,-43.9453125,-50.78125,-46.38671875,-44.921875,0.0
1741051001.026965,-34.1796875,-47.8515625,-45.8984375,-46.38671875,0.0
1741051001.0308704,-42.48046875,-43.45703125,-42.96875,-41.9921875,0.0
1741051001.034776,-46.875,-40.52734375,-41.50390625,-30.76171875,0.0
1741051001.0386972,-26.85546875,-43.9453125,-35.15625,-28.80859375,0.0
1741051001.0426028,3.90625,-32.2265625,-22.4609375,-29.296875,0.0
1741051001.046508,-15.625,-35.64453125,-32.2265625,-31.25,0.0
1741051001.0504136,-59.5703125,-49.31640625,-51.26953125,-36.62109375,0.0
1741051001.0543191,-54.6875,-44.921875,-41.9921875,-43.45703125,0.0
1741051001.0582247,-24.90234375,-46.875,-44.43359375,-42.96875,0.0
1741051001.06213,-15.625,-51.7578125,-48.33984375,-33.203125,0.0
1741051001.0660355,-35.15625,-54.19921875,-38.57421875,-26.85546875,0.0
1741051001.069941,-45.41015625,-52.24609375,-37.59765625,-23.4375,0.0
1741051001.0738466,-21.484375,-35.15625,-31.73828125,-17.08984375,0.0
1741051001.077752,1.953125,-37.109375,-33.203125,-10.7421875,0.0
1741051001.0816574,-14.16015625,-37.59765625,-46.38671875,-15.625,0.0
1741051001.085573,-34.66796875,-30.2734375,-44.43359375,-17.578125,0.0
1741051001.0894785,-14.16015625,-39.0625,-31.25,-20.01953125,0.0
1741051001.093384,2.44140625,-40.0390625,-28.3203125,-22.4609375,0.0
1741051001.0972896,-7.8125,-35.15625,-22.94921875,-14.16015625,0.0
1741051001.1011949,-32.71484375,-41.9921875,-28.80859375,-19.53125,0.0
1741051001.1051004,-34.1796875,-46.38671875,-48.828125,-30.2734375,0.0
1741051001.109006,-4.39453125,-43.45703125,-43.45703125,-30.2734375,0.0
1741051001.1129115,-6.8359375,-38.57421875,-30.2734375,-28.80859375,0.0
1741051001.1168168,-42.48046875,-45.41015625,-37.59765625,-42.96875,0.0
1741051001.1207223,-43.45703125,-47.8515625,-36.62109375,-38.57421875,0.0
1741051001.1246278,-20.99609375,-43.45703125,-36.1328125,-34.66796875,0.0
1741051001.1285334,-18.06640625,-48.828125,-51.26953125,-40.52734375,0.0
1741051001.1324487,-41.9921875,-45.41015625,-44.43359375,-39.55078125,0.0
1741051001.1363542,-54.19921875,-37.109375,-30.76171875,-42.48046875,0.0
1741051001.1402595,-26.85546875,-42.48046875,-39.55078125,-41.9921875,0.0
1741051001.144165,-7.8125,-36.62109375,-42.48046875,-37.59765625,0.0
1741051001.1480706,-32.71484375,-31.25,-35.15625,-33.203125,0.0
1741051001.151976,-52.24609375,-36.1328125,-37.59765625,-35.15625,0.0
1741051001.1558816,-32.2265625,-37.109375,-46.38671875,-34.1796875,0.0
1741051001.159787,-26.3671875,-44.921875,-47.36328125,-31.25,0.0
1741051001.1636925,-61.03515625,-55.17578125,-49.31640625,-57.12890625,0.0
1741051001.167598,-84.9609375,-52.734375,-52.24609375,-71.2890625,0.0
1741051001.1715035,-68.359375,-49.31640625,-57.6171875,-64.94140625,0.0
1741051001.1754088,-32.71484375,-51.7578125,-62.5,-62.5,0.0
1741051001.1793232,-20.01953125,-41.015625,-50.29296875,-46.38671875,0.0
1741051001.1832287,-50.78125,-42.96875,-43.45703125,-44.43359375,0.0
1741051001.187134,-65.91796875,-52.24609375,-54.6875,-51.26953125,0.0
1741051001.1910396,-34.1796875,-54.6875,-65.91796875,-64.453125,0.0
1741051001.194945,-26.85546875,-56.640625,-61.5234375,-69.82421875,0.0
1741051001.1988506,-51.7578125,-46.875,-50.78125,-50.78125,0.0
1741051001.2027562,-66.40625,-49.8046875,-53.22265625,-42.96875,0.0
1741051001.2066615,-42.96875,-47.36328125,-54.6875,-43.45703125,0.0
1741051001.210567,-24.4140625,-44.921875,-41.50390625,-54.6875,0.0
1741051001.2144725,-52.734375,-49.8046875,-39.55078125,-57.12890625,0.0
1741051001.218378,-75.1953125,-53.22265625,-46.38671875,-51.7578125,0.0
1741051001.2222834,-56.640625,-57.6171875,-42.48046875,-50.29296875,0.0
1741051001.2261972,-26.85546875,-51.26953125,-35.15625,-44.921875,0.0
1741051001.2301028,-42.96875,-44.43359375,-38.57421875,-43.9453125,0.0
1741051001.234008,-63.4765625,-37.59765625,-40.0390625,-36.1328125,0.0
1741051001.2379136,-43.45703125,-34.66796875,-29.78515625,-18.06640625,0.0
1741051001.2418191,-15.625,-33.203125,-24.90234375,-11.71875,0.0
1741051001.2457247,-13.671875,-40.52734375,-27.34375,-12.20703125,0.0
1741051001.24963,-34.1796875,-55.17578125,-28.3203125,-9.27734375,0.0
1741051001.2535355,-26.85546875,-43.45703125,-33.203125,-7.8125,0.0
1741051001.257441,-0.9765625,-39.55078125,-29.78515625,-10.25390625,0.0
1741051001.2613466,-3.90625,-41.015625,-32.71484375,-18.06640625,0.0
1741051001.265252,-30.76171875,-35.15625,-40.52734375,-21.97265625,0.0
1741051001.2691574,-48.33984375,-36.1328125,-41.50390625,-15.625,0.0
1741051001.2730756,-25.390625,-34.1796875,-38.0859375,-10.7421875,0.0
1741051001.276981,-10.7421875,-44.43359375,-42.96875,-18.5546875,0.0
1741051001.2808864,-35.64453125,-56.640625,-49.31640625,-28.80859375,0.0
1741051001.284792,-59.08203125,-52.734375,-33.69140625,-27.83203125,0.0
1741051001.2886975,-39.55078125,-38.0859375,-28.80859375,-25.390625,0.0
1741051001.292603,-7.8125,-36.62109375,-35.64453125,-26.85546875,0.0
1741051001.2965086,-27.83203125,-41.50390625,-44.43359375,-36.1328125,0.0
1741051001.3004138,-64.94140625,-41.50390625,-48.33984375,-41.9921875,0.0
1741051001.3043194,-63.96484375,-44.43359375,-43.45703125,-42.48046875,0.0
1741051001.308225,-33.69140625,-42.48046875,-42.96875,-41.50390625,0.0
1741051001.3121305,-22.94921875,-41.9921875,-46.38671875,-43.45703125,0.0
1741051001.3160357,-49.8046875,-41.015625,-42.96875,-42.96875,0.0
1741051001.3199534,-62.5,-44.43359375,-41.9921875,-42.48046875,0.0
1741051001.323859,-43.45703125,-47.36328125,-50.29296875,-42.96875,0.0
1741051001.3277645,-25.87890625,-41.015625,-48.33984375,-38.57421875,0.0
1741051001.33167,-40.52734375,-38.57421875,-43.45703125,-41.50390625,0.0
1741051001.3355753,-55.6640625,-39.0625,-43.9453125,-38.57421875,0.0
1741051001.3394809,-38.57421875,-46.875,-48.828125,-41.50390625,0.0
1741051001.3433864,-23.4375,-53.22265625,-58.59375,-52.24609375,0.0
1741051001.347292,-26.85546875,-38.57421875,-49.8046875,-39.0625,0.0
1741051001.3511975,-43.45703125,-40.52734375,-34.66796875,-25.390625,0.0
1741051001.3551028,-40.0390625,-61.5234375,-41.9921875,-31.73828125,0.0
1741051001.3590083,-14.6484375,-49.8046875,-49.31640625,-36.62109375,0.0
1741051001.3629138,-19.04296875,-37.59765625,-46.875,-35.15625,0.0
1741051001.3668306,-51.7578125,-48.33984375,-44.43359375,-36.1328125,0.0
1741051001.3707361,-48.33984375,-38.0859375,-36.62109375,-29.296875,0.0
1741051001.3746414,-28.80859375,-27.34375,-29.296875,-33.69140625,0.0
1741051001.378547,-28.80859375,-41.9921875,-41.015625,-38.57421875,0.0
1741051001.3824525,-47.36328125,-47.36328125,-48.33984375,-33.69140625,0.0
1741051001.386358,-56.640625,-49.31640625,-51.7578125,-35.15625,0.0
1741051001.3902633,-25.87890625,-47.8515625,-51.26953125,-29.78515625,0.0
1741051001.3941689,-1.46484375,-48.33984375,-46.875,-20.99609375,0.0
1741051001.3980744,-16.6015625,-51.26953125,-38.57421875,-20.5078125,0.0
1741051001.40198,-41.9921875,-41.9921875,-32.71484375,-16.11328125,0.0
1741051001.4058855,-16.6015625,-29.78515625,-23.92578125,-10.25390625,0.0
1741051001.4097908,3.41796875,-43.45703125,-32.71484375,-24.90234375,0.0
1741051001.413707,-22.94921875,-66.89453125,-50.29296875,-37.59765625,0.0
1741051001.4176126,-38.57421875,-55.6640625,-43.45703125,-24.90234375,0.0
1741051001.421518,-24.90234375,-43.45703125,-33.203125,-19.04296875,0.0
1741051001.4254234,0.48828125,-41.50390625,-33.69140625,-17.578125,0.0
1741051001.429329,1.46484375,-37.109375,-31.25,-16.11328125,0.0
1741051001.4332345,-25.390625,-45.8984375,-34.1796875,-17.578125,0.0
1741051001.43714,-34.1796875,-54.19921875,-45.8984375,-22.4609375,0.0
1741051001.4410455,-14.16015625,-48.33984375,-46.875,-23.92578125,0.0
1741051001.4449508,-5.37109375,-39.55078125,-49.8046875,-19.04296875,0.0
1741051001.4488564,-33.203125,-38.0859375,-53.7109375,-26.3671875,0.0
1741051001.452762,-55.17578125,-42.96875,-47.8515625,-38.57421875,0.0
1741051001.4566674,-28.3203125,-40.0390625,-47.36328125,-33.69140625,0.0
1741051001.460583,-11.71875,-36.1328125,-50.29296875,-44.43359375,0.0
1741051001.4644885,-39.0625,-39.55078125,-48.33984375,-51.26953125,0.0
1741051001.4683938,-50.29296875,-42.96875,-40.52734375,-33.69140625,0.0
1741051001.4722993,-41.015625,-48.828125,-47.36328125,-40.52734375,0.0
1741051001.4762049,-21.484375,-47.36328125,-47.8515625,-48.828125,0.0
1741051001.4801104,-24.90234375,-40.0390625,-46.38671875,-38.57421875,0.0
1741051001.484016,-59.08203125,-39.55078125,-60.05859375,-44.43359375,0.0
1741051001.4879212,-50.78125,-40.0390625,-51.26953125,-42.48046875,0.0
1741051001.4918268,-21.97265625,-43.9453125,-41.015625,-45.41015625,0.0
1741051001.4957323,-27.83203125,-36.62109375,-40.0390625,-48.828125,0.0
1741051001.4996378,-51.7578125,-39.55078125,-40.52734375,-39.55078125,0.0
1741051001.5035431,-44.921875,-46.875,-40.52734375,-22.94921875,0.0
1741051001.5074584,-9.27734375,-41.015625,-43.45703125,-22.94921875,0.0
1741051001.511364,-20.5078125,-42.48046875,-41.50390625,-45.41015625,0.0
1741051001.5152695,-49.8046875,-55.17578125,-44.43359375,-36.62109375,0.0
1741051001.519175,-41.50390625,-54.19921875,-45.8984375,-18.06640625,0.0
1741051001.5230806,-7.32421875,-52.734375,-35.15625,-14.16015625,0.0
1741051001.526986,19.04296875,-55.17578125,-34.66796875,-9.27734375,0.0
1741051001.5308914,7.8125,-52.734375,-35.15625,4.8828125,0.0
1741051001.534797,-19.04296875,-58.59375,-32.71484375,6.8359375,0.0
1741051001.5387025,-2.9296875,-48.828125,-36.1328125,-0.9765625,0.0
1741051001.5426078,45.41015625,-46.875,-34.1796875,8.7890625,0.0
1741051001.5465133,34.66796875,-48.828125,-33.69140625,13.18359375,0.0
1741051001.5504189,3.41796875,-46.875,-29.296875,11.23046875,0.0
1741051001.554333,6.8359375,-48.33984375,-28.80859375,8.30078125,0.0
1741051001.5582385,31.73828125,-45.41015625,-32.71484375,14.16015625,0.0
1741051001.562144,38.57421875,-42.96875,-34.66796875,23.4375,0.0
1741051001.5660496,19.04296875,-44.43359375,-37.59765625,29.296875,0.0
1741051001.5699549,3.41796875,-45.8984375,-39.0625,31.73828125,0.0
1741051001.5738604,23.4375,-42.48046875,-36.62109375,35.64453125,0.0
1741051001.577766,48.828125,-40.0390625,-36.1328125,30.2734375,0.0
1741051001.5816715,18.5546875,-41.9921875,-35.64453125,22.94921875,0.0
1741051001.585577,-13.671875,-41.9921875,-37.59765625,19.04296875,0.0
1741051001.5894823,6.34765625,-39.55078125,-36.62109375,13.18359375,0.0
1741051001.5933878,30.76171875,-40.0390625,-29.296875,15.625,0.0
1741051001.5972934,2.9296875,-37.59765625,-31.73828125,8.30078125,0.0
1741051001.601207,-29.78515625,-40.0390625,-41.015625,-8.30078125,0.0
1741051001.6051126,-20.99609375,-47.36328125,-38.57421875,-6.8359375,0.0
1741051001.6090178,3.41796875,-46.875,-40.0390625,-11.71875,0.0
1741051001.6129234,-2.9296875,-42.96875,-57.12890625,-25.87890625,0.0
1741051001.616829,-25.390625,-36.62109375,-50.29296875,-17.08984375,0.0
1741051001.6207345,-32.2265625,-41.9921875,-41.9921875,-16.11328125,0.0
1741051001.62464,-13.18359375,-44.921875,-47.8515625,-23.4375,0.0
1741051001.6285453,-2.9296875,-38.0859375,-44.43359375,-24.90234375,0.0
1741051001.6324508,-33.203125,-53.7109375,-52.24609375,-28.3203125,0.0
1741051001.6363564,-50.78125,-60.546875,-59.5703125,-33.203125,0.0
1741051001.640262,-26.85546875,-55.6640625,-51.26953125,-38.57421875,0.0
1741051001.6441672,-11.71875,-55.6640625,-56.640625,-48.828125,0.0
1741051001.6480854,-28.3203125,-49.31640625,-57.6171875,-48.33984375,0.0
1741051001.651991,-44.921875,-50.78125,-52.734375,-45.41015625,0.0
1741051001.6558962,-25.390625,-52.24609375,-58.59375,-44.921875,0.0
1741051001.6598017,-11.23046875,-48.828125,-62.5,-47.36328125,0.0
1741051001.6637073,-18.06640625,-46.38671875,-55.17578125,-43.9453125,0.0
1741051001.6676128,-30.2734375,-46.38671875,-56.640625,-23.4375,0.0
1741051001.671518,-29.78515625,-46.38671875,-67.3828125,-24.4140625,0.0
1741051001.6754236,-2.9296875,-44.921875,-61.5234375,-30.2734375,0.0
1741051001.6793292,-0.48828125,-44.921875,-50.29296875,-20.01953125,0.0
1741051001.6832347,-29.296875,-47.36328125,-43.45703125,-8.30078125,0.0
1741051001.6871402,-33.203125,-42.48046875,-48.33984375,-6.8359375,0.0
1741051001.6910455,-0.9765625,-34.1796875,-44.921875,-5.859375,0.0
1741051001.6949635,9.27734375,-34.66796875,-26.3671875,-6.8359375,0.0
1741051001.698869,-20.01953125,-36.62109375,-31.25,-6.34765625,0.0
1741051001.7027743,-34.66796875,-34.66796875,-37.59765625,0.0,0.0
1741051001.7066798,-14.6484375,-27.83203125,-26.85546875,1.953125,0.0
1741051001.7105854,16.11328125,-20.5078125,-24.4140625,9.765625,0.0
1741051001.714491,-2.9296875,-31.73828125,-36.1328125,0.48828125,0.0
1741051001.7183964,-40.0390625,-42.48046875,-35.64453125,-8.30078125,0.0
1741051001.7223017,-13.671875,-34.66796875,-15.625,6.8359375,0.0
1741051001.7262073,11.71875,-29.78515625,-22.94921875,-1.953125,0.0
1741051001.7301128,-4.8828125,-36.62109375,-39.0625,-18.5546875,0.0
1741051001.7340183,-26.3671875,-39.55078125,-39.55078125,-18.5546875,0.0
1741051001.7379239,-20.01953125,-35.15625,-44.43359375,-9.765625,0.0
1741051001.7418406,14.16015625,-32.71484375,-49.31640625,-11.23046875,0.0
1741051001.745746,11.71875,-24.90234375,-46.875,-24.4140625,0.0
1741051001.7496514,-16.6015625,-25.87890625,-43.9453125,-15.13671875,0.0
1741051001.753557,-21.97265625,-32.2265625,-45.8984375,-10.25390625,0.0
1741051001.7574625,5.859375,-27.34375,-40.52734375,-19.53125,0.0
1741051001.761368,16.6015625,-31.73828125,-30.2734375,-25.87890625,0.0
1741051001.7652733,-20.01953125,-44.43359375,-34.1796875,-38.0859375,0.0
1741051001.7691789,-41.50390625,-40.0390625,-46.38671875,-36.1328125,0.0
1741051001.7730844,-15.13671875,-37.109375,-38.57421875,-19.04296875,0.0
1741051001.77699,14.16015625,-32.2265625,-37.109375,-28.3203125,0.0
1741051001.7808955,-9.27734375,-30.2734375,-35.15625,-40.0390625,0.0
1741051001.7848008,-37.59765625,-31.25,-26.3671875,-29.78515625,0.0
1741051001.788717,-30.2734375,-37.109375,-37.59765625,-26.85546875,0.0
1741051001.7926226,-11.23046875,-34.1796875,-40.52734375,-28.80859375,0.0
1741051001.796528,-25.87890625,-37.109375,-46.38671875,-43.9453125,0.0
1741051001.8004336,-54.19921875,-44.921875,-55.6640625,-48.33984375,0.0
1741051001.804339,-49.31640625,-43.9453125,-43.45703125,-37.59765625,0.0
1741051001.8082445,-28.80859375,-51.26953125,-44.43359375,-45.8984375,0.0
1741051001.81215,-32.71484375,-55.6640625,-55.17578125,-60.05859375,0.0
1741051001.8160555,-60.05859375,-56.640625,-56.15234375,-60.05859375,0.0
1741051001.819961,-59.5703125,-64.94140625,-55.6640625,-44.921875,0.0
1741051001.8238664,-30.2734375,-60.05859375,-65.91796875,-44.43359375,0.0
1741051001.827772,-3.41796875,-43.45703125,-54.6875,-40.0390625,0.0
1741051001.8316774,-22.94921875,-47.8515625,-42.48046875,-33.203125,0.0
1741051001.835593,-41.50390625,-46.38671875,-52.734375,-35.64453125,0.0
1741051001.8394985,-17.08984375,-40.52734375,-51.7578125,-32.2265625,0.0
1741051001.843404,6.8359375,-35.64453125,-43.45703125,-24.90234375,0.0
1741051001.8473096,0.0,-29.78515625,-41.015625,-15.13671875,0.0
1741051001.851215,-34.66796875,-40.52734375,-51.26953125,-22.94921875,0.0
1741051001.8551204,-30.2734375,-49.31640625,-50.29296875,-18.5546875,0.0
1741051001.859026,-4.39453125,-43.45703125,-42.96875,-8.30078125,0.0
1741051001.8629315,-5.859375,-43.45703125,-46.875,-3.90625,0.0
1741051001.8668368,-25.390625,-33.203125,-46.38671875,1.953125,0.0
1741051001.8707423,-38.0859375,-28.80859375,-53.7109375,-7.8125,0.0
1741051001.8746479,-13.671875,-30.76171875,-36.1328125,-3.90625,0.0
1741051001.8785534,-6.8359375,-35.64453125,-23.92578125,-10.25390625,0.0
1741051001.8824735,-37.109375,-40.52734375,-34.1796875,-24.90234375,0.0
1741051001.886379,-41.9921875,-41.9921875,-30.2734375,-16.6015625,0.0
1741051001.8902845,-20.99609375,-42.96875,-29.296875,-14.16015625,0.0
1741051001.8941898,-4.8828125,-38.57421875,-31.73828125,-21.484375,0.0
1741051001.8980954,-22.4609375,-43.45703125,-43.45703125,-24.90234375,0.0
1741051001.902001,-41.50390625,-46.38671875,-46.875,-23.4375,0.0
1741051001.9059064,-21.97265625,-51.7578125,-36.62109375,-17.08984375,0.0
1741051001.909812,8.30078125,-49.8046875,-43.9453125,-11.71875,0.0
1741051001.9137173,-2.44140625,-40.0390625,-58.59375,-16.11328125,0.0
1741051001.9176228,-23.92578125,-37.109375,-51.26953125,-6.8359375,0.0
1741051001.9215283,-2.44140625,-36.1328125,-61.5234375,12.6953125,0.0
1741051001.9254339,-2.44140625,-59.08203125,-77.63671875,-16.11328125,0.0
1741051001.929348,-17.08984375,-84.9609375,-52.24609375,-35.64453125,0.0
1741051001.9332535,-33.203125,-56.640625,-55.17578125,-32.71484375,0.0
1741051001.937159,-18.5546875,-23.4375,-10.25390625,-13.18359375,0.0
1741051001.9410644,28.80859375,-51.26953125,-39.0625,-0.9765625,0.0
1741051001.94497,60.05859375,-95.21484375,-293.45703125,4.8828125,0.0
1741051001.9488754,43.45703125,-31.73828125,-53.7109375,9.765625,0.0
1741051001.952781,-66.40625,-26.85546875,83.49609375,-71.77734375,0.0
1741051001.9566863,-71.2890625,-68.84765625,-139.16015625,-101.5625,0.0
1741051001.9605918,-46.875,-105.95703125,-66.40625,-88.37890625,0.0
1741051001.9644973,-25.390625,-84.9609375,-42.48046875,-31.73828125,0.0
1741051001.9684029,53.7109375,-85.9375,-62.98828125,49.8046875,0.0
1741051001.9723084,60.05859375,-56.15234375,-55.17578125,42.96875,0.0
1741051001.976222,31.73828125,-4.39453125,-29.78515625,14.6484375,0.0
1741051001.9801276,25.390625,-29.78515625,28.3203125,0.0,0.0
1741051001.9840329,32.2265625,-90.33203125,-66.89453125,10.7421875,0.0
1741051001.9879384,90.33203125,-62.5,-239.2578125,21.97265625,0.0
1741051001.991844,313.96484375,-113.28125,-63.96484375,201.171875,0.0
1741051001.9957495,358.88671875,-210.9375,324.21875,243.65234375,0.0
1741051001.999655,249.0234375,69.82421875,344.7265625,128.90625,0.0
1741051002.0035603,343.26171875,230.46875,387.6953125,152.83203125,0.0
1741051002.0074658,259.27734375,51.26953125,349.12109375,-2.9296875,0.0
1741051002.0113714,264.6484375,-72.75390625,371.58203125,-28.80859375,0.0
1741051002.015277,336.9140625,65.91796875,730.95703125,85.44921875,0.0
1741051002.0191824,244.62890625,103.515625,845.21484375,26.3671875,0.0
1741051002.0231009,0.0,48.828125,888.18359375,74.21875,0.0
1741051002.0270061,0.0,181.640625,964.35546875,100.09765625,0.0
1741051002.0309117,0.0,266.11328125,972.65625,98.6328125,0.0
1741051002.0348172,0.0,291.9921875,967.28515625,131.8359375,0.0
1741051002.0387228,0.0,358.88671875,970.703125,-62.98828125,0.0
1741051002.042628,0.0,353.515625,969.7265625,-137.20703125,0.0
1741051002.0465336,0.0,320.3125,969.7265625,-32.2265625,0.0
1741051002.0504391,0.0,324.70703125,969.7265625,-73.73046875,0.0
1741051002.0543447,0.0,447.265625,969.7265625,-107.91015625,0.0
1741051002.0582502,0.0,638.671875,969.7265625,-33.69140625,0.0
1741051002.0621555,0.0,833.49609375,969.7265625,-239.2578125,0.0
1741051002.066061,0.0,786.1328125,970.21484375,-574.21875,0.0
1741051002.0699785,-91.796875,837.890625,970.21484375,-633.30078125,0.0
1741051002.073884,-27.83203125,987.3046875,970.21484375,-586.9140625,0.0
1741051002.0777895,28.80859375,965.33203125,969.7265625,-485.3515625,0.0
1741051002.0816948,45.8984375,968.26171875,969.7265625,-439.94140625,0.0
1741051002.0856004,-95.21484375,970.21484375,970.21484375,-502.9296875,0.0
1741051002.089506,-206.0546875,969.7265625,970.21484375,-553.22265625,0.0
1741051002.0934114,-158.203125,970.21484375,969.7265625,-507.32421875,0.0
1741051002.097317,-124.51171875,969.7265625,969.7265625,-439.453125,0.0
1741051002.1012223,-166.015625,969.7265625,970.21484375,-418.9453125,0.0
1741051002.1051278,-209.9609375,970.21484375,969.7265625,-455.078125,0.0
1741051002.1090333,-366.69921875,970.21484375,969.7265625,-631.34765625,0.0
1741051002.112939,-377.44140625,969.7265625,970.21484375,-608.3984375,0.0
1741051002.1168556,-327.63671875,969.7265625,969.7265625,-503.90625,0.0
1741051002.1207612,-367.1875,970.21484375,969.7265625,-524.4140625,0.0
1741051002.1246667,-298.828125,970.21484375,970.21484375,-463.8671875,0.0
1741051002.128572,-235.3515625,969.7265625,970.21484375,-391.11328125,0.0
1741051002.1324775,-260.25390625,969.7265625,969.7265625,-356.93359375,0.0
1741051002.136383,-280.76171875,969.7265625,970.21484375,-329.1015625,0.0
1741051002.1402886,-253.41796875,969.7265625,969.7265625,-295.8984375,0.0
1741051002.1441941,-199.70703125,969.7265625,969.7265625,-218.75,0.0
1741051002.1480994,-169.921875,969.7265625,970.21484375,-147.94921875,0.0
1741051002.152005,-145.5078125,969.7265625,969.7265625,-92.28515625,0.0
1741051002.1559105,-89.35546875,970.703125,969.7265625,-30.76171875,0.0
1741051002.159816,-13.18359375,967.7734375,969.7265625,31.25,0.0
1741051002.1637323,26.85546875,969.7265625,969.7265625,79.58984375,0.0
1741051002.1676376,33.69140625,967.28515625,970.21484375,128.41796875,0.0
1741051002.1715431,51.7578125,871.09375,969.7265625,173.33984375,0.0
1741051002.1754487,66.40625,738.28125,969.7265625,202.1484375,0.0
1741051002.1793542,29.78515625,642.08984375,970.21484375,222.16796875,0.0
1741051002.1832595,-40.0390625,558.59375,970.703125,242.1875,0.0
1741051002.187165,-111.328125,498.046875,968.26171875,252.44140625,0.0
1741051002.1910706,-193.84765625,431.640625,968.75,247.0703125,0.0
1741051002.194976,-301.26953125,354.00390625,968.26171875,238.76953125,0.0
1741051002.1988816,-455.078125,294.43359375,883.30078125,197.75390625,0.0
1741051002.202787,-628.90625,243.1640625,744.140625,145.01953125,0.0
1741051002.2066925,-756.8359375,200.68359375,634.765625,103.02734375,0.0
1741051002.2106085,-838.37890625,154.296875,536.1328125,71.2890625,0.0
1741051002.214514,-926.26953125,115.234375,451.66015625,22.94921875,0.0
1741051002.2184193,-990.234375,83.984375,368.1640625,-10.7421875,0.0
1741051002.2223248,-1000.0,47.8515625,283.69140625,-23.92578125,0.0
1741051002.2262304,-990.72265625,22.4609375,216.30859375,-37.109375,0.0
1741051002.230136,-967.28515625,-8.7890625,141.6015625,-50.29296875,0.0
1741051002.2340415,-937.01171875,-38.0859375,74.21875,-62.5,0.0
1741051002.2379467,-871.09375,-62.01171875,7.32421875,-70.80078125,0.0
1741051002.2418523,-795.41015625,-86.9140625,-67.87109375,-88.8671875,0.0
1741051002.2457578,-746.09375,-114.74609375,-138.18359375,-110.83984375,0.0
1741051002.2496634,-734.375,-144.04296875,-206.54296875,-131.8359375,0.0
1741051002.253569,-744.62890625,-177.24609375,-275.87890625,-170.41015625,0.0
1741051002.257484,-721.6796875,-214.35546875,-348.6328125,-215.33203125,0.0
1741051002.2613895,-698.73046875,-253.90625,-419.921875,-239.2578125,0.0
1741051002.265295,-724.12109375,-264.6484375,-469.7265625,-239.2578125,0.0
1741051002.2692006,-735.3515625,-267.578125,-501.953125,-246.09375,0.0
1741051002.273106,-708.49609375,-291.50390625,-556.640625,-296.875,0.0
1741051002.2770114,-650.390625,-314.453125,-616.69921875,-306.640625,0.0
1741051002.280917,-624.51171875,-327.1484375,-658.203125,-281.73828125,0.0
1741051002.2848225,-607.91015625,-339.84375,-681.15234375,-269.04296875,0.0
1741051002.288728,-544.921875,-351.07421875,-704.58984375,-256.34765625,0.0
1741051002.2926335,-475.5859375,-356.4453125,-734.375,-231.93359375,0.0
1741051002.2965388,-402.83203125,-355.46875,-744.140625,-188.96484375,0.0
1741051002.3004444,-356.93359375,-354.00390625,-758.7890625,-162.109375,0.0
1741051002.3043637,-328.61328125,-366.69921875,-792.48046875,-156.25,0.0
1741051002.308269,-252.9296875,-364.2578125,-805.17578125,-127.9296875,0.0
1741051002.3121746,-186.5234375,-369.140625,-808.59375,-104.00390625,0.0
1741051002.31608,-169.921875,-386.23046875,-821.77734375,-85.44921875,0.0
1741051002.3199856,-131.8359375,-377.9296875,-832.03125,-61.03515625,0.0
1741051002.3238912,-48.828125,-359.86328125,-834.47265625,-27.34375,0.0
1741051002.3277965,20.99609375,-367.67578125,-839.84375,-2.44140625,0.0
1741051002.331702,30.2734375,-377.9296875,-845.703125,-2.44140625,0.0
1741051002.3356075,36.1328125,-377.9296875,-854.4921875,21.97265625,0.0
1741051002.339513,106.93359375,-357.91015625,-826.171875,69.3359375,0.0
1741051002.3434186,150.87890625,-379.8828125,-824.21875,65.4296875,0.0
1741051002.347324,154.296875,-393.06640625,-842.7734375,66.89453125,0.0
1741051002.3512378,0.0,-368.1640625,-830.56640625,87.40234375,0.0
1741051002.3551433,0.0,-370.60546875,-828.125,89.84375,0.0
1741051002.3590488,0.0,-379.8828125,-840.8203125,81.54296875,0.0
1741051002.3629544,0.0,-360.3515625,-830.078125,76.66015625,0.0
1741051002.36686,0.0,-352.5390625,-815.4296875,78.61328125,0.0
1741051002.3707652,0.0,-355.95703125,-810.546875,87.40234375,0.0
1741051002.3746707,0.0,-356.93359375,-818.84765625,83.0078125,0.0
1741051002.3785763,0.0,-367.67578125,-832.51953125,60.05859375,0.0
1741051002.3824818,0.0,-364.2578125,-829.1015625,52.24609375,0.0
1741051002.3863873,0.0,-360.83984375,-815.91796875,58.10546875,0.0
1741051002.3902926,0.0,-375.0,-796.38671875,59.08203125,0.0
1741051002.3941982,0.0,-373.53515625,-788.0859375,56.15234375,0.0
1741051002.3981164,171.875,-356.4453125,-778.80859375,55.6640625,0.0
1741051002.402022,134.27734375,-366.2109375,-783.69140625,53.22265625,0.0
1741051002.4059274,135.25390625,-374.51171875,-789.0625,47.8515625,0.0
1741051002.409833,157.71484375,-363.76953125,-776.3671875,39.0625,0.0
1741051002.4137385,140.625,-356.93359375,-758.7890625,36.1328125,0.0
1741051002.4176438,120.1171875,-343.75,-754.8828125,38.57421875,0.0
1741051002.4215493,95.703125,-360.3515625,-749.51171875,18.5546875,0.0
1741051002.4254549,100.5859375,-376.46484375,-744.62890625,-3.41796875,0.0
1741051002.4293604,85.44921875,-358.3984375,-752.9296875,-10.7421875,0.0
1741051002.433266,25.87890625,-352.05078125,-736.328125,-4.39453125,0.0
1741051002.4371712,2.44140625,-354.00390625,-720.21484375,-16.11328125,0.0
1741051002.4410768,25.390625,-348.6328125,-717.28515625,-26.85546875,0.0
1741051002.4449944,32.2265625,-342.7734375,-709.9609375,-20.99609375,0.0
1741051002.4489,8.30078125,-340.33203125,-703.125,-28.80859375,0.0
1741051002.4528055,-14.16015625,-338.8671875,-699.70703125,-32.71484375,0.0
1741051002.456711,9.27734375,-333.984375,-689.453125,-34.66796875,0.0
1741051002.4606166,34.66796875,-323.2421875,-674.8046875,-28.3203125,0.0
1741051002.464522,18.5546875,-314.94140625,-665.0390625,-23.92578125,0.0
1741051002.4684274,0.0,-315.91796875,-653.3203125,-26.3671875,0.0
1741051002.472333,7.32421875,-305.6640625,-633.30078125,-19.53125,0.0
1741051002.4762385,33.203125,-306.640625,-615.72265625,-11.71875,0.0
1741051002.480144,36.1328125,-302.24609375,-612.79296875,-8.7890625,0.0
1741051002.4840493,-2.44140625,-298.33984375,-620.1171875,-20.01953125,0.0
1741051002.4879549,-2.9296875,-301.7578125,-600.5859375,-27.83203125,0.0
1741051002.4918716,44.921875,-288.0859375,-581.54296875,-15.625,0.0
1741051002.4957771,60.546875,-278.3203125,-577.1484375,-15.625,0.0
1741051002.4996824,26.3671875,-277.34375,-560.546875,-7.8125,0.0
1741051002.503588,14.6484375,-269.53125,-546.38671875,5.859375,0.0
1741051002.5074935,49.8046875,-260.7421875,-528.3203125,9.27734375,0.0
1741051002.511399,68.84765625,-250.48828125,-507.8125,11.71875,0.0
1741051002.5153046,46.38671875,-250.48828125,-503.41796875,0.9765625,0.0
1741051002.5192099,24.4140625,-253.41796875,-509.765625,-5.859375,0.0
1741051002.5231154,29.78515625,-252.9296875,-509.765625,-1.46484375,0.0
1741051002.527021,50.29296875,-251.46484375,-502.9296875,-15.625,0.0
1741051002.5309265,38.0859375,-250.48828125,-493.65234375,-29.296875,0.0
1741051002.534832,-0.9765625,-255.37109375,-490.72265625,-21.97265625,0.0
1741051002.538748,3.41796875,-250.9765625,-483.88671875,-17.578125,0.0
1741051002.5426536,22.4609375,-250.0,-482.91015625,-22.4609375,0.0
1741051002.546559,20.5078125,-249.0234375,-475.5859375,-24.4140625,0.0
1741051002.5504646,1.46484375,-236.328125,-457.03125,-18.5546875,0.0
1741051002.55437,-3.90625,-229.4921875,-453.125,-9.27734375,0.0
1741051002.5582755,21.484375,-223.6328125,-446.2890625,-6.34765625,0.0
1741051002.562181,29.78515625,-221.19140625,-433.10546875,-3.90625,0.0
1741051002.5660865,-1.46484375,-229.98046875,-434.08203125,-0.48828125,0.0
1741051002.569992,-15.625,-235.3515625,-432.6171875,-4.8828125,0.0
1741051002.5738974,-3.90625,-229.4921875,-433.10546875,-26.3671875,0.0
1741051002.577803,4.8828125,-223.6328125,-433.10546875,-37.109375,0.0
1741051002.5817084,-18.5546875,-227.5390625,-430.6640625,-39.0625,0.0
1741051002.585624,-59.5703125,-238.28125,-445.3125,-56.640625,0.0
1741051002.5895295,-70.3125,-246.58203125,-447.75390625,-76.171875,0.0
1741051002.5934348,-55.17578125,-246.58203125,-442.87109375,-87.890625,0.0
1741051002.5973403,-64.94140625,-241.2109375,-441.89453125,-86.9140625,0.0
1741051002.6012459,-95.21484375,-236.81640625,-450.1953125,-86.9140625,0.0
1741051002.6051514,-86.42578125,-239.2578125,-444.3359375,-93.75,0.0
1741051002.6090567,-64.94140625,-240.234375,-445.80078125,-97.16796875,0.0
1741051002.6129622,-58.59375,-230.95703125,-445.3125,-95.21484375,0.0
1741051002.6168678,-90.33203125,-229.4921875,-437.5,-89.84375,0.0
1741051002.6207733,-104.4921875,-229.00390625,-432.6171875,-83.984375,0.0
1741051002.6246789,-72.265625,-223.14453125,-424.8046875,-80.078125,0.0
1741051002.6285841,-55.6640625,-220.703125,-420.8984375,-71.2890625,0.0
1741051002.6324992,-79.58984375,-223.6328125,-431.640625,-71.2890625,0.0
1741051002.6364048,-77.63671875,-225.5859375,-445.80078125,-86.9140625,0.0
1741051002.64031,-41.9921875,-221.6796875,-440.4296875,-68.359375,0.0
1741051002.6442156,-36.62109375,-220.703125,-428.22265625,-66.89453125,0.0
1741051002.648121,-56.15234375,-214.84375,-424.31640625,-71.2890625,0.0
1741051002.6520267,-58.10546875,-216.30859375,-410.15625,-57.12890625,0.0
1741051002.6559322,-21.97265625,-206.54296875,-404.296875,-45.8984375,0.0
1741051002.6598375,9.27734375,-201.66015625,-411.1328125,-45.41015625,0.0
1741051002.663743,-2.44140625,-201.66015625,-402.34375,-57.12890625,0.0
1741051002.6676486,-29.296875,-202.1484375,-393.06640625,-44.43359375,0.0
1741051002.671554,-25.390625,-207.03125,-377.9296875,-36.1328125,0.0
1741051002.6754596,2.9296875,-203.61328125,-373.53515625,-44.921875,0.0
1741051002.6793737,7.32421875,-204.1015625,-375.0,-42.48046875,0.0
1741051002.683279,-26.85546875,-208.0078125,-375.48828125,-39.0625,0.0
1741051002.6871846,-51.7578125,-218.75,-389.16015625,-57.12890625,0.0
1741051002.69109,-31.25,-224.12109375,-392.08984375,-74.21875,0.0
1741051002.6949956,-17.08984375,-218.26171875,-377.9296875,-70.80078125,0.0
1741051002.6989012,-44.921875,-218.75,-379.8828125,-70.3125,0.0
1741051002.7028065,-69.3359375,-217.7734375,-376.46484375,-61.5234375,0.0
1741051002.706712,-62.01171875,-216.796875,-375.9765625,-62.01171875,0.0
1741051002.7106175,-42.48046875,-212.890625,-370.60546875,-73.73046875,0.0
1741051002.714523,-42.96875,-208.0078125,-364.2578125,-66.89453125,0.0
1741051002.7184286,-69.82421875,-208.984375,-360.3515625,-63.96484375,0.0
1741051002.722334,-65.4296875,-207.03125,-362.79296875,-66.89453125,0.0
1741051002.7262478,-37.59765625,-197.75390625,-365.72265625,-72.265625,0.0
1741051002.7301533,-41.9921875,-194.3359375,-351.5625,-69.82421875,0.0
1741051002.7340589,-79.1015625,-210.44921875,-341.796875,-77.1484375,0.0
1741051002.7379644,-86.42578125,-217.28515625,-337.890625,-85.9375,0.0
1741051002.7418697,-70.3125,-216.30859375,-350.5859375,-95.21484375,0.0
1741051002.7457752,-85.9375,-213.37890625,-361.328125,-105.95703125,0.0
1741051002.7496808,-118.1640625,-205.078125,-347.65625,-105.46875,0.0
1741051002.7535863,-129.8828125,-205.56640625,-342.28515625,-120.1171875,0.0
1741051002.7574918,-109.86328125,-207.51953125,-348.6328125,-121.09375,0.0
1741051002.7613971,-114.74609375,-209.9609375,-354.00390625,-127.9296875,0.0
1741051002.7653027,-139.6484375,-208.0078125,-345.703125,-138.18359375,0.0
1741051002.7692082,-145.99609375,-200.1953125,-335.9375,-127.44140625,0.0
1741051002.7731266,0.0,-210.44921875,-349.12109375,-135.25390625,0.0
1741051002.7770321,0.0,-212.40234375,-347.65625,-143.06640625,0.0
1741051002.7809377,0.0,-204.58984375,-329.1015625,-129.39453125,0.0
1741051002.7848432,0.0,-201.171875,-324.21875,-109.375,0.0
1741051002.7887487,0.0,-205.56640625,-325.68359375,-102.05078125,0.0
1741051002.792654,0.0,-203.61328125,-315.4296875,-94.7265625,0.0
1741051002.7965596,0.0,-200.1953125,-308.59375,-104.98046875,0.0
1741051002.800465,0.0,-199.21875,-304.19921875,-105.46875,0.0
1741051002.8043706,0.0,-196.77734375,-301.26953125,-85.9375,0.0
1741051002.8082762,0.0,-196.2890625,-296.38671875,-67.87109375,0.0
1741051002.8121815,0.0,-181.640625,-286.1328125,-62.98828125,0.0
1741051002.816087,0.0,-180.6640625,-280.2734375,-65.4296875,0.0
1741051002.8199909,-150.87890625,-188.4765625,-281.73828125,-57.6171875,0.0
1741051002.8238964,-132.32421875,-178.7109375,-262.20703125,-46.38671875,0.0
1741051002.827802,-127.44140625,-177.734375,-255.37109375,-59.5703125,0.0
1741051002.8317075,-134.765625,-183.10546875,-266.11328125,-68.84765625,0.0
1741051002.835613,-123.53515625,-179.19921875,-258.30078125,-61.03515625,0.0
1741051002.8395183,-95.21484375,-173.33984375,-250.9765625,-49.8046875,0.0
1741051002.8434238,-81.0546875,-169.921875,-253.41796875,-58.59375,0.0
1741051002.8473294,-106.4453125,-174.8046875,-260.25390625,-80.078125,0.0
1741051002.851235,-116.69921875,-175.29296875,-263.18359375,-80.078125,0.0
1741051002.8551402,-71.77734375,-174.31640625,-256.34765625,-74.70703125,0.0
1741051002.8590457,-43.45703125,-175.78125,-252.44140625,-73.73046875,0.0
1741051002.8629513,-72.75390625,-171.875,-245.60546875,-79.1015625,0.0
1741051002.866868,-84.47265625,-175.78125,-241.69921875,-88.8671875,0.0
1741051002.8707733,-87.40234375,-171.38671875,-240.234375,-75.68359375,0.0
1741051002.8746789,-54.19921875,-161.1328125,-233.3984375,-64.94140625,0.0
1741051002.8785844,-36.1328125,-162.109375,-235.3515625,-71.77734375,0.0
1741051002.88249,-58.10546875,-162.59765625,-239.74609375,-77.63671875,0.0
1741051002.8863955,-79.1015625,-159.1796875,-236.81640625,-78.125,0.0
1741051002.8903008,-69.82421875,-165.52734375,-236.81640625,-82.03125,0.0
1741051002.8942063,-51.26953125,-163.0859375,-237.3046875,-84.9609375,0.0
1741051002.8981118,-63.96484375,-158.203125,-235.83984375,-80.56640625,0.0
1741051002.9020174,-108.3984375,-164.55078125,-241.2109375,-103.515625,0.0
1741051002.905923,-112.3046875,-171.38671875,-250.9765625,-127.44140625,0.0
1741051002.9098282,-90.8203125,-172.36328125,-250.0,-119.62890625,0.0
1741051002.9137444,-91.796875,-168.9453125,-246.58203125,-110.3515625,0.0
1741051002.91765,-112.3046875,-170.41015625,-251.953125,-105.95703125,0.0
1741051002.9215553,-122.0703125,-172.36328125,-250.48828125,-117.1875,0.0
1741051002.9254608,-115.234375,-179.6875,-247.0703125,-132.8125,0.0
1741051002.9293664,-113.28125,-185.546875,-247.55859375,-127.44140625,0.0
1741051002.933272,-122.55859375,-183.10546875,-237.3046875,-109.86328125,0.0
1741051002.9371772,-132.8125,-177.734375,-239.2578125,-113.28125,0.0
1741051002.9410827,-122.55859375,-185.546875,-265.13671875,-143.5546875,0.0
1741051002.9449883,-119.62890625,-198.2421875,-276.85546875,-144.53125,0.0
1741051002.9488938,-152.83203125,-194.3359375,-266.11328125,-138.18359375,0.0
1741051002.9527993,-170.8984375,-189.453125,-261.71875,-136.23046875,0.0
1741051002.9567046,-142.08984375,-189.453125,-258.30078125,-129.8828125,0.0
1741051002.9606206,-112.79296875,-179.6875,-250.0,-124.51171875,0.0
1741051002.9645262,-122.0703125,-175.78125,-246.09375,-116.69921875,0.0
1741051002.9684315,-131.34765625,-178.22265625,-234.86328125,-104.98046875,0.0
1741051002.972337,-111.81640625,-174.31640625,-225.09765625,-90.8203125,0.0
1741051002.9762425,-84.47265625,-167.48046875,-230.46875,-94.7265625,0.0
1741051002.980148,-88.8671875,-165.0390625,-233.3984375,-97.16796875,0.0
1741051002.9840536,-116.69921875,-166.50390625,-221.6796875,-87.40234375,0.0
1741051002.987959,-121.09375,-168.9453125,-219.7265625,-83.984375,0.0
1741051002.9918644,-97.65625,-170.41015625,-224.609375,-84.47265625,0.0
1741051002.99577,-80.56640625,-165.52734375,-217.7734375,-86.42578125,0.0
1741051002.9996755,-91.30859375,-157.71484375,-205.078125,-85.44921875,0.0
1741051003.003581,-118.1640625,-166.9921875,-216.30859375,-95.21484375,0.0
1741051003.007496,-105.46875,-166.9921875,-218.75,-102.05078125,0.0
1741051003.0114017,-70.80078125,-159.66796875,-204.58984375,-87.890625,0.0
1741051003.0153072,-67.3828125,-158.203125,-201.171875,-72.75390625,0.0
1741051003.0192125,-89.84375,-157.2265625,-198.2421875,-79.58984375,0.0
1741051003.023118,-75.68359375,-154.78515625,-192.87109375,-83.0078125,0.0
1741051003.0270236,-49.31640625,-148.92578125,-188.96484375,-69.3359375,0.0
1741051003.030929,-60.546875,-148.4375,-185.546875,-65.91796875,0.0
1741051003.0348346,-89.35546875,-145.99609375,-184.5703125,-71.2890625,0.0
1741051003.03874,-87.890625,-145.5078125,-192.3828125,-82.03125,0.0
1741051003.0426455,-59.08203125,-139.16015625,-197.265625,-83.984375,0.0
1741051003.046551,-57.6171875,-133.30078125,-196.2890625,-82.03125,0.0
1741051003.0504565,-83.49609375,-130.859375,-189.453125,-80.078125,0.0
1741051003.0543706,-96.19140625,-135.7421875,-186.03515625,-79.1015625,0.0
1741051003.0582762,-84.9609375,-142.08984375,-197.75390625,-80.56640625,0.0
1741051003.0621817,-81.54296875,-143.5546875,-200.68359375,-94.23828125,0.0
1741051003.0660872,-110.3515625,-141.6015625,-197.75390625,-108.3984375,0.0
1741051003.0699925,-126.46484375,-131.8359375,-184.08203125,-92.7734375,0.0
1741051003.073898,-118.1640625,-134.27734375,-190.91796875,-97.16796875,0.0
1741051003.0778036,-105.46875,-140.13671875,-201.171875,-109.375,0.0
1741051003.0817091,-122.0703125,-146.97265625,-201.171875,-115.72265625,0.0
1741051003.0856144,-148.92578125,-158.69140625,-205.078125,-127.9296875,0.0
1741051003.08952,-129.39453125,-158.69140625,-205.078125,-110.83984375,0.0
1741051003.0934255,-107.91015625,-158.203125,-214.84375,-108.88671875,0.0
1741051003.097331,-108.3984375,-153.80859375,-197.265625,-111.328125,0.0
1741051003.1012447,-122.0703125,-143.5546875,-184.5703125,-111.81640625,0.0
1741051003.10515,-114.2578125,-145.01953125,-196.2890625,-113.28125,0.0
1741051003.1090555,-74.70703125,-143.5546875,-189.94140625,-101.07421875,0.0
1741051003.112961,-66.89453125,-137.20703125,-193.84765625,-102.05078125,0.0
1741051003.1168666,-99.12109375,-140.13671875,-206.54296875,-104.4921875,0.0
1741051003.1207721,-105.46875,-138.18359375,-188.4765625,-89.84375,0.0
1741051003.1246774,-78.125,-142.08984375,-179.6875,-84.47265625,0.0
1741051003.128583,-70.80078125,-139.6484375,-181.640625,-89.84375,0.0
1741051003.1324885,-88.8671875,-129.8828125,-173.828125,-86.9140625,0.0
1741051003.136394,-91.30859375,-138.671875,-172.36328125,-83.0078125,0.0
1741051003.1402996,-64.453125,-135.7421875,-167.96875,-71.2890625,0.0
1741051003.1442049,-54.19921875,-132.32421875,-175.78125,-74.21875,0.0
1741051003.148118,-65.91796875,-135.7421875,-179.6875,-70.3125,0.0
1741051003.1520236,-77.63671875,-131.8359375,-166.015625,-55.6640625,0.0
1741051003.155929,-80.078125,-130.37109375,-168.9453125,-61.03515625,0.0
1741051003.1598344,-56.640625,-134.27734375,-174.8046875,-73.2421875,0.0
1741051003.16374,-52.734375,-133.30078125,-170.41015625,-63.96484375,0.0
1741051003.1676455,-76.66015625,-134.765625,-160.15625,-46.875,0.0
1741051003.171551,-77.1484375,-137.20703125,-161.1328125,-49.8046875,0.0
1741051003.1754565,-54.6875,-135.7421875,-165.0390625,-49.8046875,0.0
1741051003.1793618,-55.6640625,-137.20703125,-167.48046875,-49.8046875,0.0
1741051003.1832674,-82.03125,-137.20703125,-172.36328125,-55.17578125,0.0
1741051003.187173,-98.6328125,-136.71875,-158.69140625,-64.94140625,0.0
1741051003.1910784,-78.61328125,-142.578125,-157.2265625,-77.1484375,0.0
1741051003.1949959,-61.03515625,-141.11328125,-171.875,-71.2890625,0.0
1741051003.1989014,-82.51953125,-133.7890625,-164.0625,-66.89453125,0.0
1741051003.2028067,-110.3515625,-138.18359375,-155.2734375,-79.1015625,0.0
1741051003.2067122,-91.30859375,-126.953125,-152.34375,-76.171875,0.0
1741051003.2106178,-65.91796875,-122.0703125,-149.90234375,-73.2421875,0.0
1741051003.2145233,-87.40234375,-137.20703125,-154.78515625,-82.03125,0.0
1741051003.2184289,-116.2109375,-138.18359375,-156.73828125,-88.8671875,0.0
1741051003.2223341,-120.1171875,-152.83203125,-173.33984375,-110.3515625,0.0
1741051003.2262397,-101.5625,-163.0859375,-181.15234375,-116.2109375,0.0
1741051003.2301452,-111.328125,-161.62109375,-179.6875,-118.1640625,0.0
1741051003.2340508,-138.671875,-151.3671875,-180.17578125,-124.0234375,0.0
1741051003.2379563,-136.23046875,-141.6015625,-174.31640625,-106.93359375,0.0
1741051003.2418728,-105.95703125,-144.04296875,-174.31640625,-109.375,0.0
1741051003.2457783,-94.23828125,-144.53125,-175.78125,-121.58203125,0.0
1741051003.2496839,-122.55859375,-145.99609375,-176.26953125,-124.51171875,0.0
1741051003.2535894,-134.27734375,-149.90234375,-173.828125,-117.1875,0.0
1741051003.2574947,-108.3984375,-143.06640625,-164.0625,-112.3046875,0.0
