timestamps,TP9,AF7,AF8,TP10,Right AUX
1741084830.422352,54.6875,-69.3359375,-28.80859375,37.109375,0.0
1741084830.4262505,25.87890625,-58.10546875,-44.921875,19.53125,0.0
1741084830.430149,-105.46875,-50.78125,-41.50390625,-61.03515625,0.0
1741084830.4340475,-84.47265625,-45.41015625,-40.0390625,-55.6640625,0.0
1741084830.437946,57.12890625,-36.62109375,-42.96875,24.90234375,0.0
1741084830.4418445,75.68359375,-31.73828125,-28.3203125,45.41015625,0.0
1741084830.44584,-51.26953125,-30.2734375,-12.20703125,-24.4140625,0.0
1741084830.4497385,-93.26171875,-31.25,-27.34375,-66.89453125,0.0
1741084830.453637,23.4375,-26.3671875,-42.96875,5.37109375,0.0
1741084830.4575355,88.8671875,-18.06640625,-33.203125,62.98828125,0.0
1741084830.461434,5.37109375,-13.18359375,-7.8125,2.44140625,0.0
1741084830.4653325,-86.42578125,-36.62109375,-24.90234375,-59.5703125,0.0
1741084830.469231,-3.90625,-39.55078125,-36.1328125,-12.20703125,0.0
1741084830.4731293,94.23828125,-23.92578125,-24.90234375,58.59375,0.0
1741084830.477028,10.25390625,-30.2734375,-33.69140625,14.16015625,0.0
1741084830.4809263,-96.19140625,-48.33984375,-27.34375,-49.31640625,0.0
1741084830.484825,-24.90234375,-33.203125,-34.1796875,-12.20703125,0.0
1741084830.4887233,91.796875,-24.4140625,-50.78125,56.640625,0.0
1741084830.492718,47.36328125,-29.296875,-27.34375,31.73828125,0.0
1741084830.4966166,-85.44921875,-20.99609375,-12.20703125,-53.7109375,0.0
1741084830.500515,-89.35546875,-33.203125,-19.53125,-69.3359375,0.0
1741084830.5044136,42.96875,-32.2265625,-22.4609375,14.6484375,0.0
1741084830.508312,80.078125,-30.2734375,-32.2265625,42.48046875,0.0
1741084830.5122106,-41.015625,-42.96875,-22.94921875,-34.66796875,0.0
1741084830.516109,-91.30859375,-51.7578125,-11.23046875,-80.078125,0.0
1741084830.5200076,24.4140625,-50.29296875,-17.578125,-11.71875,0.0
1741084830.523906,95.21484375,-36.62109375,-16.6015625,50.78125,0.0
1741084830.5278044,-25.390625,-43.9453125,-17.578125,-7.8125,0.0
1741084830.531703,-141.11328125,-41.9921875,-24.4140625,-87.40234375,0.0
1741084830.5356014,-68.359375,-35.15625,-27.83203125,-50.78125,0.0
1741084830.5395956,50.78125,-49.8046875,-32.2265625,20.01953125,0.0
1741084830.543494,-2.9296875,-58.59375,-36.62109375,-22.4609375,0.0
1741084830.5473926,-138.18359375,-62.98828125,-32.2265625,-103.515625,0.0
1741084830.551291,-103.02734375,-56.15234375,-33.69140625,-88.37890625,0.0
1741084830.5551896,38.0859375,-46.875,-54.6875,7.32421875,0.0
1741084830.559088,26.3671875,-47.8515625,-58.10546875,7.8125,0.0
1741084830.5629866,-127.44140625,-53.7109375,-31.25,-91.796875,0.0
1741084830.566885,-151.3671875,-47.8515625,-28.3203125,-104.98046875,0.0
1741084830.5707836,-5.859375,-44.921875,-31.25,-13.18359375,0.0
1741084830.574682,48.828125,-38.57421875,-22.4609375,7.8125,0.0
1741084830.5785806,-73.73046875,-41.9921875,-32.71484375,-82.03125,0.0
1741084830.582479,-144.53125,-60.546875,-37.109375,-126.46484375,0.0
1741084830.586472,0.0,-47.8515625,-33.69140625,-43.45703125,0.0
1741084830.5903707,0.0,-29.78515625,-26.85546875,36.62109375,0.0
1741084830.594269,0.0,-47.8515625,-19.53125,-25.87890625,0.0
1741084830.5981677,0.0,-61.5234375,-30.2734375,-108.3984375,0.0
1741084830.602066,0.0,-46.875,-37.59765625,-59.08203125,0.0
1741084830.6059647,0.0,-33.203125,-35.64453125,40.0390625,0.0
1741084830.609863,0.0,-34.66796875,-40.0390625,25.87890625,0.0
1741084830.6137614,0.0,-40.52734375,-39.0625,-57.6171875,0.0
1741084830.61766,0.0,-42.48046875,-26.85546875,-37.109375,0.0
1741084830.6215584,0.0,-26.3671875,-23.92578125,34.1796875,0.0
1741084830.625457,0.0,-23.4375,-25.87890625,29.78515625,0.0
1741084830.6293554,0.0,-31.73828125,-20.99609375,-43.45703125,0.0
1741084830.6333466,-107.421875,-23.4375,-21.97265625,-73.73046875,0.0
1741084830.637245,18.5546875,-18.5546875,-23.4375,-1.953125,0.0
1741084830.6411436,82.51953125,-23.92578125,-23.4375,41.50390625,0.0
1741084830.645042,-26.85546875,-15.13671875,-31.25,-28.3203125,0.0
1741084830.6489406,-106.4453125,-16.6015625,-37.59765625,-89.84375,0.0
1741084830.652839,11.23046875,-43.45703125,-35.64453125,-18.5546875,0.0
1741084830.6567376,114.74609375,-41.9921875,-36.1328125,61.5234375,0.0
1741084830.660636,8.30078125,-31.25,-45.8984375,7.8125,0.0
1741084830.6645343,-130.859375,-40.52734375,-47.8515625,-98.14453125,0.0
1741084830.668433,-77.1484375,-22.94921875,-52.24609375,-72.265625,0.0
1741084830.6723313,57.6171875,-10.7421875,-32.2265625,29.78515625,0.0
1741084830.67623,23.4375,-22.94921875,-20.5078125,8.30078125,0.0
1741084830.6802201,-110.83984375,-30.2734375,-36.1328125,-85.9375,0.0
1741084830.6841185,-107.421875,-40.52734375,-44.43359375,-92.28515625,0.0
1741084830.6880171,35.64453125,-36.62109375,-42.96875,-3.41796875,0.0
1741084830.6919155,35.64453125,-46.875,-58.10546875,4.8828125,0.0
1741084830.6958141,-107.91015625,-41.9921875,-48.33984375,-87.890625,0.0
1741084830.6997125,-152.34375,-34.66796875,-20.99609375,-125.0,0.0
1741084830.7036111,-50.29296875,-60.05859375,-27.34375,-64.453125,0.0
1741084830.7075095,5.37109375,-74.21875,-31.73828125,-21.484375,0.0
1741084830.7114081,-98.14453125,-64.94140625,-38.57421875,-84.9609375,0.0
1741084830.7153065,-183.59375,-58.10546875,-43.9453125,-148.92578125,0.0
1741084830.719205,-77.63671875,-55.17578125,-34.1796875,-91.30859375,0.0
1741084830.7231035,51.26953125,-52.734375,-29.78515625,5.859375,0.0
1741084830.7270932,-2.44140625,-42.96875,-29.296875,-18.5546875,0.0
1741084830.7309918,-110.83984375,-37.59765625,-34.1796875,-98.14453125,0.0
1741084830.7348902,-77.1484375,-43.9453125,-35.64453125,-69.3359375,0.0
1741084830.7387888,84.9609375,-33.203125,-26.85546875,40.52734375,0.0
1741084830.7426872,90.33203125,-25.87890625,-24.4140625,43.9453125,0.0
1741084830.7465858,-73.73046875,-41.50390625,-33.203125,-57.6171875,0.0
1741084830.7504842,-59.5703125,-39.55078125,-34.66796875,-62.5,0.0
1741084830.7543828,97.65625,-16.11328125,-32.2265625,31.25,0.0
1741084830.7582812,124.51171875,-20.5078125,-34.1796875,68.359375,0.0
1741084830.7621799,-1.953125,-33.69140625,-27.34375,-1.953125,0.0
1741084830.7660782,-57.6171875,-29.78515625,-30.76171875,-46.38671875,0.0
1741084830.7699769,59.08203125,-20.5078125,-35.64453125,30.76171875,0.0
1741084830.7739651,151.85546875,-14.16015625,-33.203125,98.14453125,0.0
1741084830.7778635,54.6875,-18.06640625,-34.66796875,34.66796875,0.0
1741084830.7817621,-56.15234375,-24.4140625,-45.41015625,-41.50390625,0.0
1741084830.7856605,33.203125,-22.94921875,-45.41015625,11.23046875,0.0
1741084830.7895591,150.390625,-20.01953125,-41.50390625,98.14453125,0.0
1741084830.7934575,82.51953125,-28.80859375,-43.9453125,56.15234375,0.0
1741084830.7973561,-55.17578125,-36.62109375,-41.015625,-37.109375,0.0
1741084830.8012545,-30.76171875,-32.71484375,-41.9921875,-14.16015625,0.0
1741084830.8051531,109.86328125,-33.203125,-39.0625,75.68359375,0.0
1741084830.8090515,81.54296875,-31.73828125,-34.66796875,54.6875,0.0
1741084830.8129501,-73.73046875,-30.2734375,-41.9921875,-42.96875,0.0
1741084830.8168485,-89.84375,-38.57421875,-38.0859375,-54.19921875,0.0
1741084830.8208442,57.12890625,-34.66796875,-26.85546875,45.8984375,0.0
1741084830.8247428,112.79296875,-27.83203125,-36.62109375,84.47265625,0.0
1741084830.8286412,-16.6015625,-37.59765625,-37.59765625,-4.8828125,0.0
1741084830.8325398,-87.890625,-38.57421875,-30.2734375,-59.5703125,0.0
1741084830.8364382,14.16015625,-35.15625,-38.0859375,8.7890625,0.0
1741084830.8403368,111.81640625,-36.1328125,-28.80859375,76.171875,0.0
1741084830.8442352,27.34375,-34.66796875,-10.25390625,18.5546875,0.0
1741084830.8481338,-89.84375,-32.71484375,-16.11328125,-74.21875,0.0
1741084830.8520322,-26.85546875,-29.296875,-35.64453125,-45.41015625,0.0
1741084830.8559308,88.8671875,-24.4140625,-31.25,40.52734375,0.0
1741084830.8598292,33.203125,-17.08984375,-25.87890625,1.953125,0.0
1741084830.8637278,-103.515625,-21.97265625,-32.71484375,-87.40234375,0.0
1741084830.8677227,-79.1015625,-34.1796875,-29.296875,-70.80078125,0.0
1741084830.8716214,60.546875,-30.2734375,-32.2265625,15.625,0.0
1741084830.8755198,64.94140625,-20.5078125,-42.48046875,17.578125,0.0
1741084830.8794184,-78.125,-36.1328125,-42.48046875,-79.58984375,0.0
1741084830.8833168,-113.28125,-41.015625,-43.45703125,-104.98046875,0.0
1741084830.8872154,20.5078125,-31.73828125,-50.29296875,-13.18359375,0.0
1741084830.8911138,73.2421875,-36.1328125,-47.36328125,25.87890625,0.0
1741084830.8950124,-59.08203125,-56.640625,-52.734375,-65.91796875,0.0
1741084830.8989108,-152.83203125,-69.3359375,-55.17578125,-121.09375,0.0
1741084830.9028094,-48.33984375,-57.12890625,-49.8046875,-43.45703125,0.0
1741084830.9067078,64.94140625,-44.43359375,-48.828125,25.390625,0.0
1741084830.9106064,-8.30078125,-51.7578125,-48.828125,-21.97265625,0.0
1741084830.9146001,-127.9296875,-60.05859375,-44.921875,-90.33203125,0.0
1741084830.9184985,-76.66015625,-64.94140625,-54.19921875,-62.01171875,0.0
1741084830.9223971,56.640625,-52.24609375,-49.8046875,28.3203125,0.0
1741084830.9262955,27.34375,-47.8515625,-41.50390625,19.53125,0.0
1741084830.9301941,-114.74609375,-63.4765625,-40.52734375,-72.265625,0.0
1741084830.9340925,-112.79296875,-61.03515625,-39.55078125,-72.265625,0.0
1741084830.9379911,27.34375,-51.26953125,-46.875,17.578125,0.0
1741084830.9418895,61.5234375,-52.734375,-49.8046875,35.15625,0.0
1741084830.9457881,-62.5,-56.15234375,-39.55078125,-48.33984375,0.0
1741084830.9496865,-111.328125,-50.78125,-40.52734375,-85.44921875,0.0
1741084830.9535851,28.3203125,-49.8046875,-42.96875,-18.06640625,0.0
1741084830.9574835,109.86328125,-48.33984375,-41.015625,34.66796875,0.0
1741084830.9614758,-15.625,-55.6640625,-55.17578125,-22.94921875,0.0
1741084830.9653745,-127.9296875,-50.78125,-48.828125,-83.49609375,0.0
1741084830.9692729,-43.45703125,-30.2734375,-38.0859375,-49.31640625,0.0
1741084830.9731715,67.87109375,-27.34375,-46.38671875,19.53125,0.0
1741084830.97707,6.8359375,-34.66796875,-41.9921875,-17.08984375,0.0
1741084830.9809685,-129.8828125,-58.59375,-35.15625,-102.5390625,0.0
1741084830.984867,-78.125,-48.33984375,-35.15625,-72.265625,0.0
1741084830.9887655,77.1484375,-23.4375,-33.69140625,28.3203125,0.0
1741084830.992664,66.40625,-34.1796875,-24.90234375,36.1328125,0.0
1741084830.9965625,-86.42578125,-31.73828125,-19.53125,-68.84765625,0.0
1741084831.000461,-107.91015625,-24.4140625,-27.34375,-92.7734375,0.0
1741084831.0043595,33.203125,-27.34375,-30.2734375,4.39453125,0.0
1741084831.0083506,75.68359375,-37.59765625,-33.203125,22.4609375,0.0
1741084831.0122492,-55.6640625,-32.71484375,-30.76171875,-54.6875,0.0
1741084831.0161476,-123.046875,-24.90234375,-20.01953125,-76.171875,0.0
1741084831.0200462,22.94921875,-34.1796875,-20.5078125,-1.46484375,0.0
1741084831.0239446,100.5859375,-33.69140625,-24.90234375,40.52734375,0.0
1741084831.0278432,-33.203125,-34.1796875,-22.94921875,-27.83203125,0.0
1741084831.0317419,-124.51171875,-31.73828125,-25.390625,-83.49609375,0.0
1741084831.0356402,-38.0859375,-32.2265625,-25.87890625,-31.25,0.0
1741084831.0395389,75.68359375,-27.34375,-29.78515625,39.0625,0.0
1741084831.0434372,16.11328125,-17.578125,-35.15625,7.8125,0.0
1741084831.0473359,-122.55859375,-30.76171875,-34.66796875,-83.0078125,0.0
1741084831.0512342,-108.88671875,-38.57421875,-33.69140625,-88.8671875,0.0
1741084831.0552244,24.90234375,-36.62109375,-39.55078125,-2.9296875,0.0
1741084831.059123,26.85546875,-38.57421875,-54.19921875,1.46484375,0.0
1741084831.0630214,-100.5859375,-36.62109375,-59.5703125,-68.84765625,0.0
1741084831.06692,-133.7890625,-46.875,-49.8046875,-92.28515625,0.0
1741084831.0708184,-10.25390625,-46.38671875,-25.87890625,-29.78515625,0.0
1741084831.074717,48.33984375,-35.15625,-27.83203125,8.7890625,0.0
1741084831.0786154,-67.3828125,-50.29296875,-34.1796875,-62.98828125,0.0
1741084831.082514,-134.27734375,-56.15234375,-21.484375,-95.21484375,0.0
1741084831.0864124,-25.390625,-40.52734375,-25.87890625,-24.90234375,0.0
1741084831.090311,65.4296875,-39.55078125,-34.66796875,31.73828125,0.0
1741084831.0942094,-27.83203125,-51.26953125,-35.15625,-25.87890625,0.0
1741084831.098108,-138.671875,-33.69140625,-51.26953125,-100.09765625,0.0
1741084831.102097,-60.05859375,-19.53125,-51.7578125,-62.01171875,0.0
1741084831.1059954,82.03125,-25.87890625,-28.80859375,20.01953125,0.0
1741084831.109894,40.52734375,-28.80859375,-23.92578125,8.30078125,0.0
1741084831.1137924,-104.00390625,-26.85546875,-36.1328125,-72.75390625,0.0
1741084831.117691,-86.42578125,-27.83203125,-39.55078125,-70.80078125,0.0
1741084831.1215894,51.26953125,-27.83203125,-19.04296875,8.7890625,0.0
1741084831.125488,63.96484375,-27.34375,-15.13671875,26.85546875,0.0
1741084831.1293867,-77.63671875,-33.203125,-28.80859375,-59.08203125,0.0
1741084831.133285,-113.76953125,-32.71484375,-23.92578125,-86.42578125,0.0
1741084831.1371837,26.3671875,-16.6015625,-14.16015625,4.8828125,0.0
1741084831.141082,84.47265625,-16.11328125,-26.3671875,40.52734375,0.0
1741084831.1449807,-42.48046875,-28.3203125,-35.15625,-38.0859375,0.0
1741084831.148969,-117.1875,-34.1796875,-28.80859375,-85.44921875,0.0
1741084831.1528676,-9.27734375,-24.4140625,-21.484375,-21.97265625,0.0
1741084831.156766,87.890625,-18.5546875,-31.73828125,32.71484375,0.0
1741084831.1606646,8.7890625,-18.06640625,-40.52734375,-16.6015625,0.0
1741084831.1645632,-91.796875,-11.23046875,-24.4140625,-77.1484375,0.0
1741084831.1684616,-34.1796875,-17.578125,-24.4140625,-37.59765625,0.0
1741084831.1723602,79.58984375,-25.87890625,-28.80859375,49.31640625,0.0
1741084831.1762586,50.78125,-21.484375,-20.99609375,31.73828125,0.0
1741084831.1801572,-93.26171875,-35.64453125,-33.69140625,-70.3125,0.0
1741084831.1840556,-98.14453125,-36.1328125,-37.59765625,-73.2421875,0.0
1741084831.1879542,44.43359375,-18.5546875,-26.85546875,20.01953125,0.0
1741084831.1918526,61.03515625,-21.97265625,-21.97265625,34.66796875,0.0
1741084831.195848,-76.171875,-38.0859375,-25.390625,-62.98828125,0.0
1741084831.1997464,-115.72265625,-43.9453125,-33.69140625,-89.84375,0.0
1741084831.203645,10.7421875,-37.59765625,-31.73828125,2.9296875,0.0
1741084831.2075436,59.5703125,-28.3203125,-37.109375,23.92578125,0.0
1741084831.211442,-72.265625,-37.109375,-35.15625,-62.01171875,0.0
1741084831.2153406,-166.015625,-52.734375,-28.80859375,-117.67578125,0.0
1741084831.219239,-64.453125,-37.109375,-29.78515625,-66.89453125,0.0
1741084831.2231376,55.17578125,-19.53125,-41.015625,2.9296875,0.0
1741084831.227036,-17.08984375,-23.92578125,-41.9921875,-27.34375,0.0
1741084831.2309346,-151.3671875,-39.55078125,-33.203125,-103.515625,0.0
1741084831.234833,-110.83984375,-53.22265625,-38.57421875,-94.7265625,0.0
1741084831.2387316,21.484375,-48.828125,-39.55078125,-9.27734375,0.0
1741084831.2427258,1.46484375,-44.921875,-31.73828125,-13.671875,0.0
1741084831.2466245,-128.41796875,-41.50390625,-26.85546875,-101.5625,0.0
1741084831.2505229,-133.30078125,-44.43359375,-46.875,-104.98046875,0.0
1741084831.2544215,-4.39453125,-49.31640625,-37.109375,-17.578125,0.0
1741084831.2583199,43.9453125,-42.96875,-11.23046875,23.4375,0.0
1741084831.2622185,-77.63671875,-49.31640625,-27.83203125,-54.6875,0.0
1741084831.2661169,-154.296875,-57.12890625,-50.29296875,-122.0703125,0.0
1741084831.2700155,-36.62109375,-41.015625,-44.921875,-47.8515625,0.0
1741084831.273914,56.640625,-38.57421875,-35.64453125,30.2734375,0.0
1741084831.2778125,-37.59765625,-50.78125,-34.1796875,-25.87890625,0.0
1741084831.281711,-145.5078125,-51.7578125,-37.59765625,-108.3984375,0.0
1741084831.2856095,-58.59375,-47.36328125,-42.96875,-51.7578125,0.0
1741084831.289603,63.4765625,-31.25,-41.015625,36.62109375,0.0
1741084831.2935014,-2.44140625,-31.25,-36.62109375,-6.8359375,0.0
1741084831.2974,-130.859375,-34.66796875,-31.73828125,-91.30859375,0.0
1741084831.3012984,-89.84375,-28.3203125,-23.4375,-62.98828125,0.0
1741084831.305197,57.12890625,-26.3671875,-22.4609375,30.2734375,0.0
1741084831.3090954,39.0625,-38.57421875,-34.66796875,36.1328125,0.0
1741084831.312994,-89.35546875,-52.24609375,-32.71484375,-53.22265625,0.0
1741084831.3168924,-88.37890625,-38.0859375,-28.3203125,-72.75390625,0.0
1741084831.320791,32.71484375,-19.53125,-24.4140625,24.90234375,0.0
1741084831.3246896,69.82421875,-12.6953125,-17.08984375,54.6875,0.0
1741084831.328588,-35.15625,-25.87890625,-20.5078125,-19.04296875,0.0
1741084831.3324866,-106.4453125,-36.1328125,-17.08984375,-67.3828125,0.0
1741084831.3364794,-0.48828125,-31.25,-15.13671875,-12.6953125,0.0
1741084831.3403778,105.46875,-16.6015625,-12.6953125,58.59375,0.0
1741084831.3442764,28.80859375,-13.671875,-13.18359375,10.25390625,0.0
1741084831.3481748,-94.23828125,-20.01953125,-22.94921875,-78.61328125,0.0
1741084831.3520734,-45.8984375,-26.85546875,-33.69140625,-50.29296875,0.0
1741084831.3559718,63.4765625,-39.0625,-36.62109375,24.90234375,0.0
1741084831.3598704,11.71875,-46.875,-36.62109375,-1.953125,0.0
1741084831.3637688,-105.46875,-54.6875,-38.0859375,-81.0546875,0.0
1741084831.3676674,-96.19140625,-53.7109375,-26.3671875,-70.3125,0.0
1741084831.371566,26.3671875,-35.64453125,-23.92578125,6.34765625,0.0
1741084831.3754644,62.98828125,-27.34375,-37.109375,23.92578125,0.0
1741084831.379363,-68.84765625,-37.59765625,-30.2734375,-63.4765625,0.0
1741084831.3833537,-127.9296875,-30.2734375,-19.04296875,-101.5625,0.0
1741084831.3872523,-9.27734375,-30.76171875,-23.92578125,-33.69140625,0.0
1741084831.3911507,28.80859375,-52.24609375,-45.8984375,-18.5546875,0.0
1741084831.3950493,-87.890625,-58.59375,-63.96484375,-92.28515625,0.0
1741084831.398948,-155.2734375,-64.94140625,-56.640625,-138.18359375,0.0
1741084831.4028463,-42.48046875,-49.31640625,-41.9921875,-72.75390625,0.0
1741084831.406745,71.2890625,-38.57421875,-42.96875,0.0,0.0
1741084831.4106433,-11.23046875,-56.15234375,-59.5703125,-42.96875,0.0
1741084831.414542,-132.8125,-54.6875,-69.3359375,-110.3515625,0.0
1741084831.4184403,-87.890625,-39.55078125,-50.78125,-76.171875,0.0
1741084831.422339,36.62109375,-43.45703125,-36.62109375,12.6953125,0.0
1741084831.4262376,24.90234375,-45.8984375,-29.78515625,11.71875,0.0
1741084831.4302273,-107.91015625,-44.921875,-39.55078125,-73.73046875,0.0
1741084831.434126,-110.3515625,-39.55078125,-46.875,-86.42578125,0.0
1741084831.4380243,42.48046875,-41.9921875,-40.0390625,6.34765625,0.0
1741084831.441923,72.75390625,-48.33984375,-30.76171875,30.76171875,0.0
1741084831.4458215,-64.453125,-47.36328125,-27.34375,-56.15234375,0.0
1741084831.44972,-114.2578125,-44.921875,-34.66796875,-83.49609375,0.0
1741084831.4536185,4.8828125,-50.78125,-40.52734375,-7.32421875,0.0
1741084831.457517,76.66015625,-54.6875,-36.1328125,44.43359375,0.0
1741084831.4614155,-43.45703125,-43.9453125,-35.15625,-34.66796875,0.0
1741084831.465314,-147.4609375,-55.6640625,-40.0390625,-114.74609375,0.0
1741084831.4692125,-42.96875,-61.03515625,-36.62109375,-44.921875,0.0
1741084831.4731112,96.19140625,-20.01953125,-14.6484375,51.26953125,0.0
1741084831.4771,34.1796875,-8.30078125,-16.6015625,4.8828125,0.0
1741084831.4809985,-108.88671875,-26.3671875,-32.71484375,-91.30859375,0.0
1741084831.4848971,-62.5,-16.6015625,-36.1328125,-53.7109375,0.0
1741084831.4887955,68.84765625,-19.04296875,-43.9453125,36.62109375,0.0
1741084831.4926941,57.6171875,-17.08984375,-33.203125,20.99609375,0.0
1741084831.4965925,-56.640625,-15.13671875,-26.3671875,-55.6640625,0.0
1741084831.5004911,-82.51953125,-36.1328125,-37.59765625,-64.94140625,0.0
1741084831.5043895,38.0859375,-63.96484375,-53.7109375,7.8125,0.0
1741084831.5082881,103.02734375,-46.38671875,-51.26953125,36.62109375,0.0
1741084831.5121868,-13.671875,-7.8125,-45.8984375,-17.578125,0.0
1741084831.5160851,-110.3515625,-19.53125,-40.0390625,-76.171875,0.0
1741084831.5199838,-5.859375,-28.80859375,-19.04296875,-48.828125,0.0
1741084831.5239809,0.0,-42.48046875,-2.9296875,5.859375,0.0
1741084831.5278792,0.0,-61.5234375,-18.06640625,-58.10546875,0.0
1741084831.5317779,0.0,-45.41015625,-46.38671875,-127.9296875,0.0
1741084831.5356762,0.0,-25.390625,-43.45703125,-76.171875,0.0
1741084831.5395749,0.0,-13.18359375,-28.3203125,3.41796875,0.0
1741084831.5434735,0.0,-5.37109375,-21.484375,-6.34765625,0.0
1741084831.5473719,0.0,-21.97265625,-31.73828125,-56.640625,0.0
1741084831.5512705,0.0,-32.2265625,-50.29296875,-54.6875,0.0
1741084831.5551689,0.0,-31.25,-37.59765625,4.8828125,0.0
1741084831.5590675,0.0,-32.71484375,-21.484375,10.7421875,0.0
1741084831.562966,0.0,-36.62109375,-24.90234375,-72.265625,0.0
1741084831.5668645,0.0,-54.19921875,-33.69140625,-91.30859375,0.0
1741084831.5708594,6.34765625,-47.36328125,-42.48046875,0.0,0.0
1741084831.574758,59.5703125,-30.76171875,-27.34375,49.8046875,0.0
1741084831.5786567,-47.36328125,-31.73828125,-18.5546875,-26.3671875,0.0
1741084831.582555,-115.72265625,-37.109375,-35.15625,-84.47265625,0.0
1741084831.5864537,-10.7421875,-32.2265625,-41.015625,-14.6484375,0.0
1741084831.590352,76.171875,-34.66796875,-30.2734375,48.33984375,0.0
1741084831.5942507,-23.4375,-31.25,-23.4375,-4.8828125,0.0
1741084831.5981493,-121.09375,-31.25,-39.55078125,-87.40234375,0.0
1741084831.6020477,-51.26953125,-27.34375,-58.59375,-46.875,0.0
1741084831.6059463,69.82421875,-18.06640625,-36.62109375,60.546875,0.0
1741084831.6098447,34.66796875,-22.94921875,-24.90234375,32.71484375,0.0
1741084831.6137433,-82.51953125,-22.4609375,-24.4140625,-69.3359375,0.0
1741084831.6177375,-59.08203125,-14.6484375,-31.73828125,-54.6875,0.0
1741084831.621636,74.70703125,-2.9296875,-39.0625,41.9921875,0.0
1741084831.6255345,93.75,-2.44140625,-28.3203125,59.08203125,0.0
1741084831.629433,-31.73828125,-6.34765625,-25.87890625,-21.97265625,0.0
1741084831.6333315,-82.51953125,-4.39453125,-17.08984375,-51.7578125,0.0
1741084831.6372302,30.76171875,-16.6015625,-22.94921875,14.16015625,0.0
1741084831.6411285,108.3984375,-21.484375,-35.64453125,47.36328125,0.0
1741084831.6450272,-3.41796875,-10.25390625,-25.87890625,-24.4140625,0.0
1741084831.6489255,-98.6328125,-17.08984375,-38.0859375,-88.37890625,0.0
1741084831.6528242,3.41796875,-21.484375,-41.9921875,-24.4140625,0.0
1741084831.6567228,101.5625,-10.7421875,-35.15625,49.8046875,0.0
1741084831.6606212,16.11328125,-20.01953125,-40.0390625,-1.46484375,0.0
1741084831.664615,0.0,-26.3671875,-26.3671875,-73.73046875,0.0
1741084831.6685135,0.0,-21.97265625,-15.13671875,-38.0859375,0.0
1741084831.672412,0.0,-35.15625,-11.71875,37.59765625,0.0
1741084831.6763105,0.0,-28.3203125,-7.32421875,20.5078125,0.0
1741084831.6802092,0.0,-48.33984375,-36.62109375,-82.51953125,0.0
1741084831.6841075,0.0,-64.453125,-45.41015625,-97.65625,0.0
1741084831.6880062,0.0,-39.0625,-20.01953125,8.7890625,0.0
1741084831.6919048,0.0,-49.31640625,-27.34375,41.50390625,0.0
1741084831.6958032,0.0,-64.94140625,-27.83203125,-40.52734375,0.0
1741084831.6997018,0.0,-44.43359375,-26.85546875,-94.23828125,0.0
1741084831.7036002,0.0,-23.92578125,-37.109375,-23.4375,0.0
1741084831.7074988,0.0,-21.97265625,-25.87890625,34.66796875,0.0
1741084831.7114913,-31.25,-34.66796875,-27.83203125,-28.80859375,0.0
1741084831.71539,-120.60546875,-39.55078125,-26.85546875,-84.9609375,0.0
1741084831.7192883,-46.875,-45.41015625,-29.296875,-37.59765625,0.0
1741084831.723187,72.265625,-43.45703125,-36.62109375,33.203125,0.0
1741084831.7270856,4.8828125,-50.29296875,-37.109375,-13.671875,0.0
1741084831.730984,-142.08984375,-66.40625,-45.8984375,-110.83984375,0.0
1741084831.7348826,-109.375,-40.52734375,-33.69140625,-90.33203125,0.0
1741084831.738781,37.59765625,-47.8515625,-54.6875,2.44140625,0.0
1741084831.7426796,28.80859375,-72.265625,-68.359375,13.18359375,0.0
1741084831.7465782,-102.5390625,-51.26953125,-47.36328125,-54.6875,0.0
1741084831.7504766,-95.703125,-38.0859375,-66.89453125,-41.9921875,0.0
1741084831.7543752,45.8984375,-55.17578125,-74.21875,39.55078125,0.0
1741084831.7583659,81.54296875,-78.61328125,-77.1484375,41.9921875,0.0
1741084831.7622643,-36.1328125,-63.4765625,-34.66796875,-54.19921875,0.0
1741084831.7661629,-100.5859375,-22.94921875,-26.85546875,-92.28515625,0.0
1741084831.7700615,-6.8359375,-15.625,-80.56640625,-12.6953125,0.0
1741084831.7739599,91.796875,-62.5,-112.3046875,60.546875,0.0
1741084831.7778585,62.5,-116.69921875,-103.515625,52.734375,0.0
1741084831.781757,-1.46484375,-21.484375,-103.515625,-44.43359375,0.0
1741084831.7856555,96.6796875,-3.90625,-209.9609375,12.6953125,0.0
1741084831.789554,275.87890625,-195.80078125,-62.01171875,209.47265625,0.0
1741084831.7934525,232.421875,-118.65234375,34.1796875,221.6796875,0.0
1741084831.7973511,67.87109375,72.75390625,0.9765625,37.109375,0.0
1741084831.8012497,144.04296875,68.359375,-4.39453125,9.27734375,0.0
1741084831.8052392,304.19921875,-24.90234375,69.82421875,157.2265625,0.0
1741084831.8091378,299.8046875,128.41796875,33.203125,189.94140625,0.0
1741084831.8130362,330.078125,272.94921875,-36.62109375,136.23046875,0.0
1741084831.8169348,507.32421875,293.9453125,163.0859375,252.9296875,0.0
1741084831.8208332,736.328125,220.21484375,206.0546875,450.1953125,0.0
1741084831.8247318,861.328125,683.10546875,107.421875,551.7578125,0.0
1741084831.8286304,529.296875,883.30078125,387.6953125,237.79296875,0.0
1741084831.8325288,62.01171875,600.5859375,448.73046875,-126.46484375,0.0
1741084831.8364275,-3.41796875,808.59375,283.203125,-79.58984375,0.0
1741084831.840326,73.73046875,815.91796875,221.19140625,124.0234375,0.0
1741084831.8442245,-31.73828125,687.5,488.76953125,151.3671875,0.0
1741084831.848123,-255.37109375,918.45703125,792.96875,-30.76171875,0.0
1741084831.8521123,-614.2578125,987.79296875,663.57421875,-276.85546875,0.0
1741084831.856011,-731.93359375,959.47265625,691.89453125,-156.25,0.0
1741084831.8599095,-914.55078125,972.16796875,849.609375,-174.31640625,0.0
1741084831.863808,-1000.0,970.21484375,939.94140625,-576.66015625,0.0
1741084831.8677065,-987.79296875,970.21484375,977.05078125,-792.96875,0.0
1741084831.8716052,-1000.0,969.7265625,965.33203125,-816.40625,0.0
1741084831.8755035,-1000.0,970.21484375,971.6796875,-874.0234375,0.0
1741084831.8794022,-1000.0,970.21484375,970.21484375,-980.95703125,0.0
1741084831.8833005,-1000.0,970.21484375,970.21484375,-987.79296875,0.0
1741084831.8871992,-1000.0,970.21484375,970.21484375,-962.890625,0.0
1741084831.8910978,-1000.0,970.21484375,970.21484375,-1000.0,0.0
1741084831.8949962,-1000.0,970.21484375,970.21484375,-1000.0,0.0
1741084831.8989842,-1000.0,970.21484375,970.21484375,-999.51171875,0.0
1741084831.9028828,-1000.0,970.21484375,970.21484375,-1000.0,0.0
1741084831.9067812,-1000.0,970.21484375,970.21484375,-1000.0,0.0
1741084831.9106798,-1000.0,970.21484375,970.21484375,-1000.0,0.0
1741084831.9145784,-1000.0,969.7265625,970.21484375,-1000.0,0.0
1741084831.9184768,-1000.0,969.7265625,970.21484375,-1000.0,0.0
1741084831.9223754,-1000.0,970.21484375,970.21484375,-1000.0,0.0
1741084831.926274,-1000.0,970.21484375,970.21484375,-1000.0,0.0
1741084831.9301724,-1000.0,970.21484375,970.21484375,-1000.0,0.0
1741084831.934071,-1000.0,970.21484375,970.21484375,-1000.0,0.0
1741084831.9379694,-1000.0,969.7265625,970.21484375,-1000.0,0.0
1741084831.941868,-1000.0,970.21484375,970.21484375,-1000.0,0.0
1741084831.945863,-1000.0,970.21484375,970.21484375,-1000.0,0.0
1741084831.9497616,-1000.0,970.21484375,970.21484375,-1000.0,0.0
1741084831.95366,-1000.0,970.21484375,970.21484375,-1000.0,0.0
1741084831.9575586,-987.79296875,970.21484375,970.21484375,-1000.0,0.0
1741084831.9614573,-1000.0,970.21484375,970.21484375,-997.0703125,0.0
1741084831.9653556,-915.52734375,970.21484375,970.21484375,-1000.0,0.0
1741084831.9692543,-422.36328125,970.21484375,970.21484375,-997.0703125,0.0
1741084831.9731526,125.9765625,970.21484375,970.21484375,-891.6015625,0.0
1741084831.9770513,373.53515625,970.21484375,970.21484375,-818.359375,0.0
1741084831.9809499,595.703125,970.21484375,969.7265625,-774.4140625,0.0
1741084831.9848483,912.59765625,970.21484375,969.7265625,-613.76953125,0.0
1741084831.988747,982.91015625,970.21484375,970.21484375,-362.79296875,0.0
1741084831.9927409,958.0078125,969.7265625,969.7265625,-224.609375,0.0
1741084831.9966395,972.16796875,969.7265625,969.7265625,-218.26171875,0.0
1741084832.0005379,969.23828125,969.7265625,969.7265625,-101.07421875,0.0
1741084832.0044365,969.23828125,969.7265625,970.21484375,100.5859375,0.0
1741084832.0083349,969.23828125,970.703125,968.75,160.64453125,0.0
1741084832.0122335,969.7265625,967.28515625,969.23828125,111.81640625,0.0
1741084832.016132,969.23828125,970.21484375,968.75,89.84375,0.0
1741084832.0200305,969.7265625,966.30859375,924.31640625,171.875,0.0
1741084832.023929,969.23828125,875.9765625,855.95703125,242.1875,0.0
1741084832.0278277,969.23828125,775.87890625,796.38671875,132.8125,0.0
1741084832.0317261,969.23828125,716.796875,752.44140625,20.01953125,0.0
1741084832.0356247,969.23828125,640.625,702.1484375,41.015625,0.0
1741084832.0396178,969.7265625,556.15234375,636.71875,70.3125,0.0
1741084832.0435164,969.7265625,492.67578125,585.44921875,18.06640625,0.0
1741084832.047415,969.23828125,435.546875,529.296875,-77.1484375,0.0
1741084832.0513134,969.23828125,358.88671875,450.1953125,-56.640625,0.0
1741084832.055212,969.23828125,298.33984375,404.78515625,70.3125,0.0
1741084832.0591106,969.23828125,256.34765625,372.55859375,113.76953125,0.0
1741084832.063009,969.23828125,210.44921875,318.359375,71.2890625,0.0
1741084832.0669076,969.23828125,166.50390625,283.203125,135.25390625,0.0
1741084832.0708063,969.23828125,137.6953125,242.67578125,348.14453125,0.0
1741084832.0747046,969.23828125,97.65625,195.3125,494.140625,0.0
1741084832.0786033,969.23828125,58.10546875,155.2734375,508.30078125,0.0
1741084832.082502,969.23828125,31.73828125,129.39453125,557.12890625,0.0
1741084832.0865028,0.0,-12.6953125,94.7265625,722.65625,0.0
1741084832.0904014,0.0,-55.17578125,50.78125,867.67578125,0.0
1741084832.0943,0.0,-83.984375,31.25,870.60546875,0.0
1741084832.0981984,0.0,-103.02734375,0.0,851.07421875,0.0
1741084832.102097,0.0,-117.67578125,-29.296875,939.94140625,0.0
1741084832.1059957,0.0,-148.4375,-37.59765625,977.05078125,0.0
1741084832.109894,0.0,-166.015625,-87.40234375,965.8203125,0.0
1741084832.1137927,0.0,-173.828125,-104.98046875,970.703125,0.0
1741084832.1176913,0.0,-196.77734375,-109.86328125,969.7265625,0.0
1741084832.1215897,0.0,-217.28515625,-144.04296875,969.7265625,0.0
1741084832.1254883,0.0,-215.33203125,-163.0859375,969.7265625,0.0
1741084832.129387,0.0,-224.609375,-157.2265625,970.21484375,0.0
1741084832.1333773,969.23828125,-229.4921875,-180.17578125,969.7265625,0.0
1741084832.137276,969.23828125,-235.3515625,-186.5234375,970.21484375,0.0
1741084832.1411743,969.23828125,-246.58203125,-179.6875,969.7265625,0.0
1741084832.145073,969.23828125,-255.859375,-203.61328125,969.7265625,0.0
1741084832.1489716,969.23828125,-274.4140625,-222.16796875,970.703125,0.0
1741084832.15287,969.23828125,-286.1328125,-226.5625,967.28515625,0.0
1741084832.1567686,969.23828125,-289.0625,-228.515625,971.19140625,0.0
1741084832.1606672,969.23828125,-287.109375,-248.046875,970.21484375,0.0
1741084832.1645656,969.23828125,-280.76171875,-254.8828125,884.27734375,0.0
1741084832.1684642,969.23828125,-299.31640625,-270.99609375,854.00390625,0.0
1741084832.1723628,969.23828125,-315.4296875,-300.29296875,929.6875,0.0
1741084832.1762612,969.23828125,-321.77734375,-292.96875,899.4140625,0.0
1741084832.1802511,969.23828125,-330.078125,-289.55078125,759.27734375,0.0
1741084832.1841495,969.23828125,-326.171875,-290.0390625,713.37890625,0.0
1741084832.1880481,969.23828125,-327.63671875,-291.015625,796.875,0.0
1741084832.1919467,969.23828125,-333.984375,-295.8984375,814.453125,0.0
1741084832.1958451,969.7265625,-336.9140625,-306.640625,699.70703125,0.0
1741084832.1997437,970.21484375,-344.7265625,-319.3359375,614.74609375,0.0
1741084832.2036424,960.9375,-345.703125,-320.3125,666.9921875,0.0
1741084832.2075408,979.98046875,-344.23828125,-319.82421875,701.66015625,0.0
1741084832.2114394,905.76171875,-349.12109375,-311.5234375,601.5625,0.0
1741084832.215338,679.6875,-358.3984375,-313.96484375,495.1171875,0.0
1741084832.2192364,662.109375,-364.74609375,-322.75390625,503.90625,0.0
1741084832.223135,718.75,-360.83984375,-312.01171875,546.38671875,0.0
1741084832.2271237,548.828125,-351.5625,-301.26953125,483.88671875,0.0
1741084832.2310224,352.5390625,-366.69921875,-312.01171875,355.46875,0.0
1741084832.234921,387.20703125,-397.4609375,-328.125,301.7578125,0.0
1741084832.2388194,541.015625,-391.11328125,-322.75390625,332.03125,0.0
1741084832.242718,534.66796875,-385.7421875,-313.4765625,321.2890625,0.0
1741084832.2466166,388.18359375,-396.97265625,-309.5703125,244.62890625,0.0
1741084832.250515,370.60546875,-395.99609375,-309.08203125,245.1171875,0.0
1741084832.2544136,570.3125,-383.30078125,-316.89453125,359.86328125,0.0
1741084832.2583122,687.98828125,-367.1875,-335.9375,413.57421875,0.0
1741084832.2622106,579.1015625,-377.44140625,-321.2890625,338.8671875,0.0
1741084832.2661092,531.73828125,-375.48828125,-300.78125,314.94140625,0.0
1741084832.2700078,678.22265625,-357.421875,-303.7109375,396.97265625,0.0
1741084832.2739959,0.0,-344.23828125,-304.19921875,461.9140625,0.0
1741084832.2778945,0.0,-336.42578125,-300.78125,398.4375,0.0
1741084832.2817929,0.0,-342.7734375,-300.78125,316.89453125,0.0
1741084832.2856915,0.0,-333.49609375,-312.01171875,372.0703125,0.0
1741084832.2895901,0.0,-314.94140625,-308.10546875,475.5859375,0.0
1741084832.2934885,0.0,-333.49609375,-294.921875,441.89453125,0.0
1741084832.2973871,0.0,-354.00390625,-299.31640625,310.05859375,0.0
1741084832.3012857,0.0,-318.84765625,-307.6171875,276.85546875,0.0
1741084832.3051844,0.0,-298.828125,-316.40625,369.140625,0.0
1741084832.3090827,0.0,-308.59375,-307.6171875,381.34765625,0.0
1741084832.3129814,0.0,-315.91796875,-304.6875,275.390625,0.0
1741084832.31688,0.0,-311.03515625,-309.08203125,238.76953125,0.0
1741084832.3208747,610.3515625,-299.31640625,-304.19921875,317.3828125,0.0
1741084832.324773,656.73828125,-296.38671875,-307.6171875,345.21484375,0.0
1741084832.3286717,511.71875,-304.19921875,-310.546875,256.8359375,0.0
1741084832.3325703,418.9453125,-311.5234375,-296.38671875,177.734375,0.0
1741084832.3364687,536.1328125,-305.17578125,-299.31640625,234.86328125,0.0
1741084832.3403673,635.25390625,-281.25,-307.12890625,285.15625,0.0
1741084832.344266,511.23046875,-290.52734375,-297.36328125,215.8203125,0.0
1741084832.3481643,362.79296875,-305.17578125,-296.38671875,122.0703125,0.0
1741084832.352063,422.36328125,-300.78125,-292.48046875,132.8125,0.0
1741084832.3559616,552.24609375,-301.7578125,-280.76171875,226.07421875,0.0
1741084832.3598602,480.95703125,-291.015625,-274.4140625,194.82421875,0.0
1741084832.3637586,303.7109375,-289.55078125,-262.20703125,89.35546875,0.0
1741084832.3677523,291.9921875,-291.50390625,-264.16015625,85.9375,0.0
1741084832.371651,449.21875,-292.96875,-293.9453125,158.69140625,0.0
1741084832.3755493,454.58984375,-288.0859375,-285.15625,161.1328125,0.0
1741084832.379448,272.94921875,-265.625,-264.16015625,65.4296875,0.0
1741084832.3833466,221.6796875,-242.67578125,-270.99609375,24.90234375,0.0
1741084832.387245,359.86328125,-245.1171875,-254.8828125,96.6796875,0.0
1741084832.3911436,438.4765625,-246.09375,-243.65234375,150.390625,0.0
1741084832.3950422,290.52734375,-239.74609375,-254.8828125,71.77734375,0.0
1741084832.3989408,163.57421875,-259.27734375,-258.30078125,11.23046875,0.0
1741084832.4028392,282.71484375,-257.32421875,-251.953125,84.9609375,0.0
1741084832.4067378,397.94921875,-234.86328125,-246.09375,151.3671875,0.0
1741084832.4106364,293.9453125,-233.3984375,-254.39453125,111.328125,0.0
1741084832.414629,136.71875,-239.74609375,-258.7890625,27.34375,0.0
1741084832.4185276,192.3828125,-232.91015625,-271.97265625,48.33984375,0.0
1741084832.4224262,338.8671875,-225.09765625,-269.53125,136.23046875,0.0
1741084832.4263246,291.50390625,-228.02734375,-237.79296875,108.88671875,0.0
1741084832.4302232,132.32421875,-218.26171875,-230.95703125,17.08984375,0.0
1741084832.4341218,164.55078125,-213.37890625,-251.953125,38.0859375,0.0
1741084832.4380202,311.03515625,-213.8671875,-251.953125,127.44140625,0.0
1741084832.4419188,356.93359375,-199.70703125,-228.515625,154.296875,0.0
1741084832.4458175,224.609375,-201.171875,-234.375,91.30859375,0.0
1741084832.449716,121.58203125,-217.7734375,-249.0234375,22.4609375,0.0
1741084832.4536145,236.81640625,-227.5390625,-239.74609375,73.73046875,0.0
1741084832.457513,326.171875,-207.51953125,-233.3984375,147.94921875,0.0
1741084832.4615047,217.28515625,-191.40625,-242.1875,96.6796875,0.0
1741084832.4654033,96.6796875,-193.359375,-240.72265625,19.53125,0.0
1741084832.469302,190.4296875,-194.3359375,-234.86328125,72.75390625,0.0
1741084832.4732003,333.0078125,-194.3359375,-238.28125,156.25,0.0
1741084832.477099,243.1640625,-207.51953125,-250.48828125,103.02734375,0.0
1741084832.4809976,69.3359375,-202.63671875,-240.72265625,15.13671875,0.0
1741084832.484896,114.74609375,-198.73046875,-213.37890625,57.12890625,0.0
1741084832.4887946,281.73828125,-197.265625,-189.94140625,162.59765625,0.0
1741084832.4926932,228.515625,-191.40625,-195.3125,137.20703125,0.0
1741084832.4965918,48.828125,-201.171875,-215.33203125,3.90625,0.0
1741084832.5004902,43.9453125,-195.80078125,-213.8671875,-22.4609375,0.0
1741084832.5043888,216.30859375,-180.17578125,-212.890625,91.796875,0.0
1741084832.5083795,265.625,-175.29296875,-208.984375,125.0,0.0
1741084832.512278,104.00390625,-183.10546875,-200.1953125,31.25,0.0
1741084832.5161765,46.875,-187.98828125,-206.0546875,-10.7421875,0.0
1741084832.520075,190.4296875,-187.01171875,-217.7734375,44.43359375,0.0
1741084832.5239737,279.78515625,-188.4765625,-218.26171875,87.890625,0.0
1741084832.5278723,167.48046875,-192.87109375,-202.1484375,46.38671875,0.0
1741084832.5317707,38.57421875,-174.31640625,-180.17578125,-26.85546875,0.0
1741084832.5356693,114.74609375,-175.29296875,-187.01171875,1.953125,0.0
1741084832.539568,257.32421875,-187.5,-198.2421875,69.82421875,0.0
1741084832.5434663,189.94140625,-178.7109375,-193.359375,38.0859375,0.0
1741084832.547365,25.87890625,-171.875,-194.82421875,-46.875,0.0
1741084832.5512636,60.546875,-173.828125,-194.3359375,-34.1796875,0.0
1741084832.5552535,218.75,-157.2265625,-191.40625,82.51953125,0.0
1741084832.559152,218.75,-144.04296875,-186.03515625,87.890625,0.0
1741084832.5630505,74.21875,-157.71484375,-189.453125,-23.4375,0.0
1741084832.5669491,37.59765625,-164.55078125,-180.6640625,-24.4140625,0.0
1741084832.5708477,177.734375,-147.4609375,-176.26953125,56.640625,0.0
1741084832.5747461,226.07421875,-150.87890625,-190.91796875,74.21875,0.0
1741084832.5786448,62.01171875,-163.57421875,-194.3359375,-7.8125,0.0
1741084832.5825434,-24.90234375,-167.96875,-180.17578125,-62.01171875,0.0
1741084832.5864418,106.93359375,-163.57421875,-166.50390625,3.90625,0.0
1741084832.5903404,219.23828125,-159.1796875,-172.8515625,71.77734375,0.0
1741084832.594239,126.953125,-157.71484375,-174.8046875,32.71484375,0.0
1741084832.5981376,6.8359375,-149.4140625,-163.57421875,-32.2265625,0.0
1741084832.6021266,74.70703125,-138.671875,-166.9921875,-4.8828125,0.0
1741084832.6060252,211.42578125,-140.13671875,-168.9453125,81.0546875,0.0
1741084832.6099238,161.62109375,-155.2734375,-166.50390625,53.7109375,0.0
1741084832.6138225,25.87890625,-144.53125,-162.59765625,-34.66796875,0.0
1741084832.6177208,28.3203125,-144.04296875,-166.015625,-28.80859375,0.0
1741084832.6216195,155.76171875,-150.87890625,-170.8984375,56.15234375,0.0
1741084832.625518,179.19921875,-145.99609375,-164.0625,71.77734375,0.0
1741084832.6294167,16.11328125,-152.34375,-169.43359375,-29.296875,0.0
1741084832.633315,-44.921875,-154.296875,-166.015625,-61.03515625,0.0
1741084832.6372137,122.0703125,-134.765625,-141.6015625,38.57421875,0.0
1741084832.6411123,206.0546875,-118.1640625,-132.8125,96.6796875,0.0
1741084832.6450107,39.55078125,-121.58203125,-145.99609375,7.32421875,0.0
1741084832.6489985,-68.359375,-121.58203125,-139.16015625,-65.4296875,0.0
1741084832.6528971,49.31640625,-124.51171875,-135.25390625,9.765625,0.0
1741084832.6567955,155.76171875,-138.671875,-154.78515625,86.42578125,0.0
1741084832.6606941,74.70703125,-131.34765625,-149.90234375,49.8046875,0.0
1741084832.6645927,-47.8515625,-127.44140625,-140.13671875,-34.66796875,0.0
1741084832.6684914,20.01953125,-136.23046875,-149.4140625,-0.48828125,0.0
1741084832.6723897,159.66796875,-124.0234375,-149.4140625,96.6796875,0.0
1741084832.6762884,104.00390625,-112.79296875,-144.53125,66.40625,0.0
1741084832.680187,-57.6171875,-122.55859375,-154.296875,-24.4140625,0.0
1741084832.6840854,-47.36328125,-134.27734375,-145.5078125,-32.2265625,0.0
1741084832.687984,110.83984375,-134.27734375,-123.53515625,56.15234375,0.0
1741084832.6918826,144.04296875,-120.1171875,-129.39453125,81.54296875,0.0
1741084832.6958773,-26.85546875,-124.0234375,-131.34765625,-15.625,0.0
1741084832.6997757,-91.30859375,-128.90625,-125.48828125,-46.38671875,0.0
1741084832.7036743,55.17578125,-123.046875,-128.41796875,48.33984375,0.0
1741084832.707573,157.2265625,-122.0703125,-147.4609375,98.14453125,0.0
1741084832.7114716,37.59765625,-129.8828125,-165.52734375,20.99609375,0.0
1741084832.71537,-110.83984375,-141.6015625,-131.8359375,-57.12890625,0.0
1741084832.7192686,-12.6953125,-137.20703125,-114.74609375,-24.4140625,0.0
1741084832.7231672,124.51171875,-131.34765625,-141.6015625,44.921875,0.0
1741084832.7270658,25.390625,-127.9296875,-138.18359375,17.08984375,0.0
1741084832.7309642,-124.51171875,-129.8828125,-125.9765625,-55.6640625,0.0
1741084832.7348628,-58.59375,-112.3046875,-133.7890625,-48.828125,0.0
1741084832.7387614,118.1640625,-101.07421875,-142.08984375,36.62109375,0.0
1741084832.7427552,110.3515625,-105.95703125,-141.6015625,41.015625,0.0
1741084832.7466536,-51.7578125,-106.4453125,-141.11328125,-57.12890625,0.0
1741084832.7505522,-91.30859375,-122.55859375,-148.92578125,-91.30859375,0.0
1741084832.7544508,67.3828125,-114.74609375,-147.4609375,7.8125,0.0
1741084832.7583494,143.5546875,-99.12109375,-141.11328125,49.8046875,0.0
1741084832.7622478,-10.25390625,-99.609375,-133.7890625,-37.109375,0.0
1741084832.7661464,-103.02734375,-107.91015625,-129.8828125,-94.7265625,0.0
1741084832.770045,42.96875,-128.90625,-125.9765625,-39.0625,0.0
1741084832.7739437,161.1328125,-118.65234375,-125.48828125,31.73828125,0.0
1741084832.777842,37.109375,-97.65625,-125.0,-21.484375,0.0
1741084832.7817407,-104.4921875,-94.7265625,-124.51171875,-104.98046875,0.0
1741084832.7856393,-8.30078125,-98.14453125,-125.48828125,-58.10546875,0.0
1741084832.789632,141.6015625,-92.7734375,-139.6484375,35.15625,0.0
1741084832.7935307,86.42578125,-98.14453125,-133.30078125,13.671875,0.0
1741084832.797429,-61.5234375,-109.86328125,-113.28125,-69.3359375,0.0
1741084832.8013277,-36.1328125,-103.515625,-117.67578125,-55.17578125,0.0
1741084832.8052263,110.83984375,-105.46875,-128.90625,36.1328125,0.0
1741084832.809125,103.02734375,-112.3046875,-140.625,41.50390625,0.0
1741084832.8130233,-54.6875,-104.00390625,-127.44140625,-54.6875,0.0
1741084832.816922,-94.7265625,-102.5390625,-110.3515625,-92.28515625,0.0
1741084832.8208206,43.9453125,-122.0703125,-106.4453125,-7.32421875,0.0
1741084832.8247192,111.328125,-120.60546875,-112.3046875,35.15625,0.0
1741084832.8286176,-21.97265625,-105.95703125,-125.9765625,-42.96875,0.0
1741084832.8325162,-116.2109375,-97.65625,-124.0234375,-96.19140625,0.0
1741084832.836508,3.41796875,-106.4453125,-115.72265625,-35.64453125,0.0
1741084832.8404067,108.88671875,-106.4453125,-111.81640625,39.0625,0.0
1741084832.844305,2.44140625,-103.515625,-110.3515625,-9.765625,0.0
1741084832.8482037,-130.859375,-109.375,-110.3515625,-84.47265625,0.0
1741084832.8521023,-59.5703125,-112.79296875,-121.58203125,-48.828125,0.0
1741084832.856001,89.35546875,-111.328125,-118.65234375,30.76171875,0.0
1741084832.8598993,55.17578125,-105.95703125,-103.515625,15.13671875,0.0
1741084832.863798,-112.79296875,-107.421875,-110.3515625,-70.80078125,0.0
1741084832.8676965,-114.2578125,-109.375,-116.69921875,-70.80078125,0.0
1741084832.8715951,32.71484375,-105.95703125,-112.79296875,19.04296875,0.0
1741084832.8754935,51.7578125,-109.86328125,-107.421875,32.2265625,0.0
1741084832.8793921,-97.16796875,-120.1171875,-96.19140625,-58.59375,0.0
1741084832.8833826,-150.390625,-105.95703125,-99.12109375,-98.6328125,0.0
1741084832.887281,-9.27734375,-95.21484375,-107.91015625,-20.99609375,0.0
1741084832.8911796,61.03515625,-104.00390625,-114.74609375,23.92578125,0.0
1741084832.8950782,-56.15234375,-103.515625,-105.46875,-39.0625,0.0
1741084832.8989768,-145.01953125,-95.703125,-107.91015625,-93.75,0.0
1741084832.9028752,-26.85546875,-84.47265625,-117.67578125,-37.109375,0.0
1741084832.9067738,107.421875,-81.54296875,-106.93359375,35.64453125,0.0
1741084832.9106724,17.08984375,-90.33203125,-97.16796875,-14.16015625,0.0
1741084832.914571,-134.27734375,-92.7734375,-92.7734375,-99.609375,0.0
1741084832.9184694,-83.984375,-87.40234375,-103.515625,-85.9375,0.0
1741084832.922368,70.3125,-88.37890625,-117.1875,2.9296875,0.0
