timestamps,TP9,AF7,AF8,TP10,Right AUX
1740797233.4677255,0.0009033707339374036,-0.21247705809149808,1.061436669398848,0.024399197220073762,nan
1740797233.4716315,0.07865888505253367,0.30156236649528645,0.7627596417892528,-0.33312145086514783,nan
1740797233.4755373,0.24688482522285746,0.7221693644154257,0.15947923172085404,-0.23555850115021756,nan
1740797233.4794433,0.2713004685441168,0.7757450364700486,-0.5286483005573441,0.06918492833212964,nan
1740797233.4833493,0.0371864595454538,0.4594348804225227,-1.0150053446598792,0.128452097727936,nan
1740797233.487255,-0.2784980456852566,0.012027703387598728,-1.0330999546667443,-0.14039148193805526,nan
1740797233.491161,-0.3858333457677476,-0.31984132343564814,-0.5357631828665754,-0.3568419711690001,nan
1740797233.4950671,-0.20571089504154944,-0.47269689976133183,0.18939879294334974,-0.18017121019498755,nan
1740797233.4989731,0.05064041279974856,-0.5390015657752153,0.6936563104826563,0.23185099143662136,nan
1740797233.502879,0.1367001625923524,-0.5845486189603671,0.7302806632864229,0.3980534255517592,nan
1740797233.506785,0.04451673662674842,-0.5256243077535413,0.44549982917401176,0.11194223580830746,nan
1740797233.510691,-0.026967557313660826,-0.2076678708589448,0.18062434425045412,-0.2890409438042331,nan
1740797233.5146,0.053899679682399566,0.38490220246547735,0.09662821687911866,-0.3282566491055354,nan
1740797233.518506,0.18802870738719688,1.0024497589456234,0.04130512571201855,0.03112782005802116,nan
1740797233.5224118,0.1860807234229133,1.2447767402677545,-0.1999398338798325,0.3509079646881108,nan
1740797233.5263178,0.01773350715360681,0.8600178984181278,-0.5790445480997384,0.2630942940287862,nan
1740797233.5302238,-0.14817042164052704,-0.014976747419906315,-0.7819378928764126,-0.08807244529228095,nan
1740797233.5341296,-0.15154052485606326,-0.8992736217959774,-0.5601221999718156,-0.24914764771017245,nan
1740797233.5380356,-0.027221692363904686,-1.295016194461511,-0.014782090507189904,-0.034692730428437506,nan
1740797233.5419416,0.05439327500977295,-1.0407527585586749,0.4902581279114549,0.24843078558110396,nan
1740797233.5458477,-0.0006105632406519221,-0.394397853581314,0.6781238895366458,0.19749637120009764,nan
1740797233.5497534,-0.112054901571002,0.21702713275130636,0.5753109456063034,-0.17824217803989295,nan
1740797233.5536594,-0.14103661852005742,0.5425199792036988,0.38314339009672305,-0.4672175720899164,nan
1740797233.5575655,-0.05081662499459583,0.6326530350890975,0.20370336757192342,-0.35059664734073204,nan
1740797233.5614743,0.07859270793504801,0.6615261658846945,-0.03725204749713019,0.03939098999716117,nan
1740797233.5653803,0.16165725781270726,0.6669332410696205,-0.40055868352817825,0.3142366917329112,nan
1740797233.5692863,0.1790152228054842,0.4979322027371296,-0.7435024649289207,0.292375051785044,nan
1740797233.5731921,0.14118338014976325,0.022400308157026594,-0.7918590623134513,0.14843324999817356,nan
1740797233.5770981,0.043233966319280545,-0.6389736604354246,-0.4156408636866784,0.11182695910051904,nan
1740797233.5810041,-0.1002400014787774,-1.120180632273297,0.19673281957313743,0.15372009302168896,nan
1740797233.58491,-0.20637313085809414,-1.0803939798247255,0.6646815250916469,0.07030137409408581,nan
1740797233.588816,-0.1782602144852476,-0.4934227386276816,0.7219576426858484,-0.18430862482827534,nan
1740797233.592722,-0.02841014995062204,0.30783594363456196,0.41104903679159266,-0.3890812118633198,nan
1740797233.5966277,0.09910793118483317,0.8685367477581646,0.007102568909362703,-0.32659054998448994,nan
1740797233.6005337,0.07742105859092001,0.9260724305241335,-0.22523822892434237,-0.06971313665674121,nan
1740797233.6044397,-0.046978612514997214,0.5555108277013471,-0.21805593109260737,0.10423308686857458,nan
1740797233.6083484,-0.09873968438870337,0.062245952081873834,-0.09890109449018618,0.06524839962731302,nan
1740797233.6122544,0.012550381251062425,-0.2624687408095231,-0.042789955869439115,-0.013868195458386214,nan
1740797233.6161604,0.1701354984843894,-0.32701242290116894,-0.11499574209545856,0.09407521966829292,nan
1740797233.6200664,0.18486861889657633,-0.24301707951418924,-0.22534315099684565,0.3412235622385299,nan
1740797233.6239722,0.029250537238998012,-0.17543462940598656,-0.22407692469846419,0.4296671672979406,nan
1740797233.6278782,-0.12513800956660406,-0.18317653408326162,-0.057930826976674156,0.17380476756735952,nan
1740797233.6317842,-0.12065302236320859,-0.1901233568217763,0.15917534933924476,-0.2507946642145082,nan
1740797233.63569,-0.007431102731543096,-0.10046730925627244,0.24826707749615937,-0.48419879563517965,nan
1740797233.639596,0.03370198621794326,0.07086963556948798,0.15762662608589562,-0.36930039249587887,nan
1740797233.643502,-0.059048199145167984,0.20045232807068888,0.037216964770014,-0.08759722037159486,nan
1740797233.6474078,-0.13697724920535526,0.19551220667885758,0.07843527947903835,0.08978004814608488,nan
1740797233.6513138,-0.0399301254760764,0.11019193907609308,0.26533685367066556,0.10193319716716494,nan
1740797233.6552224,0.16722244482075735,0.08740497138369392,0.3323315069638441,0.09289913892718533,nan
1740797233.6591284,0.24218527791445427,0.17404378976473825,0.03656397767041509,0.1596729324778492,nan
1740797233.6630342,0.061819536435578984,0.2297649756925278,-0.5151202310908369,0.210845449094203,nan
1740797233.6669402,-0.2010065589540407,0.07144820764224254,-0.8721498897045058,0.11154281425554413,nan
1740797233.6708462,-0.2600145929639737,-0.28008936397869466,-0.6462727110590623,-0.10086647529259385,nan
1740797233.6747522,-0.05025587577191648,-0.5447659854478807,0.07226519505098279,-0.2292109260242207,nan
1740797233.678658,0.19418010899771196,-0.4360492060490732,0.7450889561315395,-0.1449455507387729,nan
1740797233.682564,0.21856300775060808,0.014673742591960394,0.8696733403954089,0.059583133620809484,nan
1740797233.68647,0.04066180631624504,0.42742100440377784,0.4315021836387366,0.17931381363529972,nan
1740797233.6903758,-0.09836986645201812,0.4202811837036777,-0.135752484056667,0.1182702138016171,nan
1740797233.6942818,-0.051128536600224476,0.0026007649198033123,-0.4105354738186598,-0.04042882161141409,nan
1740797233.6981878,0.05841693137005496,-0.4032860507402696,-0.3513265258387486,-0.162176062573053,nan
1740797233.7020962,0.018464254557396607,-0.3643702134519844,-0.2054819234051531,-0.1923284763813117,nan
1740797233.7060022,-0.17023137219432244,0.12874158872314612,-0.1387674087807237,-0.1446533332104216,nan
1740797233.7099082,-0.27216400980052263,0.635175144384946,-0.0622519193909145,-0.026412530121692684,nan
1740797233.713814,-0.11119922663753891,0.6765037845340793,0.15614430199586088,0.15126428649805937,nan
1740797233.71772,0.18994011736971408,0.1820070605674455,0.4093641151250321,0.30063035695240525,nan
1740797233.721626,0.33458664664087917,-0.4601582751053188,0.40248879809024846,0.2813555057801192,nan
1740797233.725532,0.19538574017630345,-0.7705441439371453,0.01219080574265461,0.05566085228803584,nan
1740797233.7294378,-0.044697112773727045,-0.5896921443466281,-0.4853230235992918,-0.21332584626101983,nan
1740797233.7333438,-0.12276883811976151,-0.1528088140492526,-0.6350422465561582,-0.2912821065855381,nan
1740797233.7372499,-0.008543223018044032,0.19292935383676116,-0.2642351959742712,-0.1213815395439518,nan
1740797233.7411556,0.08244812111217267,0.30892088356519004,0.32381966011646296,0.10234952209254734,nan
1740797233.7450616,-0.022895279216245772,0.3112030950613251,0.6425681243893925,0.14754245242228067,nan
1740797233.7489698,-0.23172401831853048,0.34366375469454785,0.4824778301996384,0.002323306417684315,nan
1740797233.7528758,-0.29733883117017024,0.36384932005078496,0.05668602140210471,-0.12945635536408445,nan
1740797233.7567818,-0.11651010842391427,0.19498188366613473,-0.2733490839705887,-0.08793466740758014,nan
1740797233.7606876,0.1533820734684084,-0.2089947713368908,-0.3452118757868765,0.05248644262481089,nan
1740797233.7645936,0.2819618004437304,-0.5984683233035493,-0.25424360223151515,0.09667943339355091,nan
1740797233.7684996,0.2114619310292498,-0.6023752269275507,-0.14504784030156995,-0.00640523014113021,nan
1740797233.7724054,0.0733931181355795,-0.11795470926225353,-0.04397275910918762,-0.09247202907837115,nan
1740797233.7763114,-0.0023791802538352517,0.4917518186385906,0.0862398206172426,0.00043686108726266853,nan
1740797233.7802174,-0.022247315851340276,0.6686108922444761,0.20924570925054548,0.20354644618406204,nan
1740797233.7841232,-0.058809089340764426,0.19904610933119488,0.22049848268679456,0.2765831066176579,nan
1740797233.7880292,-0.11349595283753151,-0.5174245319000467,0.0899757557450449,0.09215257026389012,nan
1740797233.7919352,-0.11701571257971746,-0.803571636770912,-0.07050320797427227,-0.20210374168396855,nan
1740797233.7958448,-0.05355397589399564,-0.3627679476749666,-0.1268536236230386,-0.341977142533026,nan
1740797233.7997506,-0.008974620061116372,0.40766061378321744,-0.07645898986790951,-0.2329342637654736,nan
1740797233.8036566,-0.05220178408870464,0.8056826774368014,-0.026056763637476037,-0.02669932451435872,nan
1740797233.8075626,-0.10996427292885694,0.5345191684538385,-0.022359763200012477,0.08037082603077102,nan
1740797233.8114686,-0.03249478883693651,-0.021516416494880536,0.021907341461373905,0.06345927005211034,nan
1740797233.8153744,0.20018945410427316,-0.25954152773326183,0.17975406886021136,0.048432596255877015,nan
1740797233.8192804,0.39371933919506297,-0.04459768587439178,0.32788588830114096,0.1156735550432391,nan
1740797233.8231864,0.3188742828809063,0.16105538720486592,0.21341413258639727,0.1945485886953758,nan
1740797233.8270922,-0.02633716492379753,-0.11712242600687073,-0.23948013872855498,0.16900050889654333,nan
1740797233.8309982,-0.3778574016175037,-0.7398109872109443,-0.731302929474283,0.03549153790338686,nan
1740797233.8349042,-0.45240311262000227,-1.0323672670131854,-0.7901174678254484,-0.09475113930446487,nan
1740797233.83881,-0.21657231753605746,-0.5151979904050131,-0.2305291817387256,-0.1367590970224461,nan
1740797233.8427196,0.10554908352857753,0.5280785786936716,0.6028192236679488,-0.12102193468134866,nan
1740797233.8466256,0.27023415638003356,1.2912348063072647,1.0941287697986166,-0.1228837681934575,nan
1740797233.8505313,0.22402998200742227,1.2298463278541778,0.8872336900071227,-0.14415520405470636,nan
1740797233.8544374,0.08473198091839665,0.5285748581765255,0.17415738707136616,-0.11252812845719264,nan
1740797233.8583434,-0.027555205479301615,-0.2076761994405163,-0.5160132382115468,0.006744417527220826,nan
1740797233.8622491,-0.09021426016409022,-0.6015715448659028,-0.7818794711002928,0.14549676931126768,nan
1740797233.8661551,-0.12618361136457007,-0.7331455477402579,-0.6138953585471849,0.2039225722254127,nan
1740797233.8700612,-0.12011607948888377,-0.7893472131987003,-0.2714715421601708,0.16267891162949685,nan
1740797233.8739672,-0.03375493091309117,-0.6976055176168184,0.011831128475796617,0.0907668260164153,nan
1740797233.877873,0.11045357995177155,-0.25838697848138015,0.17723272345822974,0.04913250492042096,nan
1740797233.881779,0.20986442403678054,0.4307557987684581,0.26593605888470484,0.02404046345353321,nan
1740797233.885685,0.17126719766105125,0.8986570835108171,0.2949819258116724,-0.029915765656992162,nan
1740797233.8895955,0.008230858705865172,0.7698747073416294,0.247333635880186,-0.11204825384905308,nan
1740797233.8935015,-0.1668592759489252,0.22656568329806903,0.1434165914987166,-0.17499916711772204,nan
1740797233.8974075,-0.24209857184425657,-0.15679699555563625,0.055671528621278825,-0.19074943802764227,nan
1740797233.9013133,-0.18702703236066281,-0.06733436804615743,0.028068921998968984,-0.1752376876023487,nan
1740797233.9052193,-0.0490296737908706,0.18603454390291654,0.010269724191365733,-0.13394599531032328,nan
1740797233.9091253,0.09844568630944597,0.07160295794151098,-0.08975425783154214,-0.023474452437535404,nan
1740797233.9130313,0.19253560175473616,-0.47129034236973066,-0.28008574028038424,0.1845700335382921,nan
1740797233.916937,0.19460668122196284,-0.8998410218937903,-0.43376795437577925,0.40594608754121353,nan
1740797233.9208431,0.10698399047011348,-0.6876918858968346,-0.38799382475858596,0.46475826110546636,nan
1740797233.9247491,-0.015407001674089442,0.03844657920371614,-0.10558025790676313,0.25645256323784854,nan
1740797233.928655,-0.09537245154541715,0.6204170237429304,0.26288873109643035,-0.11746110529419425,nan
1740797233.932561,-0.09811988490184924,0.6085384344779327,0.4857726732826124,-0.41241602996991483,nan
1740797233.93647,-0.06083945942508919,0.2305795837615495,0.43540621085666276,-0.4526239976047241,nan
1740797233.9403758,-0.0427180439533625,0.04190327063993664,0.18753650774953323,-0.2693162750223847,nan
1740797233.9442818,-0.050475611306097165,0.216903185941897,-0.053022185827922556,-0.031048523161861036,nan
1740797233.9481878,-0.035787368666828016,0.3664252254412561,-0.13480100566762876,0.1292952153315071,nan
1740797233.9520936,0.0275989407745766,0.08803831259109038,-0.08551876260202339,0.19254546478173729,nan
1740797233.9559996,0.0904729974106073,-0.46732746948441073,-0.06210425565573276,0.18939789910643604,nan
1740797233.9599056,0.08039101934921207,-0.74135677044945,-0.16772400600850554,0.12771882381127514,nan
1740797233.9638114,0.0008815948220235314,-0.4495372311365748,-0.3179426307805904,0.017909415849023325,nan
1740797233.9677174,-0.05666553662167877,0.0608006725035142,-0.3091375228690409,-0.07050968824532136,nan
1740797233.9716234,-0.019558463417458108,0.23298691672558233,-0.043048975710935314,-0.04907828771022281,nan
1740797233.9755294,0.06932027854445781,-0.017273043357362884,0.3225369897313765,0.07136160170228112,nan
1740797233.9794352,0.09488921610197389,-0.21119908623859526,0.4838890725404308,0.14928394711178775,nan
1740797233.983344,0.010666419692561463,0.07519737414043272,0.28440045093351823,0.0522329205741104,nan
1740797233.98725,-0.09769342839866342,0.647631615740541,-0.10672417406192528,-0.17469172858580637,nan
1740797233.9911559,-0.11250586214081378,0.8835535866996175,-0.3393972339520619,-0.32531292892945113,nan
1740797233.9950619,-0.02773606298369281,0.45227962238275293,-0.22323106868944975,-0.24233100174453143,nan
1740797233.998968,0.044660357688398426,-0.2981834213976977,0.0898852389239138,0.011011923502572261,nan
1740797234.0028737,0.016511033080164737,-0.7355879199355615,0.27794006730501125,0.2173362280596091,nan
1740797234.0067797,-0.0644568697313946,-0.6282876467491164,0.1861362441658319,0.23219199378615046,nan
1740797234.0106857,-0.07442617657630579,-0.3152521494986388,-0.04143152344553261,0.11079882185579497,nan
1740797234.0145917,0.029546746655909287,-0.2125500190650532,-0.16599698706733956,0.0065330004298832746,nan
1740797234.0184975,0.15199371795950678,-0.2974240363835957,-0.13566782271678904,-0.011531282619161295,nan
1740797234.0224035,0.16963665359056007,-0.18599909321478078,-0.10693726082426452,-0.0008516238664263745,nan
1740797234.0263095,0.06860761000846015,0.33126866867494376,-0.19557195862304552,-0.027396614111239004,nan
1740797234.030218,-0.05639023871026994,0.9643686163067854,-0.28394367112983776,-0.06770640764846089,nan
1740797234.034124,-0.12116760368005318,1.182536719995617,-0.14528622066138822,-0.057575951326283445,nan
1740797234.03803,-0.1264694133578594,0.7359472939942342,0.25080076253519434,-0.0003147443198118055,nan
1740797234.0419357,-0.10679603986890603,-0.12965571052625066,0.6288253160637627,0.028456941319492123,nan
1740797234.0458417,-0.055078212621928,-0.920931993371973,0.65360527291392,-0.013354719949601145,nan
1740797234.0497477,0.05063345816503641,-1.2687256596730987,0.2704770429934293,-0.07162388585960967,nan
1740797234.0536537,0.1592787854181703,-1.077963189253661,-0.23912131437523668,-0.06921434856561935,nan
1740797234.0575595,0.1545197250339779,-0.46562263116804925,-0.5376904606363524,-0.012310058784325497,nan
1740797234.0614655,-0.004739264058450362,0.3147572781142031,-0.524258343411228,0.024183118242617634,nan
1740797234.0653715,-0.18325069669265304,0.9215616602458262,-0.338243806365818,0.014358562490203643,nan
1740797234.0692773,-0.17836170649270333,1.0647801049586274,-0.13719363568265436,0.02840056966480994,nan
1740797234.0731833,0.04499164069122543,0.7190779383707218,0.046924493485547,0.1248123873889183,nan
1740797234.0770917,0.2728712889887737,0.17376604928779812,0.22871614814249627,0.22942482522285795,nan
1740797234.0809977,0.25038421930679017,-0.21925551320322603,0.34240067350126957,0.18904408841884712,nan
1740797234.0849037,-0.030605641523442008,-0.36812860235197314,0.28784580432387613,-0.03537736893274909,nan
1740797234.0888095,-0.2998392686777254,-0.4558408067176725,0.09594215877335369,-0.2791717009389981,nan
1740797234.0927155,-0.291535198260969,-0.6155281033147385,-0.04443930495305986,-0.32987528586037645,nan
1740797234.0966215,-0.03080312010885919,-0.6794923614254891,0.010622741779587278,-0.1625287122581697,nan
1740797234.1005275,0.20249819322487284,-0.360584488323355,0.16460696826684093,0.032734280412830365,nan
1740797234.1044333,0.1880605077475088,0.32080136381755,0.16685183811111834,0.0754120100330007,nan
1740797234.1083393,-0.006024057903500572,0.9119846315325203,-0.08795827641956817,0.0016988029849623215,nan
1740797234.1122453,-0.13222169964061872,0.9306435786649198,-0.40963934222047943,-0.0007130613867216096,nan
1740797234.116151,-0.06100004697293725,0.3705218337785674,-0.5151669682675531,0.15283539975329527,nan
1740797234.120057,0.08983030723268598,-0.2801619220257487,-0.3464804627533268,0.32051141602075905,nan
1740797234.1239653,0.12670934472900897,-0.5416552476522238,-0.10563363631485964,0.29717758756600615,nan
1740797234.1278713,0.020537941876816023,-0.3900349343412116,0.03651901446073594,0.06055170434595934,nan
1740797234.131777,-0.07835630020263296,-0.1598654142457038,0.16787326893050286,-0.20212892862385012,nan
1740797234.135683,-0.047930580710133244,-0.08465706658464657,0.47039111220871166,-0.3082669410666445,nan
1740797234.139589,0.04975465540680612,-0.06874882800039173,0.8541610492179503,-0.2604487090733842,nan
1740797234.143495,0.05695428072678383,0.06645535005838116,0.9025769874995355,-0.1827526446073312,nan
1740797234.1474009,-0.06877621075588033,0.2537261494240524,0.30388129575076694,-0.12777792826891873,nan
1740797234.1513069,-0.1898794074558569,0.24687221143423527,-0.6883612027718924,-0.024874157142624403,nan
1740797234.1552129,-0.14896790618057149,-0.003761657232663057,-1.3572979382147545,0.17027191117291335,nan
1740797234.1591187,0.043793850686967076,-0.20776906600230646,-1.1753121998336349,0.3489723120299504,nan
1740797234.1630247,0.21711969628531236,-0.07842047848414123,-0.3291478531241833,0.3431991098208255,nan
1740797234.1669307,0.2211687945185648,0.25368429810046206,0.4732633242845316,0.13401032335339996,nan
1740797234.1708403,0.07183922539298324,0.3351405974096514,0.715167278633329,-0.10121119981568238,nan
1740797234.174746,-0.08912917746829385,-0.049452630252084614,0.5173708133305351,-0.18034432059005814,nan
1740797234.178652,-0.14447046848324438,-0.532383570412392,0.3507455749484139,-0.11324775793797066,nan
1740797234.182558,-0.09011263919877018,-0.5243451305133026,0.4047051891240626,-0.05829477288747312,nan
1740797234.1864638,0.0011671875713560394,0.0799094348565376,0.38519443485347643,-0.10260716437161414,nan
1740797234.1903698,0.0601563516014273,0.6923822628031873,-0.030066870610316793,-0.1556196957574046,nan
1740797234.1942759,0.057136435706035514,0.6297574978518493,-0.6673435577702351,-0.09017641491287454,nan
1740797234.1981816,-0.0027660036876136773,-0.11904403343404496,-0.9490625956069306,0.06605691126238233,nan
1740797234.2020876,-0.08103174569512468,-0.8296979343648845,-0.5393618421921818,0.15319201127952653,nan
1740797234.2059937,-0.11104957211259027,-0.7799182003699902,0.21673271642402953,0.0910506119108671,nan
1740797234.2098997,-0.044613109354050745,0.010064269344615143,0.615466699156547,-0.005796727986724974,nan
1740797234.2138054,0.0842955080646526,0.8164149215440271,0.34788062018472393,0.023843554910806936,nan
1740797234.217715,0.16472326873920395,0.9415394366419655,-0.17016705994156034,0.16194637649922272,nan
1740797234.221621,0.11243673439764179,0.340065251111989,-0.2810853071603783,0.21125437970096328,nan
1740797234.2255268,-0.028992987088792683,-0.4437823998225949,0.15731867869540492,0.04075803727465123,nan
1740797234.2294328,-0.1186572409546698,-0.8328207856907217,0.6011515647311886,-0.22861237066650242,nan
1740797234.2333388,-0.06748919711619024,-0.6486958746077497,0.4386170628771997,-0.34244650370023233,nan
1740797234.2372446,0.058165816169287725,-0.10255599498797809,-0.2903969616143338,-0.20026710564670486,nan
1740797234.2411506,0.10586122886417967,0.4538562424642541,-0.8808616312587856,0.03818366701866203,nan
1740797234.2450566,0.007858029020294031,0.7121899843535986,-0.6882767366181396,0.15136573308645165,nan
1740797234.2489624,-0.1411800673438629,0.4998220805429577,0.17768010279804855,0.10421563853051938,nan
1740797234.2528684,-0.1875597030391221,-0.10266937422019694,0.9266994933998324,0.04329914753381457,nan
1740797234.2567744,-0.08141835770496626,-0.6958539122247221,0.8535613803212424,0.07093553511602145,nan
1740797234.2606802,0.08248373437109789,-0.7732590759890192,0.015948679208720135,0.1091463919515373,nan
1740797234.2645853,0.17477796040817514,-0.17627362650957287,-0.8378967749006042,0.029568514810520724,nan
1740797234.2684913,0.15232527120111283,0.648118718282938,-0.9846954120213132,-0.136355000606051,nan
1740797234.272397,0.06486890394220565,0.9742845916792374,-0.3674855452402711,-0.20227066005218333,nan
1740797234.276303,-0.02298492324184816,0.4894046381753271,0.42535796832819556,-0.0567313560449409,nan
1740797234.280209,-0.08043870668772045,-0.36219342768008256,0.756484435080294,0.17594103155723034,nan
1740797234.284115,-0.09284361697153314,-0.8062688052310184,0.49873434597615934,0.2593983928168695,nan
1740797234.2880208,-0.046365589015523026,-0.5251767569326721,0.04798046180110376,0.10901977670861197,nan
1740797234.2919269,0.038107395006516255,0.04643745427917906,-0.14898968676509158,-0.12484654087902311,nan
1740797234.2958329,0.08153647428554112,0.2484069118233435,-0.03606330755100858,-0.24297126790480444,nan
1740797234.2997386,0.009995990679185114,-0.04840292376678015,0.07262657258972109,-0.2076389178820693,nan
1740797234.3036447,-0.1407759727641657,-0.3169559875470595,-0.09431777283430871,-0.12499774621190908,nan
1740797234.3075507,-0.21942380717276982,-0.024703117983589682,-0.4296384778480856,-0.05996485656068828,nan
1740797234.3114595,-0.10166799387794902,0.6862374372303385,-0.5565540029898506,0.043946241865192186,nan
1740797234.3153656,0.15726726161746632,1.079149090838063,-0.2600652759747367,0.2318595164498633,nan
1740797234.3192713,0.3449694007192866,0.5997597245198445,0.24275899250225508,0.3935030087818079,nan
1740797234.3231773,0.29044791217578136,-0.4930289546815028,0.510376622927483,0.34077067266155636,nan
1740797234.3270833,0.033923855356587304,-1.3261246722063107,0.3489141100983609,0.04166543892639623,nan
1740797234.3309894,-0.21504914812716297,-1.2297968456611694,0.021350708773865152,-0.2883334669868681,nan
1740797234.3348951,-0.2809787768924183,-0.33266402792620114,-0.05847198252717676,-0.38484320658940296,nan
1740797234.3388011,-0.16729293395715655,0.6234538752392712,0.18575210288367067,-0.21140708452633108,nan
1740797234.3427072,-0.00861742622144479,0.9856678060129569,0.3869334436815654,0.00919655607968828,nan
1740797234.346613,0.08145374895462441,0.6887436543177633,0.1581835992502111,0.049066557174280004,nan
1740797234.350519,0.09005770880410072,0.14724552577735148,-0.42460880249080624,-0.07890689286208144,nan
1740797234.354425,0.06002698423240303,-0.21509684398505327,-0.8487139924785759,-0.15727377159636247,nan
1740797234.3583336,0.020292459192103398,-0.2834396663206282,-0.6974425027071827,-0.021769010207890172,nan
1740797234.3622396,-0.017771253499639865,-0.19280827869479344,-0.09561802332725552,0.2588540390655164,nan
1740797234.3661456,-0.03070265173669979,-0.09332178218377231,0.4390846331240793,0.45995493349010624,nan
1740797234.3700516,0.002899202988874434,-0.03417759069925717,0.5590606981481027,0.41713621333048967,nan
1740797234.3739574,0.057219369001055814,-0.018617875793894772,0.4040920176435191,0.148330043984275,nan
1740797234.3778634,0.06860514961331848,-0.06529480773540601,0.32041050909648466,-0.1971827676608795,nan
1740797234.3817694,0.014015332743326054,-0.1646682583634829,0.3618579664841856,-0.45636479294296084,nan
1740797234.3856752,-0.045610308870360265,-0.21521727976929034,0.21993290796233386,-0.5246484322080851,nan
1740797234.3895812,-0.03814683010849515,-0.0808782231687253,-0.3112836560951151,-0.3798715960834074,nan
1740797234.3934872,0.011721155925511772,0.24651723667690822,-0.9252069516951399,-0.09235103346611596,nan
1740797234.397393,-0.0019392719934779176,0.5628192869567105,-1.018122990883255,0.19934861991800804,nan
1740797234.401299,-0.11597533250656035,0.5837070712851713,-0.3516456727723404,0.3731899213087761,nan
1740797234.4052076,-0.20447490188889852,0.20532073406795978,0.5987349377697846,0.40603830196836,nan
1740797234.4091136,-0.1020702320596632,-0.35734768804762634,1.0574648976311065,0.35192677731911826,nan
1740797234.4130194,0.16881680029365664,-0.7142934834810643,0.7052237752763705,0.2337224006993845,nan
1740797234.4169254,0.35835869363193956,-0.6182656672750872,-0.04334815391160935,0.003532907272483884,nan
1740797234.4208314,0.24229081855475015,-0.1696580358387063,-0.5177130813816394,-0.3394803465374928,nan
1740797234.4247375,-0.09665441633890365,0.2812203160087931,-0.45880238978413124,-0.6182372827644194,nan
1740797234.4286432,-0.3130778146942726,0.44004356015033214,-0.1520915379722179,-0.5633508397636793,nan
1740797234.4325492,-0.1694202478343031,0.295764534368512,0.024588503456159615,-0.1030559868599265,nan
1740797234.4364552,0.17448938710312317,0.07165350786230623,0.028717353964827965,0.4628679690243388,nan
1740797234.440361,0.31185462243324646,-0.021691798870945054,0.07114843608160439,0.675811521133807,nan
1740797234.444267,0.04350666336821252,0.02681051240583755,0.22634808088010316,0.36012264052492077,nan
1740797234.448173,-0.3741655739108893,0.06910995034309995,0.29564155878641685,-0.17950209871424325,nan
1740797234.4520814,-0.48946887120330185,-0.014467000240800061,0.0955799792268187,-0.4552065822976205,nan
1740797234.4559872,-0.14783478544018747,-0.19260025987345925,-0.2436876011457103,-0.28506439992735816,nan
1740797234.4598932,0.3352961333558369,-0.3303047898289616,-0.3952014153955612,0.06133799145931849,nan
1740797234.4637992,0.5142489969112418,-0.31679950547464947,-0.22846607187693566,0.20649001163286534,nan
1740797234.467705,0.2779392580825334,-0.13240282334223719,0.03882426982425546,0.08093427774792107,nan
1740797234.471611,-0.07549716506642294,0.16790079859124943,0.1345834464749222,-0.06516781522885853,nan
1740797234.475517,-0.20604512797420493,0.4740536938595052,0.0802983112040414,-0.02303491147456408,nan
1740797234.4794228,-0.09385489049896857,0.6179241127283619,0.12058388141545895,0.11684548650938215,nan
1740797234.4833288,0.0076356177700031,0.4303085615798275,0.3218617280410992,0.12092913443398258,nan
1740797234.4872348,-0.07406071611552824,-0.0988696931448526,0.39837555756362963,-0.05107193194870763,nan
1740797234.4911408,-0.21892418822953325,-0.6959541980618252,0.058267089824508914,-0.18535821242698833,nan
1740797234.4950466,-0.18806219386167755,-0.9239600296369628,-0.5348363975693973,-0.10617219508622792,nan
1740797234.498955,0.05619890347600167,-0.5407592229089503,-0.8139024663150778,0.07626686634325411,nan
1740797234.5028608,0.2860535989014938,0.2232799171661908,-0.4093709063930852,0.10408007022981929,nan
1740797234.5067668,0.2711552337295396,0.7996256047871266,0.3771458378157667,-0.0770934328946794,nan
1740797234.5106728,0.041325048713651995,0.7699743965415397,0.8245552168484694,-0.22350425871513124,nan
1740797234.5145786,-0.16153852950654088,0.24684132077256116,0.5382967040987473,-0.09974050167819398,nan
1740797234.5184846,-0.16523645901427197,-0.2543510510416467,-0.1406164992366374,0.2015607456082411,nan
1740797234.5223906,-0.03583424310877453,-0.335584056178626,-0.5271421897395878,0.35210966601589333,nan
1740797234.5262964,0.04911994788263062,-0.08880448635378935,-0.3315292154261824,0.19179575194407147,nan
1740797234.5302024,0.03404155419193458,0.06532890715634258,0.08898492274143721,-0.07154759348035457,nan
1740797234.5341084,0.024620465598287893,-0.12153573104035668,0.21027405154916687,-0.13337480213155822,nan
1740797234.5380142,0.10059978612136271,-0.4430198494576664,-0.0468547361926453,0.00826555414023529,nan
1740797234.5419202,0.16599728723433033,-0.4764223097853569,-0.27776883347802117,0.050803057979146284,nan
1740797234.5458298,0.051989687447931296,-0.06360095194686403,-0.12017295129938886,-0.19427463022535135,nan
1740797234.5497358,-0.24038931495284943,0.4972336345253956,0.3091138794623207,-0.4970168764184831,nan
1740797234.5536418,-0.46653737617085306,0.7436558721705325,0.5588003453171538,-0.43965632247625674,nan
1740797234.5575476,-0.3593256278771799,0.49594857176874296,0.3515740811268867,0.0661749010437638,nan
1740797234.5614536,0.07755771129536587,-0.0032204366058651455,-0.14375557064801692,0.6114095622772275,nan
1740797234.5653596,0.5287243832737506,-0.35769999457916507,-0.5319905901540993,0.7058095509369843,nan
1740797234.5692654,0.6390304175695668,-0.3796315294170338,-0.5816509729150908,0.30450537902315755,nan
1740797234.5731714,0.3278659645203355,-0.19282424896652275,-0.3516330472846756,-0.16991404200307594,nan
1740797234.5770774,-0.15887557426897433,-0.04151975753027399,-0.01736105759028358,-0.31938126979295306,nan
1740797234.5809832,-0.4831222297828157,-0.04796422614970152,0.30245103877257623,-0.18045308591446912,nan
1740797234.5848892,-0.48417444195892007,-0.14207839239032308,0.5310231186284379,-0.08703818452211079,nan
1740797234.5887952,-0.2437982735483035,-0.17024245697275273,0.5635926719825645,-0.20347566050985258,nan
1740797234.5927045,0.05066851788052501,-0.04208802001962112,0.32940478185528366,-0.32668937352384986,nan
1740797234.5966105,0.2588455820614292,0.20150702131708068,-0.07882377031310188,-0.18353812965420221,nan
1740797234.6005163,0.32161843533094653,0.41977172944291413,-0.4252099062504574,0.18139808301637442,nan
1740797234.6044223,0.22144927958879157,0.4656068177904085,-0.5290000190671146,0.4289665556030447,nan
1740797234.6083283,-0.016638591845065477,0.28612452350675155,-0.4076824529630916,0.3273701901253187,nan
1740797234.612234,-0.2753130542423656,-0.0344621885048918,-0.18975239911616534,0.026767397283907847,nan
1740797234.6161401,-0.359313271476953,-0.3301621975362872,0.06159807196297715,-0.12869936557044584,nan
1740797234.6200461,-0.1412266970539172,-0.4686275005948085,0.34875363898375156,-0.009865451419776825,nan
1740797234.6239522,0.27293651921029655,-0.4248181013191619,0.5707047764344906,0.16522391678792567,nan
1740797234.627858,0.5601721427474572,-0.2543423697956998,0.4887980294914857,0.11527807166838605,nan
1740797234.631764,0.4335928378777243,-0.023194474273651195,-0.00716126298145557,-0.16522615066542637,nan
1740797234.63567,-0.07389276493578546,0.210870702495025,-0.619868613019707,-0.4071285052560798,nan
1740797234.639579,-0.5869758681683912,0.3675381876576748,-0.7901182124310819,-0.3730942928813877,nan
1740797234.643485,-0.6935156698634732,0.3599622108320227,-0.2491329032620442,-0.09551536973070034,nan
1740797234.6473908,-0.3119165441152323,0.18825954089911595,0.6026824308737414,0.19535288580972704,nan
1740797234.6512969,0.23573652590481411,-0.010540473475766478,0.9958244795762058,0.3149476333238759,nan
1740797234.6552029,0.5240840081550135,-0.07645401749485148,0.5419008143078495,0.2541775605793225,nan
1740797234.6591089,0.4039197815576473,-0.013318457860314006,-0.3571760221791373,0.11215711157974745,nan
1740797234.6630147,0.08973608878430006,-0.003206882164471908,-0.9100704047496693,-0.019620295436664593,nan
1740797234.6669207,-0.10570603478417467,-0.17264197506887474,-0.7250646802678558,-0.09141429391127107,nan
1740797234.6708267,-0.08614592244243677,-0.37631483554368195,-0.13279488173859783,-0.081906713391859,nan
1740797234.6747324,-0.007784943784300423,-0.31938723321143203,0.2684917691395303,-0.0136948508225362,nan
1740797234.6786385,-0.03959433200264727,0.05683704620448123,0.27326880255482605,0.03463082855823237,nan
1740797234.6825445,-0.1540621639149267,0.4011678836514361,0.17818654412705798,-0.006207214308095336,nan
1740797234.6864533,-0.18725583639980917,0.3002645058854159,0.2887720535947846,-0.10169322844005482,nan
1740797234.6903594,-0.0671510583789928,-0.18502978248127022,0.4893254586612659,-0.13199724919087896,nan
1740797234.6942654,0.08779355436107657,-0.47269414278954136,0.41119896310227305,-0.04211085667992588,nan
1740797234.6981711,0.12000515356616785,-0.08849701951149821,-0.04573687237856348,0.06179648734124967,nan
1740797234.7020772,0.03281988561837311,0.6917692940449305,-0.5258164001403436,0.031020531190749035,nan
1740797234.7059832,-0.021638223228676645,1.0070494328673416,-0.6154093520763396,-0.10986832613246687,nan
1740797234.709889,0.04859114011093381,0.3354963948677674,-0.3274813451525159,-0.14333805047232903,nan
1740797234.713795,0.1436992870187847,-0.8239377206958227,-0.06014480147448448,0.08259274119851356,nan
1740797234.717701,0.09818999788997139,-1.3673741280333176,-0.07897365241515905,0.4115692938426302,nan
1740797234.7216067,-0.08913001625703307,-0.7408538353844993,-0.17843225171751667,0.48900635633900774,nan
1740797234.7255127,-0.22229990049253834,0.4345644035476559,0.036792261737241545,0.15424574713544992,nan
1740797234.7294188,-0.1341088316855383,1.0111383663487497,0.5859809873455244,-0.33599916372961663,nan
1740797234.7333276,0.10020863916167966,0.5427957405405459,0.9757176529540266,-0.5501405577463832,nan
1740797234.7372336,0.2329086229401808,-0.28667153478727275,0.7091503103613156,-0.33972612163182064,nan
1740797234.7411394,0.12368621897248208,-0.5061092060943114,-0.12346223795155631,0.0160588610361125,nan
1740797234.7450454,-0.10589667562381792,0.02922450408044909,-0.8648460846694288,0.14971304561854573,nan
1740797234.7489514,-0.22505079591403063,0.5478870136295473,-0.9292008478266477,0.021297093703348383,nan
1740797234.7528572,-0.15635120892375354,0.3569131482339226,-0.3703823009873082,-0.08271096164915227,nan
1740797234.7567632,-0.026326497213273414,-0.30747424426466013,0.22094205022925476,0.05618039204009566,nan
1740797234.7606692,0.0341310294056896,-0.5987774306773127,0.3455890916040638,0.30452652844510814,nan
1740797234.764575,0.056295161785179876,-0.1365008470124582,0.05934064864991236,0.3534217074963142,nan
1740797234.768481,0.14395275993923587,0.49487374292417585,-0.18246984242428707,0.1183962684023223,nan
1740797234.772387,0.2649290043773208,0.44838691358037214,-0.0603800488017024,-0.1506738108958633,nan
1740797234.7762928,0.23854510785659316,-0.3283679229375592,0.29504934362477336,-0.18499344157517605,nan
1740797234.7802017,-0.02409175552017916,-0.9694425245470351,0.5000363501345065,-0.02937896371758759,nan
1740797234.7841074,-0.3353260771022729,-0.6700895825334019,0.3465984076772118,0.03227323465732701,nan
1740797234.7880135,-0.3855013146775411,0.37680356057350456,-0.010505114181355942,-0.14227859528191927,nan
1740797234.7919195,-0.09875598563341154,1.1736426259254835,-0.2611372254746881,-0.35755913237920933,nan
1740797234.7958252,0.2396601204780511,0.994979851092294,-0.2682102812703539,-0.31961984380671615,nan
1740797234.7997313,0.27550173669465855,0.10881065097177965,-0.16480658656738756,-0.0052705892819423774,nan
1740797234.8036373,-0.01869367452327682,-0.6144979605299378,-0.1559037324474147,0.304098545980385,nan
1740797234.8075433,-0.30820764311855264,-0.6587594344400673,-0.26878017089027023,0.3581547044061042,nan
1740797234.811449,-0.2700846213331387,-0.27859176968940264,-0.31953231219565503,0.21376546500352195,nan
1740797234.815355,0.05808376122095558,-0.02361863836331312,-0.12072299675966983,0.11483599034715812,nan
1740797234.819261,0.34981736084902976,-0.06684847844757603,0.29007514250017075,0.15294498658558858,nan
1740797234.8231668,0.3672614551682182,-0.13036298530537083,0.6389145770017569,0.15612555055740998,nan
1740797234.8270755,0.1817801374519891,0.0345064720250786,0.6459447004892901,-0.05638064162920753,nan
1740797234.8309815,0.006949291877022269,0.302720247583681,0.28249408059688436,-0.3929855218591472,nan
1740797234.8348873,-0.09056360770879193,0.3708281663663272,-0.19642246962039497,-0.5535917606340099,nan
1740797234.8387933,-0.21348731624554262,0.1631682367353554,-0.4805761098211792,-0.36719263274879366,nan
1740797234.8426993,-0.39069418671978723,-0.09280627526950284,-0.46708938173388537,0.011454753858517365,nan
1740797234.846605,-0.44302442566799066,-0.16809947188427796,-0.29457598526169976,0.2773752609408828,nan
1740797234.850511,-0.1884316462175365,-0.0785699854612381,-0.13545268564514718,0.2958121794241353,nan
1740797234.854417,0.26145000905402355,0.011698572281052201,-0.003818704274296186,0.18851444788955843,nan
1740797234.8583229,0.5333845228259888,0.02952219458710793,0.18984608330668334,0.12593880096955973,nan
1740797234.8622289,0.38136042537912024,0.03169923451612254,0.419872206160007,0.12195478106700039,nan
1740797234.866135,-0.014931931860657164,0.045137646793114466,0.47463163178237117,0.07722832042481718,nan
1740797234.870041,-0.2266391677553394,-0.0022611272578906866,0.18154968008948788,-0.03387747952570928,nan
1740797234.873949,-0.053268525271060005,-0.14503675099663801,-0.3170712759822775,-0.11168239323587678,nan
1740797234.8778548,0.24997885317915772,-0.2678291220520665,-0.6115375024141382,-0.08063119720531735,nan
1740797234.8817608,0.2666506234781962,-0.22611751269642946,-0.41912934140624386,-0.01754624310984582,nan
1740797234.8856668,-0.10273688217950827,-0.04399576679425032,0.09566812375263505,-0.06475284504721641,nan
1740797234.8895726,-0.5251783367073216,0.11801729483884392,0.4694008054512881,-0.23080426338308233,nan
1740797234.8934786,-0.5970485162476593,0.20271694438505494,0.42345985098847083,-0.3430366003788856,nan
1740797234.8973846,-0.2566771163824254,0.33410349339585527,0.1344566515356274,-0.22896464706337796,nan
1740797234.9012907,0.19680647701517154,0.5574971231609626,-0.02776638907627004,0.08451777665420039,nan
1740797234.9051964,0.4414442705859005,0.5994485996950123,0.026026716970790773,0.3858433773526881,nan
1740797234.9091024,0.4136535487223976,0.10232093845402192,0.011852106161929644,0.48060886153951443,nan
1740797234.9130085,0.26167654098059046,-0.8204678576403235,-0.3082154607620631,0.350158125571327,nan
1740797234.9169142,0.11677134066816053,-1.432954558613746,-0.7202697068921573,0.12031703328664783,nan
1740797234.9208238,-0.012142076694367718,-1.022298133457737,-0.7170390403532334,-0.07842049594224815,nan
1740797234.9247298,-0.14799222188345368,0.2531239142956698,-0.09077395560103325,-0.19522794207410754,nan
1740797234.9286358,-0.24887865946972015,1.3354609435033817,0.7386734315519141,-0.24173317892186075,nan
1740797234.9325416,-0.2507097116989358,1.2625317242219354,1.0929779186117063,-0.24679061964608473,nan
1740797234.9364476,-0.16262444420404637,0.17535029483433354,0.7178185364557174,-0.23577901580397448,nan
1740797234.9403536,-0.059224228127800295,-0.805870971841602,0.012107313021098055,-0.214341366675872,nan
1740797234.9442594,0.015548972159658496,-0.7565137476478699,-0.43614066608570773,-0.14885749279645366,nan
1740797234.9481654,0.0820512397046778,0.10895488189704293,-0.4453112612150036,0.008521717904410479,nan
1740797234.9520714,0.14928345142580224,0.754005170629014,-0.29699847894278725,0.23961297193242298,nan
1740797234.9559774,0.16256554177333768,0.491859194760608,-0.27515165269488556,0.4214667792935141,nan
1740797234.9598832,0.07852944444028079,-0.32740456791879874,-0.31902360023007725,0.42084810777655907,nan
1740797234.9637892,-0.03608292810923536,-0.8179617497376829,-0.20290170336410907,0.24323294663259878,nan
1740797234.9676986,-0.05502677324634702,-0.5626849209746337,0.06858628415736785,0.04134035434200728,nan
1740797234.9716046,0.03975916317001192,0.04433072384117028,0.2309946047964613,-0.06424468319727505,nan
1740797234.9755106,0.10756643232511055,0.38070054808005355,0.14844259732726764,-0.1350473383972515,nan
1740797234.9794164,0.02554288884477544,0.28584830876987843,0.06221217961978206,-0.308917226158664,nan
1740797234.9833224,-0.12276321530289314,0.07191874645979894,0.29199349905975747,-0.5411915119636486,nan
1740797234.9872284,-0.1311757689284557,0.01820511311451755,0.7302771250194069,-0.5562736874828798,nan
1740797234.9911342,0.035497596904551385,0.08437459503514906,0.827738118280764,-0.1603754039748283,nan
1740797234.9950402,0.13196090329911997,0.12225337738113429,0.20249885612240262,0.42686798541878557,nan
1740797234.9989462,-0.07648944895509727,0.13860426303771572,-0.815140160333707,0.6937668104706248,nan
1740797235.002852,-0.4417296365756642,0.18850615680408614,-1.407135458459024,0.3792052986493783,nan
1740797235.006758,-0.4982672763607679,0.13791959015959623,-1.0837844035955737,-0.1727208957105404,nan
1740797235.010664,0.0033774719254914018,-0.2106930705313132,-0.18465997123282185,-0.336668848664185,nan
1740797235.0145733,0.7004926738065028,-0.7103187461631647,0.5072522196489245,0.08393560110121087,nan
1740797235.018479,0.9101188409060821,-0.8240237213407501,0.5883852922783162,0.5829298272401187,nan
1740797235.0223851,0.37095621237227355,-0.21244426479812376,0.3598503529013298,0.49507539742844414,nan
1740797235.0262911,-0.4089330210562663,0.7040378021065238,0.3402574287388439,-0.22580085535231134,nan
1740797235.030197,-0.6647976514402388,1.0410737321047523,0.6031243529669494,-0.906682713315648,nan
1740797235.034103,-0.21707806904996804,0.42808046549050355,0.7211714839129019,-0.8817657936104052,nan
1740797235.038009,0.3248712847764534,-0.4851525271320916,0.323568885079557,-0.21469481503266014,nan
1740797235.041915,0.26228222799683065,-0.7168737286961866,-0.43694329473605853,0.41692267687387835,nan
1740797235.0458207,-0.3793525615220024,-0.09675465911521607,-1.0287625166043806,0.5085236668453625,nan
1740797235.0497267,-0.8640771535244878,0.5394667867703012,-1.06503879787836,0.2319969755526058,nan
1740797235.0536327,-0.5747335679573892,0.39917938023433425,-0.6023376970784774,0.08896071350326015,nan
1740797235.0575385,0.29542038634578355,-0.26377701298685174,0.015191339008229755,0.21796279235803984,nan
1740797235.0614476,0.9632622538680043,-0.4927290099891583,0.4663764217579745,0.2631032664803594,nan
1740797235.0653534,0.8978205645814447,0.07818996124444684,0.5927733541092826,-0.053097522083355164,nan
1740797235.0692594,0.3141103507717553,0.6634261595818507,0.3964201746132971,-0.45044266329603505,nan
1740797235.0731654,-0.1774082367601463,0.31554049106362086,0.058526952745089164,-0.3937836626269238,nan
1740797235.0770712,-0.2659424161507615,-0.7478719918024065,-0.09029041841499852,0.17160654125184796,nan
1740797235.0809772,-0.16193223397369713,-1.264130875733147,0.17527601348970215,0.6257026746907891,nan
1740797235.0848832,-0.18953549849807722,-0.4926519952203889,0.6474273230351117,0.3574739545295565,nan
1740797235.0887892,-0.3496314325230323,0.7353092516713495,0.7449627251419887,-0.46604743736407983,nan
1740797235.092695,-0.3894810897828049,0.9718045476741137,0.09726164086037847,-1.015632940934869,nan
1740797235.096601,-0.20669442490327247,0.0598176073154911,-0.9273887852763458,-0.7173611555210064,nan
1740797235.100507,-0.008408319182036444,-0.48929119072144306,-1.4659047870578985,0.10865842811662975,nan
1740797235.1044128,-0.020396251359590323,0.5931216364057944,-1.0524263110666887,0.6514328573850098,nan
1740797235.1083217,-0.15066324672320777,2.355858817664855,-0.14884202432443358,0.5538181506887221,nan
1740797235.1122277,-0.06265785237660966,2.271870072674474,0.39854063092082603,0.24887226804672494,nan
1740797235.1161335,0.4185870787608988,-0.8014525208918424,0.3822195660042013,0.3079811495048588,nan
1740797235.1200395,1.0495287958139905,-4.695990539868217,0.43288275012624433,0.6504175947060504,nan
1740797235.1239455,1.3409426628980465,-5.636943232029759,1.0448930116220343,0.6243423568344999,nan
1740797235.1278512,0.9516584447369753,-2.1216041754756665,1.6552208759999634,-0.13083978487898787,nan
1740797235.1317573,-0.07072425354048754,3.2213093005780773,1.1371940114527295,-1.118746614987188,nan
1740797235.1356633,-1.3207488552013156,6.025631157676848,-0.6679129477968551,-1.4501428788353592,nan
1740797235.1395693,-2.2141971321359883,4.417323659701473,-2.3072399090887075,-0.8232965036806538,nan
1740797235.143475,-2.230984483433583,0.58851878941828,-2.0911158688451543,0.12284528150752981,nan
1740797235.147381,-1.2165791949929528,-1.844462463082171,-0.12670800624909498,0.5000565876040798,nan
1740797235.151287,0.40925964097827167,-1.6330176265287875,1.5017975574910511,0.13246623560094184,nan
1740797235.1551955,1.8274678979491115,-0.6869781349929662,0.9782485998245164,-0.26367607969294693,nan
1740797235.1591015,2.395143707956854,-1.2844357867539795,-1.010663814500263,0.14373400072527995,nan
1740797235.1630075,2.115979012523714,-3.1441639165676496,-1.8448720126268978,1.3804724658421765,nan
1740797235.1669135,1.453509197078717,-3.728978845235754,-0.013104598188002404,2.486584949312173,nan
1740797235.1708193,0.6553271247486685,-1.2864584252481934,2.8248296259408345,2.230310234345969,nan
1740797235.1747253,-0.5406221611173216,2.937476240319589,3.4146645750282762,0.1409399842303651,nan
1740797235.1786313,-2.2924877666884087,5.762178840837944,0.6188488647064014,-2.8923637576720247,nan
1740797235.182537,-3.821569101558666,5.119856369912207,-2.9901660585868437,-4.937060213119805,nan
1740797235.186443,-3.6392053403531426,1.7907905093021443,-3.744716658919284,-4.2362221241615465,nan
1740797235.190349,-1.04960428684456,-1.7170301924494789,-0.9395269042189434,-0.6740681285771768,nan
1740797235.1942549,2.581924581325886,-3.543597958220603,2.3172124702921524,3.6692301114113586,nan
1740797235.198161,4.535482091736988,-3.573713302752788,2.5701505902432173,5.720088535466312,nan
1740797235.2020695,3.1892248042062783,-2.6340203251134047,-0.1098007299181716,3.8338152128631218,nan
1740797235.2059753,-0.1838348515837779,-1.2977884258737948,-2.336323815230665,-0.5452817369712465,nan
1740797235.2098813,-2.401534094499163,0.2684430514760974,-1.4741372909121468,-3.792763025290763,nan
1740797235.2137873,-1.4500691807867476,1.701584774860411,1.234037832309389,-3.194100914033986,nan
1740797235.2176933,1.437651765024055,2.32104721714262,2.2304919216199592,0.4880429008868535,nan
1740797235.221599,2.9627635039248523,1.8323289719306557,0.08450392057837926,3.558111945640202,nan
1740797235.225505,1.0836321492379681,0.8600908385627305,-2.535035428472324,2.7791536111679007,nan
1740797235.2294111,-2.9171966914452656,0.39904492935459357,-1.9098202844369354,-1.5309112694870235,nan
1740797235.233317,-5.674632657156039,0.6716855559929346,2.080813395039714,-5.692004533355476,nan
1740797235.237223,-4.868473975303374,0.7679313357692151,5.2607562935675505,-5.960870958905914,nan
1740797235.241129,-1.0458864535828005,-0.36199566186438087,3.5544043315735494,-1.7783635456251479,nan
1740797235.2450347,3.332372611583444,-2.55873844136846,-2.3031477513576744,3.950284226928059,nan
1740797235.248943,6.093401767158117,-4.240644517441897,-7.104157807761155,7.4370827812367235,nan
1740797235.2528489,6.429162026831862,-3.678331871607451,-6.369975041371067,6.819217898291851,nan
1740797235.2567549,4.394893634566484,-0.60205767343874,-0.8398673813164041,2.9198481283131197,nan
1740797235.260661,0.34670231702704923,3.336134675512295,4.492323497035005,-1.966084459217727,nan
1740797235.2645667,-4.613446495906345,5.664733772570409,5.525717442906894,-5.625036323511275,nan
1740797235.2684727,-8.142501384431771,4.859010990317703,2.7574937865909006,-6.703988619464586,nan
1740797235.2723787,-7.707284714933104,1.4185349614676044,-0.10057996915432066,-4.914688347503857,nan
1740797235.2762845,-2.883596735466099,-2.4974173664455774,-0.5101018184227637,-1.1506464647730317,nan
1740797235.2801905,3.5094815679216893,-4.574335874625473,0.5218463771546036,2.7071719960893232,nan
1740797235.2840965,7.236688124421163,-3.89744761972376,0.3167933609194526,4.744603522270494,nan
1740797235.2880025,6.1408635950834265,-1.4275072062523053,-1.9975255068778244,4.291395699963705,nan
1740797235.2919083,1.9165986115951008,0.9394227218170647,-4.44303876675661,2.309742630089221,nan
1740797235.2958179,-1.6881576986967433,1.9220414610698506,-4.435118760586791,0.3639616635649781,nan
1740797235.2997239,-2.4127205702074312,1.661961786287217,-1.5000365567154583,-0.796266774732306,nan
1740797235.3036299,-1.1681717428270453,1.1301854134687883,2.4202002886102694,-1.5169518396548958,nan
1740797235.3075356,-0.3818693615164394,0.8743081060602925,4.932311891077606,-2.219489048852898,nan
1740797235.3114417,-1.1125851884794273,0.5223460208896424,5.013174204066728,-2.5138687858704696,nan
1740797235.3153477,-2.128573530568801,-0.434768974649004,3.1006889416758754,-1.6726697217986424,nan
1740797235.3192534,-1.6852555534297624,-1.6117746915235025,0.16199473375373544,0.13762790833496819,nan
1740797235.3231595,0.28973317716249253,-1.8615767156443388,-2.79210348303609,1.5940569519439873,nan
1740797235.3270655,2.106799445674232,-0.6039642900020623,-4.586169979188304,1.5188812515870354,nan
1740797235.3309712,2.235347336775242,1.2080431690555833,-4.158103118852314,0.2825511732036204,nan
1740797235.3348773,0.9126427147600004,1.8377971391287253,-1.5460772366990914,-0.49697427644373265,nan
1740797235.3387833,-0.3059043889529618,0.6155077414270598,1.5863789357602638,0.2120727488985398,nan
1740797235.3426926,-0.34266293713448676,-1.1906695228881063,3.02731923085021,1.5992647482050175,nan
1740797235.3465986,0.36755421309792247,-1.6363372705196924,1.9948983259635502,1.8871577866864866,nan
1740797235.3505044,0.6136407747331134,-0.22172850917089437,-0.06771378697809993,0.3882776400303045,nan
1740797235.3544104,-0.13790281176732744,1.5113183303395135,-0.937878125192414,-1.651117097758489,nan
1740797235.3583164,-1.240738024029275,1.6528167095606825,0.1097837959450183,-2.411541793225652,nan
1740797235.3622222,-1.6898013323790466,0.02758553323460008,1.630232237436631,-1.464337757405012,nan
1740797235.3661282,-1.1588203815535967,-1.6359258933999627,1.6562788034075122,-0.07410177567005903,nan
1740797235.3700342,-0.14455016606987,-1.6337382136730363,-0.15974941156222514,0.39863720274959236,nan
1740797235.3739402,0.6961272257064598,-0.09780871870402562,-2.217783919487222,0.008064941290184272,nan
1740797235.377846,1.1060809699633254,1.3101396659288673,-2.6905756112639523,-0.09976667652139275,nan
1740797235.381752,1.1614174329752835,1.324945948727576,-1.3289218955595643,0.7098579618764701,nan
1740797235.385658,0.9266657705462411,0.32717630967373135,0.5117010818078417,1.7189387062654964,nan
1740797235.3895671,0.39336997247465055,-0.41174784285578847,1.402243696287472,1.750891745697445,nan
1740797235.3934731,-0.29275187946241765,-0.362169379515699,1.1253033189722603,0.6011339111574969,nan
1740797235.3973792,-0.7664146116398519,-0.1870019422394139,0.48304050448787467,-0.7583153823574841,nan
1740797235.4012852,-0.7427638893321044,-0.5797248959638953,0.1825199414598004,-1.3398957784322338,nan
1740797235.405191,-0.33836806317904505,-1.12909762716662,0.19815971721893846,-1.1459426244734825,nan
1740797235.409097,0.013709318408704332,-0.7698557561594186,0.14715551608873195,-0.8492196496329314,nan
1740797235.413003,-0.0036180693115812805,0.708881528294104,-0.06288958004229298,-0.7488768360414728,nan
1740797235.4169087,-0.2862980715814375,2.0648011459159745,-0.18937903435386105,-0.45185209141115307,nan
1740797235.4208148,-0.44684941785902726,1.8317689869550118,-0.129825210143574,0.36251027925247903,nan
1740797235.4247208,-0.21186252287539076,0.024523170041648536,-0.14430552457618645,1.2384996996027342,nan
1740797235.4286265,0.33701995075267094,-1.7227560884289324,-0.4759796153105085,1.3549322080893806,nan
1740797235.4325325,0.859266157860882,-1.8412505388189921,-0.896407131613643,0.5724709142104201,nan
1740797235.4364417,1.0236129920902657,-0.4552925311882366,-0.8464630874633005,-0.2807377426141893,nan
1740797235.4403474,0.7081886716535433,0.8675007741257447,-0.08268212294459089,-0.3472578426849929,nan
1740797235.4442534,0.0493506469644045,0.8941482043505953,0.9354606931536431,0.2289329706989729,nan
1740797235.4481595,-0.6293554508028627,-0.022816827745586094,1.417133812429781,0.4850894081553835,nan
1740797235.4520652,-0.9830934472469649,-0.5624778309266845,0.9974460817720052,-0.15986922019632713,nan
1740797235.4559712,-0.8584819951318646,-0.06448042460203421,0.07333224007911394,-1.1604131852590522,nan
1740797235.4598773,-0.4063402572377998,0.7627247979978355,-0.608955769969967,-1.4642421716976874,nan
1740797235.463783,0.045148979084535384,0.7854127271493732,-0.6470811083652707,-0.7230007531335803,nan
1740797235.467689,0.2767956966901535,-0.170321742290725,-0.26370859732713353,0.36622824809911214,nan
1740797235.471595,0.33675105989551896,-1.11228306155088,0.018531471974924482,0.9235386472686771,nan
1740797235.4755008,0.3946895980841976,-1.0154143334415398,-0.0946904224762596,0.8228790643151767,nan
1740797235.4794068,0.4743660783855063,0.05808288770189664,-0.43797296328057517,0.5955764852851448,nan
1740797235.4833157,0.4120788647313655,1.0698456668243788,-0.5860506188300824,0.5770159040277113,nan
1740797235.4872215,0.10860750137861054,1.1110036534123862,-0.24779655161640862,0.48801711906148765,nan
1740797235.4911275,-0.25820743824715237,0.2470600576192848,0.4654963641543638,-0.03981512840781801,nan
1740797235.4950335,-0.3810696551556352,-0.6955710259187511,1.0775559398161858,-0.786582844424793,nan
1740797235.4989395,-0.19324263842414904,-0.9929912744441093,1.076662135653583,-1.0924368996336535,nan
1740797235.5028453,0.010329746988141176,-0.5849348599291355,0.33761411256639534,-0.6705988287873477,nan
1740797235.5067513,-0.0899566825710427,0.07968953542803144,-0.6874817333667327,-0.002101871487251019,nan
1740797235.5106573,-0.41539245370255234,0.5344862906386998,-1.242634656302194,0.2420504389953024,nan
1740797235.514563,-0.5199670995298792,0.5889891431745011,-0.8731872419521176,0.02300597871711202,nan
1740797235.518469,-0.1020298594766628,0.31129124597476476,0.13969691202405557,-0.06838150917540345,nan
1740797235.522375,0.5818059502386415,-0.08615370739473337,0.964943823722108,0.3562590183432578,nan
1740797235.5262809,0.9188839490122069,-0.33755779566643856,0.930960369022693,0.9038484640209815,nan
1740797235.5301895,0.5765040074849529,-0.25956188858998325,0.1211609558673117,0.8476842214280177,nan
1740797235.5340955,-0.13343180796416151,0.07814114089384266,-0.7206223234165465,0.05636938263480994,nan
1740797235.5380015,-0.5765494328679102,0.3482123137314477,-0.8891247545439309,-0.774276453854288,nan
1740797235.5419073,-0.4458024914676877,0.24429789012356815,-0.3394522325258449,-0.8958834381431632,nan
1740797235.5458133,-0.02453624987546799,-0.18751483366260507,0.35246704697147824,-0.3390638949534983,nan
1740797235.5497193,0.1886583859695149,-0.5475933167320683,0.5945380780433668,0.20063915351314554,nan
1740797235.5536253,0.028189941811947266,-0.473382209832715,0.31336024255511924,0.22897809392703913,nan
1740797235.557531,-0.2248622542679246,-0.022077075243727016,-0.07587145236464779,-0.02984315132374278,nan
1740797235.5614371,-0.2266648785788657,0.38447236657046463,-0.1510895615241769,-0.058683587790463655,nan
1740797235.5653431,0.03685557913740381,0.4045087343665851,0.10917772091500576,0.2133321598777475,nan
1740797235.569249,0.2779683822234688,0.12218917182119475,0.3607774695508066,0.34310555559179773,nan
1740797235.573155,0.2592336393584702,-0.08028576839600486,0.2655124727833783,0.03378897858344127,nan
1740797235.5770633,0.03610477222271229,0.0347206512811692,-0.18691643517059744,-0.39077440808089425,nan
1740797235.5809693,-0.14782774291175377,0.2997254618846818,-0.6726313639653632,-0.36025324307975715,nan
1740797235.5848753,-0.13384273194230512,0.3363282023333675,-0.8013386200118381,0.18392408405881527,nan
1740797235.5887814,0.024789872229125463,-0.025629232808942137,-0.42322080481570695,0.6393346031103293,nan
1740797235.5926871,0.16474828594358523,-0.5520075759252784,0.24592792464754756,0.4367780643178708,nan
1740797235.5965931,0.17492886325552157,-0.8153240263621964,0.7653485030718852,-0.2616295339743154,nan
1740797235.6004992,0.05598343160945574,-0.5802971480544024,0.7893856661164363,-0.7229743667880231,nan
1740797235.604405,-0.11799159441165347,0.004142246717353792,0.3400769046202989,-0.4755084389245642,nan
1740797235.608311,-0.2513172949378009,0.5498818036856696,-0.20187184818259302,0.17815411936018763,nan
1740797235.612217,-0.26653525679521245,0.7449536143001187,-0.41773568424376345,0.5411706317641258,nan
1740797235.6161227,-0.14989945376219543,0.5617939547755418,-0.21780447044827797,0.29885427713373713,nan
1740797235.6200287,0.026275700472970485,0.21372211341086192,0.0982195049343892,-0.2103422555662068,nan
1740797235.623937,0.15725324878538396,-0.06465130082331624,0.16244711869245881,-0.45130792245451173,nan
1740797235.627843,0.20203543662590986,-0.2060110498578423,-0.08339924360098556,-0.2553500391785848,nan
1740797235.631749,0.2053515642301813,-0.30478457575692575,-0.3553369055372894,0.12751342465139226,nan
1740797235.6356547,0.204660697216097,-0.4392560601609581,-0.36655907174665775,0.39534846063995277,nan
1740797235.6395607,0.1475002329395715,-0.520373994497639,-0.14193166362478044,0.44813658510353277,nan
1740797235.6434667,-0.04066396309253368,-0.35717647762075355,0.059105043315717275,0.30736372930342326,nan
1740797235.6473725,-0.30052469399018683,0.09820017280424637,0.10294598012663604,-0.013174130596070447,nan
1740797235.6512785,-0.4201823562620109,0.5949639949682036,0.15781064347369567,-0.4244771149431394,nan
1740797235.6551845,-0.24241861252124325,0.7436098559710475,0.43237120748572605,-0.6521279663405579,nan
1740797235.6590903,0.12014425094134457,0.38655878802014476,0.7864999633974339,-0.4211805573375171,nan
1740797235.6629963,0.35146880137320013,-0.20091233545783835,0.7471047585880012,0.1746302837364202,nan
1740797235.6669023,0.25492961894470384,-0.5332218153060483,0.020699363801138574,0.6209114500083405,nan
1740797235.6708133,-0.030451454241693765,-0.37030868009957013,-1.036659873012956,0.4602796197954014,nan
1740797235.6747193,-0.1928059601026084,0.061189018453133924,-1.589954420955914,-0.17527329392649826,nan
1740797235.6786253,-0.10848843513842882,0.31868273616377557,-1.0764712045821183,-0.6333858937372975,nan
1740797235.682531,0.03819872285889757,0.19562479630689308,0.19709720743465095,-0.41405731692367065,nan
1740797235.6864371,0.026072266663398937,-0.10917356356576544,1.2615629379052835,0.28598835561959307,nan
1740797235.6903431,-0.09178310673912524,-0.2597975009147093,1.3413383079182915,0.780471287743528,nan
1740797235.6942492,-0.055374059873414115,-0.1548614910732516,0.5282077841535486,0.6169722836968564,nan
1740797235.698155,0.22137108810763476,0.015486997311446605,-0.37797088424730496,0.0017686879551752578,nan
1740797235.702061,0.45534828082648576,0.047458739515842764,-0.6649945914448205,-0.502165072136526,nan
1740797235.705967,0.28726929405384505,-0.029993530410964666,-0.3260426128959809,-0.5808038608964187,nan
1740797235.7098727,-0.254617777757823,-0.028947239533580426,0.07687094346534067,-0.376362051189709,nan
1740797235.7137787,-0.7022634089125104,0.12869612590588894,0.07960084553125076,-0.16342276732044658,nan
1740797235.717688,-0.6243491102729363,0.29826930399078566,-0.2183463564960074,-0.0014429965575564795,nan
1740797235.721594,-0.09747436361541402,0.2851351541056538,-0.3414901837972741,0.20646826453708905,nan
1740797235.7255,0.3856904997965705,0.07223617439589591,-0.018803881734995767,0.42683735174922033,nan
1740797235.7294059,0.4654911697868393,-0.1737969452033307,0.48813438536103326,0.45177175460090274,nan
1740797235.733312,0.26849458642568913,-0.2964959081907905,0.6471806885908519,0.18256706909335702,nan
1740797235.737218,0.16044750394268203,-0.2851698242156586,0.2155863001913607,-0.1694834841853778,nan
1740797235.7411237,0.2378188177771079,-0.20955344270829324,-0.48658504434983985,-0.2861297730769528,nan
1740797235.7450297,0.21217844727590696,-0.09194820074169903,-0.8607984942250408,-0.11657267047192228,nan
1740797235.7489357,-0.16482477807583074,0.08567500622767232,-0.5794132329582611,0.06664476415090925,nan
1740797235.7528417,-0.6836916722619747,0.26803613516152913,0.13431509264364316,0.017333436353293118,nan
1740797235.7567475,-0.8254646503331534,0.31220966613378304,0.7368047584581019,-0.17657899926945422,nan
1740797235.7606535,-0.3399289148858504,0.14544382746199688,0.844481710369186,-0.22537506551524242,nan
1740797235.7645628,0.4258809215069243,-0.09896269372044818,0.4977151844947761,-0.03141858041293538,nan
1740797235.7684686,0.8486675920101309,-0.18166748103078006,0.009216637503237738,0.17769016221620848,nan
1740797235.7723746,0.6406981255163103,-0.01858575726928433,-0.3713715626194892,0.15291609537406925,nan
1740797235.7762806,0.07603395317249004,0.20295884547489745,-0.6044440105704321,-0.0399327902891081,nan
1740797235.7801867,-0.3650134101288832,0.2143345496513766,-0.7185756134580372,-0.1031916516575165,nan
1740797235.7840924,-0.46728491165715447,-0.041284909496139,-0.6332868021307136,0.09140818581757708,nan
1740797235.7879984,-0.35056872077037227,-0.34684937010955535,-0.22311596756077096,0.3111578168714207,nan
1740797235.7919044,-0.1749568442686144,-0.4426484207403923,0.4331335450080891,0.24458691855788012,nan
1740797235.7958102,0.05874441061518045,-0.2747196132249816,0.9592476668716329,-0.09431062180306969,nan
1740797235.7997162,0.3697528650980502,0.006700879454769106,0.9515687529850035,-0.3588701058719621,nan
1740797235.8036222,0.5865733464800206,0.24296568077457006,0.3836726671051567,-0.2779987519199435,nan
1740797235.807528,0.43965796358631404,0.38808324244076375,-0.30790783576161124,0.026232587486393726,nan
1740797235.8114371,-0.0984784242897361,0.438758080236346,-0.6111823703923849,0.19811549584546148,nan
1740797235.8153431,-0.6648636671887682,0.3403490979070167,-0.4240795106761165,0.07261577937410257,nan
1740797235.819249,-0.7995228781362518,0.05297273685262623,-0.11400544472522006,-0.1587578005977167,nan
1740797235.823155,-0.392109036575941,-0.30486056590604005,-0.07682233769999129,-0.21288150427379235,nan
1740797235.827061,0.21516882547421645,-0.4823873000367654,-0.286034924634502,-0.04754340444014652,nan
1740797235.8309667,0.576616721374896,-0.34052233324212183,-0.34692899301253755,0.14170042746935468,nan
1740797235.8348727,0.5448056624583023,-0.03927704663333623,0.00492707967421931,0.20068099086433433,nan
1740797235.8387787,0.3068554168914945,0.10237568305274446,0.5441531410412759,0.17756818905668925,nan
1740797235.8426847,0.09312363288576336,-0.0362108263554002,0.768296348747461,0.1808720672772675,nan
1740797235.8465905,-0.05306882834306853,-0.215054329490997,0.4499716375332161,0.17890190011532445,nan
1740797235.8504965,-0.2079051392358529,-0.09277131274626865,-0.10903425539542225,0.04372080189593491,nan
1740797235.8544025,-0.36785304470766955,0.35763330801205845,-0.4156942503038959,-0.22552852115916994,nan
1740797235.8583114,-0.4136896534723033,0.7547437311683287,-0.3165749787802895,-0.43239313185248607,nan
1740797235.8622172,-0.2685036542167036,0.6721662029186245,-0.10388524126260151,-0.3917054147772928,nan
1740797235.8661232,-0.013823769872932129,0.08026096909990156,-0.09812943901383778,-0.15094498000764392,nan
1740797235.8700292,0.19410600348138438,-0.6042783262642861,-0.23955414895744917,0.07267467731429553,nan
1740797235.873935,0.2843602984499157,-0.9006940119282469,-0.19662618625442194,0.15733148753927906,nan
1740797235.877841,0.29596418850598855,-0.6686434268909506,0.15194794293288355,0.18997839898421767,nan
1740797235.881747,0.2631436573744498,-0.15159152919418328,0.4852118416180174,0.28504089134655797,nan
1740797235.885653,0.15177000881866637,0.3042820478232549,0.38799577130125235,0.3742316351533571,nan
1740797235.8895588,-0.0542239483967346,0.5156690837909321,-0.1158058844497693,0.2768486645648885,nan
1740797235.8934648,-0.2551472898725552,0.4895304834181204,-0.5084517547169657,-0.031119210742500233,nan
1740797235.8973708,-0.3005586531239082,0.3048268437469342,-0.32455586402739955,-0.3246698319122117,nan
1740797235.9012766,-0.16248541028352784,0.04840322232119117,0.3032507454306576,-0.37087572046634953,nan
1740797235.9051855,0.012215155445662047,-0.16672686942142456,0.7382670875721844,-0.206434157191112,nan
1740797235.9090912,0.061895991903660866,-0.22639201431961611,0.4975988135013424,-0.08180319925357707,nan
1740797235.9129972,-0.006637833144834282,-0.12231119659837796,-0.24238206032977005,-0.13066376922787679,nan
1740797235.9169033,-0.04482812627642429,-0.0007683378680245885,-0.8349555168847373,-0.19461801641218926,nan
1740797235.920809,0.03483981533784628,-0.03241252603751613,-0.8131480936910468,-0.041802767500249825,nan
1740797235.924715,0.14474749213786633,-0.211959636479507,-0.2901923150833619,0.30006922330262126,nan
1740797235.928621,0.14530046600943305,-0.3306021147782599,0.26352195094723935,0.5372249251088833,nan
1740797235.9325268,0.03797827893017737,-0.1907580035514214,0.5310216179050006,0.4499186353305458,nan
1740797235.9364328,-0.03441976387675005,0.1617403871007638,0.5588310405230319,0.14370657237750029,nan
1740797235.9403389,0.015205677938721891,0.4595571086334673,0.5164273384400083,-0.10716875767880135,nan
1740797235.9442449,0.09037644603854733,0.4789472161336543,0.39765602006228823,-0.20324742686360148,nan
1740797235.9481506,0.03483648112742157,0.2541126657004033,0.05904792711262604,-0.28541390683826545,nan
1740797235.9520593,-0.14665787301931743,0.005732226699721068,-0.48780267062877564,-0.4451284249031282,nan
1740797235.9559653,-0.2679795439211695,-0.11765140179160632,-0.9426116273080637,-0.5049711032690907,nan
1740797235.959871,-0.18533482115058914,-0.17616051400658211,-0.9455550358910317,-0.2207297245345986,nan
1740797235.963777,0.017439321269703732,-0.3031857338797852,-0.42169607959447414,0.32676950810970257,nan
1740797235.967683,0.1284369331985868,-0.4793653463444652,0.3372690313339268,0.6969749845492497,nan
1740797235.9715889,0.07276821892062318,-0.5037980609570336,0.9158271566393439,0.5415824797316995,nan
