timestamps,TP9,AF7,AF8,TP10,Right AUX
1740573893.0421033,0.19046263615876652,1.2073908197225878,0.04563463551010644,0.06653894410760365,nan
1740573893.0460067,0.2493944815911382,0.7221977429432425,0.5326884630464339,0.04069405249199349,nan
1740573893.04991,0.02774743663115899,-0.14360749085514596,0.7850799268731412,-0.01945766295245611,nan
1740573893.0538135,-0.2706538681656471,-0.6665006128915317,0.6674171668285089,-0.06841557002537985,nan
1740573893.057717,-0.358639951215356,-0.5399559681438191,0.251828573949831,-0.11598112850139648,nan
1740573893.0616205,-0.16058042170996326,-0.10574862733974072,-0.22074750824291955,-0.16870676096893353,nan
1740573893.0655239,0.12127495094197831,0.07547219446284276,-0.49729077867081206,-0.1666054623452395,nan
1740573893.0694273,0.2302072572712861,-0.16143955754833453,-0.47235880555837095,-0.036785818169613974,nan
1740573893.0733309,0.11553798521093415,-0.436617919956048,-0.23217847806015893,0.18579334720238008,nan
1740573893.0772343,-0.04565572836281133,-0.27942171344838374,0.037805415347400353,0.3410769626244165,nan
1740573893.0811377,-0.0637754147669489,0.31866467709790797,0.19006307191313349,0.28955318378585615,nan
1740573893.085041,0.06492976886301673,0.8510315393763225,0.18473403223624688,0.06649895788719495,nan
1740573893.0889637,0.18248037603553996,0.7991664435401912,0.06667226836437172,-0.14386103817636653,nan
1740573893.0928674,0.1569787667657657,0.16098856359411667,-0.08570368399455743,-0.19635988402092772,nan
1740573893.0967708,0.010635045008359748,-0.540001798977597,-0.18426275189339772,-0.12113601475082734,nan
1740573893.1006742,-0.13312582210584287,-0.7575078199153813,-0.1498534953109957,-0.056795557172183875,nan
1740573893.1045775,-0.1888208539206484,-0.41438771843516886,0.03165621696429161,-0.0743957271071711,nan
1740573893.1084812,-0.16887306870512875,0.09021399301986067,0.25446197572577944,-0.10837841722211095,nan
1740573893.1123846,-0.125498299323372,0.31232930449784896,0.3394735207995722,-0.06369093201594558,nan
1740573893.116288,-0.0765146746289013,0.1655984693581704,0.19549304223825692,0.05259624412191503,nan
1740573893.1201913,-0.00608110959211552,-0.08150167878939388,-0.05953951524173117,0.14257000450167862,nan
1740573893.124095,0.08548574733095791,-0.13978963440716052,-0.190109647467291,0.14341540845531764,nan
1740573893.1279984,0.16486823421101174,0.01820182907455369,-0.09881896601498658,0.09565630406798499,nan
1740573893.1319017,0.20016557270361093,0.19084533837773549,0.03525787187870158,0.07075447129793133,nan
1740573893.1358414,0.1884815285832858,0.1988157159885926,-0.05705471311533691,0.0674276684227708,nan
1740573893.1397448,0.13817202438939002,0.06109723118992412,-0.3848838387111554,0.02182727740059348,nan
1740573893.1436484,0.043653424020048015,-0.06523282964839354,-0.5954560658036014,-0.08564830590469265,nan
1740573893.1475518,-0.09597688028001998,-0.07350125042829032,-0.31278280715132745,-0.17979684320204378,nan
1740573893.1514552,-0.23610217633390285,-0.008063841958601575,0.4008581318193844,-0.17353253663916002,nan
1740573893.1553586,-0.2952391343609738,0.00965688129441183,0.9934369524867586,-0.07779198890306355,nan
1740573893.1592622,-0.22783615562055443,-0.07454930078792019,0.9184259848558642,0.009711645250627256,nan
1740573893.1631656,-0.08023388800484615,-0.18921107382923363,0.19587046787897278,0.025631092955758945,nan
1740573893.167069,0.04895254760785298,-0.21142177765468334,-0.5717753695371245,0.013202613405718001,nan
1740573893.1709723,0.10879732073792463,-0.08743219958853425,-0.7804122563419668,0.0505913702124453,nan
1740573893.174876,0.13798047967099175,0.11620625546788736,-0.39924754859405287,0.13277908791042475,nan
1740573893.1787794,0.1946824317005269,0.26838351557752,0.06551875676915378,0.16806282898929126,nan
1740573893.1827178,0.2610417327711166,0.27745935148066353,0.15250867197108842,0.09748653273443421,nan
1740573893.1866212,0.2465794412995323,0.15388080851671956,-0.08501203484612742,-0.02149340122428872,nan
1740573893.1905246,0.09442479827472558,-0.012295503547058837,-0.22149409719682253,-0.08221066851511227,nan
1740573893.1944282,-0.13678828163106854,-0.1284909199276183,-0.0021788071446015825,-0.06172235093466333,nan
1740573893.1983316,-0.3165428951227018,-0.16104417742203755,0.3614801971995064,-0.043147487971713354,nan
1740573893.202235,-0.3602109978549171,-0.13488038549010042,0.46530171054708896,-0.0945699846552144,nan
1740573893.2061384,-0.2836357943022845,-0.08773637632066793,0.1979781518753645,-0.16414587843711587,nan
1740573893.210042,-0.14567262378160087,-0.03511798148054944,-0.14244381904424963,-0.1363145577114351,nan
1740573893.2139454,0.025905800186584105,0.020298490107290863,-0.21528591647195539,0.015175046948255742,nan
1740573893.2178488,0.22076126470332424,0.05976041261629489,-0.027646059178501436,0.17425974439543454,nan
1740573893.2217522,0.3769689169884305,0.05066396330243283,0.11040231158960859,0.2053879680311105,nan
1740573893.2256558,0.38288950706512215,-0.010765000894032378,-0.016480417475011205,0.1049445254870863,nan
1740573893.22959,0.18857527626376927,-0.06811816643478721,-0.27114323885524455,-0.004250953958866234,nan
1740573893.2334933,-0.09878760392000287,-0.03892833442852818,-0.34183709148944863,-0.0241608089649728,nan
1740573893.237397,-0.2776846765207445,0.10174113206109629,-0.11893443196430371,0.012513512814652848,nan
1740573893.2413003,-0.23744882267374307,0.27063319218171855,0.1828549419027333,0.007292843852734335,nan
1740573893.2452037,-0.06736663086985539,0.3222701480923989,0.27942441925646233,-0.06370262553108218,nan
1740573893.2491071,0.04182465736096715,0.16342014939953772,0.12692649834625871,-0.11955086243753878,nan
1740573893.2530107,0.0009779753658847817,-0.16119607159605479,-0.06531524861130296,-0.08797224646755683,nan
1740573893.2569141,-0.09686668000249225,-0.4842135749310126,-0.09240787933517979,-0.006049788545720838,nan
1740573893.2608175,-0.10303656867994541,-0.6162714889651121,0.04219981862793312,0.027441623584610917,nan
1740573893.264721,0.009942273141330848,-0.45595601658916096,0.18363626412460124,-0.015769526160750447,nan
1740573893.2686245,0.12848370290952354,-0.04539014421971859,0.21721074321612754,-0.05371503530104754,nan
1740573893.272528,0.14450766361350395,0.4439053937479028,0.14775555109346492,-0.002228300656029039,nan
1740573893.2764602,0.07871738578605562,0.7808968050506921,0.019025587504109702,0.10914197459127951,nan
1740573893.2803638,0.03328523014525805,0.7799965566131036,-0.16029007407036602,0.16555186235289415,nan
1740573893.2842672,0.048531597399034114,0.405268393745449,-0.3687995022655621,0.10554786849296287,nan
1740573893.2881706,0.05531676924855122,-0.18562989589645862,-0.49968187527327074,-0.00585751678793634,nan
1740573893.292074,-0.01780957260356423,-0.7062009281106236,-0.4158576578308336,-0.0602320754222576,nan
1740573893.2959776,-0.13021765899008864,-0.8951983566221976,-0.10254847264097544,-0.03620737767309016,nan
1740573893.299881,-0.16633441472935168,-0.6654048044974784,0.2768559957526011,-0.013019922520574996,nan
1740573893.3037844,-0.08311301321383187,-0.14650396202721636,0.5181456639906515,-0.05713746304334045,nan
1740573893.3076878,0.024990522943066234,0.4007788888903545,0.5578621808919358,-0.1323209981843704,nan
1740573893.3115914,0.03775361411298194,0.7308167896556607,0.48240277345617516,-0.14574856810682602,nan
1740573893.3154948,-0.03725150152993311,0.7249868231790971,0.3622268541562081,-0.06466445524923461,nan
1740573893.3193982,-0.06881264137534587,0.42062766099654536,0.1372359875645811,0.046577176055842814,nan
1740573893.323329,0.02955406958472868,-0.03117701036823388,-0.27861931382819816,0.10831182180593396,nan
1740573893.3272326,0.17447278993786364,-0.44005535439944016,-0.7909442883211705,0.1132261835537124,nan
1740573893.331136,0.19790071156296124,-0.648663646162742,-1.0912707874058776,0.11086675201330251,nan
1740573893.3350394,0.052249939024096685,-0.5815992497115333,-0.8910524788759383,0.12324167399150178,nan
1740573893.3389428,-0.11449154542330399,-0.2634260983023093,-0.20501748799459973,0.1118821455022504,nan
1740573893.3428464,-0.11909110740302595,0.18766864722172938,0.6116766769732834,0.037227825045845556,nan
1740573893.3467498,0.03939776632536271,0.5832953145229105,1.1193378378661394,-0.07694693319365337,nan
1740573893.3506532,0.16333151877659294,0.7172335990261641,1.1003537232910425,-0.16353992540984036,nan
1740573893.3545566,0.07228713621092614,0.4651856995378547,0.6549580136272362,-0.18645020415962618,nan
1740573893.3584602,-0.1884799317535215,-0.0977151356233987,0.05918113397076949,-0.16681909290693184,nan
1740573893.3623636,-0.38167178879718416,-0.6655618899493688,-0.4360341807883429,-0.13137625924232166,nan
1740573893.366267,-0.3160773186316168,-0.8538273598675611,-0.7032604671326392,-0.06501098263931412,nan
1740573893.3701956,-0.029729803035431233,-0.48463067497658757,-0.7271529829307968,0.0578154464106386,nan
1740573893.374099,0.2651435713998078,0.22144960773757122,-0.5617348719664963,0.20536513463869424,nan
1740573893.3780024,0.39023716843556516,0.7645545790996751,-0.2958540465904106,0.28841411760062313,nan
1740573893.3819058,0.33162917254260693,0.753969057431967,-0.014276604164834656,0.2452536221626155,nan
1740573893.3858094,0.18512939604021916,0.23876216720207308,0.2385741084079689,0.10972210025171047,nan
1740573893.3897128,0.026611984035437557,-0.33919323712214416,0.4519327406217036,-0.02689986362631159,nan
1740573893.3936162,-0.13017866631915523,-0.5435399162229577,0.5968851185057846,-0.11368980420850372,nan
1740573893.3975196,-0.27114440132259005,-0.31552789504764117,0.5985704455280451,-0.17302749828353525,nan
1740573893.4014232,-0.3349111350986669,0.03393696272703532,0.3912487161517666,-0.2317996735052652,nan
1740573893.4053266,-0.2626813687944434,0.17452066956729326,0.01062092026910647,-0.25283824327892185,nan
1740573893.40923,-0.08087327876668017,0.0676453149586236,-0.388895917006076,-0.17025417197423748,nan
1740573893.4131336,0.10038202240777057,-0.06813640644561622,-0.6306187091472992,0.010571944167621198,nan
1740573893.4170604,0.18446482111444398,-0.04880139375663972,-0.6318362311063223,0.18496499201652605,nan
1740573893.4209638,0.17052743844469406,0.07898497413614008,-0.425534682459874,0.24500245105817914,nan
1740573893.4248672,0.12843563589150753,0.1382319443996228,-0.09498795153434338,0.18961544961327603,nan
1740573893.4287705,0.10594844165581666,0.058601976459614444,0.2708791173644347,0.11252693801663048,nan
1740573893.4326742,0.08424084679045939,-0.0474834431602368,0.5534815366836912,0.08234078195562451,nan
1740573893.4365776,0.027202490427913343,-0.0419299942675421,0.5995992789632736,0.06515847561852273,nan
1740573893.440481,-0.051343255575129726,0.06388113336404871,0.3268251373844116,-0.014735273786329705,nan
1740573893.4443846,-0.09551573929993122,0.13041593666261558,-0.13600344936556102,-0.15700078461713193,nan
1740573893.448288,-0.08011456594218702,0.061728546006206704,-0.46926057015540174,-0.2629972114851879,nan
1740573893.4521914,-0.05043787337595167,-0.09451877456346953,-0.40955400234962286,-0.239488414098508,nan
1740573893.4560947,-0.07107424593481143,-0.2228992163094694,-0.013955545352794868,-0.1014381141517417,nan
1740573893.4599984,-0.1410089468080333,-0.2638716475848425,0.35393169213046516,0.04661235025041586,nan
1740573893.4639218,-0.17889159392432077,-0.2226791539711882,0.3523129550094224,0.11872565459890366,nan
1740573893.4678254,-0.10303682201268345,-0.09133097377573633,-0.008208491814936032,0.1147018270389997,nan
1740573893.4717288,0.07816990538240333,0.1554594454495261,-0.3779675220791378,0.08567583416376097,nan
1740573893.4756322,0.2615362471932504,0.4514950203404805,-0.42000836911501993,0.06689629468700914,nan
1740573893.4795358,0.33314471167066567,0.587510496042979,-0.13361042860141964,0.06294951297097932,nan
1740573893.4834392,0.2564522610827265,0.3675874118249937,0.18188562481879159,0.07381778578517094,nan
1740573893.4873426,0.08750102869904504,-0.14533307744500704,0.2597737349224349,0.09461039252287143,nan
1740573893.491246,-0.0804406620120201,-0.5945132112925059,0.12188984215787817,0.0867184248358199,nan
1740573893.4951496,-0.18250976932022694,-0.6202955264572294,-0.001548758342615107,-0.007498411771621878,nan
1740573893.499053,-0.20902625107272624,-0.21440210762855166,0.04041297812893198,-0.18426854758094727,nan
1740573893.5029564,-0.19024019899254352,0.24608008840780124,0.16405283883915533,-0.3292136892840622,nan
1740573893.5068598,-0.16269390984356047,0.35310433425780696,0.180608889176138,-0.30015929618172527,nan
1740573893.5107987,-0.1391860450671675,0.06012935449702759,0.026447536763628845,-0.08417469157375575,nan
1740573893.5147023,-0.09778005517336497,-0.28654417535608595,-0.1795905935161554,0.15636757726329956,nan
1740573893.5186057,-0.0011319245628875637,-0.2989197268464727,-0.28912261784110294,0.23538941907884348,nan
1740573893.522509,0.15981411379433366,0.08228544836063958,-0.2750203579550709,0.1405927641455685,nan
1740573893.5264127,0.33218006005063627,0.5482569325008432,-0.20330064830749153,0.04275017850874758,nan
1740573893.530316,0.41759310542936867,0.7097469151177624,-0.09946019772133209,0.08925295691884672,nan
1740573893.5342195,0.33896726707086267,0.4152273380587953,0.08419811288021196,0.2189147360636455,nan
1740573893.538123,0.10503783321680286,-0.1603399452862986,0.34515268080932693,0.22617289042383315,nan
1740573893.5420265,-0.18599742219679094,-0.6694830205917907,0.5293216414897618,0.009769099079814934,nan
1740573893.54593,-0.40781391876416456,-0.828790256494928,0.43216442638364627,-0.28780798670266095,nan
1740573893.5498333,-0.47776266093011777,-0.5826632093268421,0.030573260896205028,-0.4216719247736727,nan
1740573893.553737,-0.38495477430917735,-0.11877339526222128,-0.4242577642241076,-0.30455834569859885,nan
1740573893.5576742,-0.17307625665293153,0.27237217404966685,-0.6017001749123247,-0.08301182684865681,nan
1740573893.5615778,0.08517365841715986,0.4176780145171379,-0.39757448751476376,0.048713801616727545,nan
1740573893.5654812,0.3022563359758962,0.3899135313188705,-0.02397062948065847,0.06348089243073633,nan
1740573893.5693846,0.39657942651500283,0.39713623861896485,0.2219261430652924,0.09161425646175746,nan
1740573893.5732882,0.3349785523463357,0.5074583532144005,0.2561317924173896,0.21943325302348082,nan
1740573893.5771916,0.16716416549128132,0.5098169069769278,0.23832743964911793,0.3585595216830695,nan
1740573893.581095,0.0017212100908556528,0.12882276883038893,0.3073440326989338,0.34491061745758783,nan
1740573893.5849984,-0.07748960439394455,-0.5862272295262367,0.3492691317340572,0.13510165433001264,nan
1740573893.588902,-0.0819287849539413,-1.1582956386930328,0.10780370943340332,-0.14161466869530195,nan
1740573893.5928054,-0.09781641875168513,-1.08157699993379,-0.45217992046658473,-0.32395943111953945,nan
1740573893.5967088,-0.18396092414636103,-0.3570277965653621,-0.953609617403667,-0.3656133554998405,nan
1740573893.6006124,-0.2911127577024208,0.4454019027565981,-0.8796533746091311,-0.3212589300324275,nan
1740573893.6045477,-0.2961095378949472,0.7386807497859791,-0.09820454202348045,-0.22817752472723649,nan
1740573893.6084511,-0.1279317533427917,0.5113853813867252,0.9023145832869237,-0.06362661019875687,nan
1740573893.6123548,0.14081969882502837,0.28011167336085746,1.3681767919894043,0.1701112463746746,nan
1740573893.6162581,0.33885067311177974,0.42801222265002464,0.9329375387535118,0.3717773565881423,nan
1740573893.6201615,0.34350990708112045,0.6974332648971189,-0.05722810949765571,0.4069332713552908,nan
1740573893.6240652,0.18826386060297662,0.47347374278872095,-0.8652478173836105,0.24849851894660832,nan
1740573893.6279685,0.022917775086026892,-0.42517062056958393,-1.0111031447596373,0.015767078549844094,nan
1740573893.631872,-0.03427017687046563,-1.3801525204791376,-0.6155312080504761,-0.14168078176466206,nan
1740573893.6357753,-0.0041341997477628905,-1.529348729169177,-0.14953214617506863,-0.17629579788467964,nan
1740573893.639679,-0.006438830364184665,-0.6756004270735978,0.08403179948755939,-0.1436591749792837,nan
1740573893.6435823,-0.11604008530641649,0.4735296206233085,0.17673211982043635,-0.10209407227153125,nan
1740573893.6474857,-0.26716074168894405,1.026371301874682,0.36186921409331313,-0.05870953371779392,nan
1740573893.651418,-0.30999790749817313,0.78916552524379,0.635643426351029,-0.016349481417996935,nan
1740573893.6553216,-0.16651293214818044,0.3356096248547606,0.7129754004421961,-0.016556505978237625,nan
1740573893.659225,0.07516554534263667,0.24174080739063306,0.3635455381773888,-0.08363251132892864,nan
1740573893.6631284,0.23227567304213345,0.42025727617209746,-0.2711062284556839,-0.14327163040835814,nan
1740573893.667032,0.20118467472108886,0.32405963434275625,-0.7529594336653062,-0.06543725458060462,nan
1740573893.6709354,0.05920458462130491,-0.2796807538984085,-0.7452649915604431,0.17274206998420497,nan
1740573893.6748388,-0.014220062313397841,-0.9426349320452191,-0.3149484414169566,0.40136483307315973,nan
1740573893.6787422,0.07633741813804928,-1.0335451075343034,0.15686957415369693,0.39725973729646313,nan
1740573893.6826458,0.2363291785157216,-0.488021861062258,0.3333097830704257,0.1254411238844506,nan
1740573893.6865492,0.26759417209950853,0.11630586104543807,0.18309568169477727,-0.1979602911108558,nan
1740573893.6904526,0.06575352900178037,0.25877549432841135,-0.06386244992542153,-0.31837782082242944,nan
1740573893.6943562,-0.2665888241731589,0.09183975097772654,-0.15295414058328602,-0.2024951701529666,nan
1740573893.6982865,-0.5019718031674273,0.20369714048365067,0.007613936519343641,-0.04901424080293282,nan
1740573893.70219,-0.4818984755315667,0.7964946477912569,0.316722787282765,-0.04358944219261817,nan
1740573893.7060933,-0.23545130096106306,1.291897437963203,0.5553182424055795,-0.15098806482644733,nan
1740573893.7099967,0.0747387434381242,0.9100116962809762,0.5020597021311763,-0.18225057778786927,nan
1740573893.7139003,0.2997471734043771,-0.38288509174074126,0.07723854536529358,-0.036520546038341324,nan
1740573893.7178037,0.39185167999615017,-1.6507743994045694,-0.5382668543560165,0.18317952323228967,nan
1740573893.721707,0.3735607255508956,-1.8185698126542473,-0.9468664477977123,0.30484575380106005,nan
1740573893.7256107,0.26709514642433035,-0.7237331428554684,-0.8077633300252071,0.2825153925975482,nan
1740573893.7295141,0.08425108974638194,0.7064050110610772,-0.15840873857868767,0.2069628338485091,nan
1740573893.7334175,-0.12766776850670836,1.330322294402682,0.5453901961052507,0.1460357668233843,nan
1740573893.7373211,-0.27447168914134934,0.8228002524680273,0.7895375614005811,0.04935424349939332,nan
1740573893.7412245,-0.28418936093832237,-0.1375387325683251,0.46155911948836564,-0.15065095780867602,nan
1740573893.7451522,-0.1850781761966735,-0.6140279729650528,-0.052398567602771826,-0.38773506323100204,nan
1740573893.7490556,-0.08714532779745313,-0.28037968969801197,-0.25820387217190355,-0.484128490629073,nan
1740573893.752959,-0.06783824073061621,0.40068623004505105,-0.042465996491969756,-0.3403610852457636,nan
1740573893.7568626,-0.08577808230212221,0.7298156199542681,0.24884133004771036,-0.056715021806679936,nan
1740573893.760766,-0.02971684526389928,0.42077189320218983,0.2144060580613641,0.17228788044177282,nan
1740573893.7646694,0.14166379051001676,-0.24226258141609872,-0.16266120881745683,0.26134626341779654,nan
1740573893.768573,0.32675958176095554,-0.7579292448391179,-0.5108491395092714,0.2847470682783544,nan
1740573893.7724764,0.3675698163289938,-0.8395115005583013,-0.4821865007943432,0.3255046212456495,nan
1740573893.7763798,0.21039839463380994,-0.5459060364058188,-0.11304217533934277,0.3359491625224637,nan
1740573893.7802835,-0.033404254434515994,-0.10539389288307235,0.2446483217251192,0.1997860292411185,nan
1740573893.7841868,-0.19471622411103853,0.3067438870166917,0.3078308666129602,-0.0873491909925467,nan
1740573893.7880902,-0.20630890180629435,0.6242722600031927,0.12533761592009898,-0.3633273707854137,nan
1740573893.792017,-0.14521908448981607,0.7981683218185596,-0.034948734647484256,-0.4532371127008534,nan
1740573893.7959206,-0.12265356264302793,0.7281038660134451,0.0019206208171298302,-0.34331776595089886,nan
1740573893.799824,-0.15393123993988603,0.33440180855366763,0.16152370432377988,-0.16416401641032807,nan
1740573893.8037274,-0.15330972646870833,-0.2927133861295677,0.24547703940391818,-0.02198994407268107,nan
1740573893.807631,-0.04900874412104655,-0.8484980313040899,0.14903518363458987,0.09525561800119985,nan
1740573893.8115344,0.12138169990898338,-0.9836190210066683,-0.0642791709602603,0.22952811279453864,nan
1740573893.8154378,0.24414704351424557,-0.5841979297437576,-0.2558040108802694,0.3316883161420123,nan
1740573893.8193414,0.24779043615354962,0.09368301489359165,-0.3275872329125915,0.29849918236000483,nan
1740573893.8232448,0.1684701112934358,0.5982027908319224,-0.25912656727433464,0.12630038891364315,nan
1740573893.8271482,0.09263101849917398,0.6415886457567277,-0.09259252681223208,-0.04326598657622651,nan
1740573893.8310516,0.051482832693410974,0.3196816318921411,0.08276109691519583,-0.07909704442881524,nan
1740573893.8349552,-0.00605626485453205,-0.019309222767913158,0.16578023133263753,-0.028527242831502205,nan
1740573893.838878,-0.13169947864906487,-0.1224128682032381,0.12162222125575876,-0.06125425248344933,nan
1740573893.8427815,-0.28639402779947115,-0.042651537647539046,0.03509736160892027,-0.23440204377928667,nan
1740573893.846685,-0.3517745754751018,-0.01195748413874717,0.041412052606872723,-0.37784764952728933,nan
1740573893.8505883,-0.24183274837978613,-0.14092533758953818,0.16873448405757077,-0.2751601416610606,nan
1740573893.854492,0.001001214812133899,-0.28731008394581947,0.2729011851068738,0.057818837073223245,nan
1740573893.8583953,0.22816256709408403,-0.2306474938427902,0.17926456482659586,0.3457874675529667,nan
1740573893.8622987,0.30666765383075695,0.05716283147780802,-0.10118074767249804,0.340266722179212,nan
1740573893.866202,0.22287781464084605,0.35266536811847365,-0.3430353188459947,0.09431651643081615,nan
1740573893.8701057,0.0753462148897952,0.39314794942053993,-0.3351322749461371,-0.10217963712116952,nan
1740573893.8740091,-0.023492251261938952,0.12664161353409828,-0.12110510359752198,-0.05436382978494981,nan
1740573893.8779125,-0.0364150021796141,-0.2500853653613343,0.041141869575602966,0.1292710213383963,nan
1740573893.8818161,-0.00676567004972811,-0.4711194966585092,-0.021596192957473222,0.18920860834641715,nan
1740573893.885755,0.003602098544415304,-0.39994833713716604,-0.1826602483110327,0.030241542934835986,nan
1740573893.8896587,-0.028943039260982087,-0.08715774391765276,-0.15181190495085578,-0.18092882835543928,nan
1740573893.893562,-0.08528078786228423,0.2968186208301462,0.1755065180886966,-0.23472131754750164,nan
1740573893.8974655,-0.13432328565973237,0.5541856716041583,0.5572653136406792,-0.12754676233001963,nan
1740573893.901369,-0.154960154461413,0.5369761598990097,0.6312915058672942,-0.03774551412510968,nan
1740573893.9052725,-0.13391125996239925,0.22426136425251483,0.2882283523745691,-0.0793437669290462,nan
1740573893.9091759,-0.06178158868933328,-0.23032231556841537,-0.21533116189846763,-0.15443197682739768,nan
1740573893.9130793,0.05358443956871444,-0.5611548084452925,-0.5147254657911463,-0.08484984573483488,nan
1740573893.916983,0.17227594921765452,-0.5694590063271147,-0.47348895977824895,0.15106002444177732,nan
1740573893.9208863,0.2365852411715532,-0.2799427372205027,-0.2513533067583031,0.37253230891966677,nan
1740573893.9247897,0.213704594728464,0.08390446850156465,-0.0814088243145333,0.391034347307757,nan
1740573893.9286933,0.12530740585495181,0.29529514760102266,-0.036331940665410005,0.20535313863024726,nan
1740573893.9326315,0.027243960049794135,0.2998774036302862,-0.01785719071284888,-0.023259825460725192,nan
1740573893.936535,-0.04416530272980898,0.20656960258746052,0.07993356839802841,-0.15844051349686986,nan
1740573893.9404383,-0.10103739130787084,0.13360333399140328,0.24742678329261164,-0.20390554481396503,nan
1740573893.9443417,-0.17344236629632012,0.0935699530776907,0.38438542365225326,-0.23438987879728332,nan
1740573893.9482453,-0.2529369170681613,0.02598281540844424,0.39534584356311975,-0.26598248248686973,nan
1740573893.9521487,-0.27827874593014806,-0.09536485915107391,0.24596543025957524,-0.23815908365183164,nan
1740573893.956052,-0.1883498752368295,-0.21744276554629172,-0.02753437935772205,-0.11023160143705948,nan
1740573893.9599557,0.008799345282882298,-0.2602220073627742,-0.3156107913762246,0.07036951357936767,nan
1740573893.963859,0.22458567105128463,-0.18819802404720984,-0.4606962669703982,0.21373941535538327,nan
1740573893.9677625,0.35166559532653274,-0.03222664067156863,-0.35907834857110316,0.275952187023856,nan
1740573893.971666,0.3396586978458729,0.13065290644472788,-0.08359855091488712,0.2769207816081927,nan
1740573893.9755695,0.21678708202430497,0.21065087312734876,0.12910273685127704,0.2432078912016039,nan
1740573893.9795055,0.050791655799894524,0.1560558630282471,0.08577510164668925,0.16701220285091156,nan
1740573893.983409,-0.10016937434629722,0.012298380734388688,-0.14189767595069208,0.03237393965714619,nan
1740573893.9873123,-0.20371438371288936,-0.08286750816314865,-0.24566624969474965,-0.1404396553670506,nan
1740573893.991216,-0.24411529153832479,-0.021714769519935055,0.012331648075485405,-0.29664920617817103,nan
1740573893.9951193,-0.2194156363937277,0.12879778184043986,0.5121533328822903,-0.3838255728855525,nan
1740573893.9990227,-0.1495822776610886,0.1540576959568734,0.833289144613191,-0.37040041123153894,nan
1740573894.002926,-0.07075599652968008,-0.06759614085795987,0.6347993360880897,-0.2402495293421709,nan
1740573894.0068297,-0.006612920282294012,-0.35874139826244184,-0.014303592341599313,-0.0061584989120462225,nan
1740573894.0107331,0.051917224518082145,-0.36839755696463156,-0.6844150421447265,0.25572963853907177,nan
1740573894.0146365,0.12605280331431248,0.027282707379368866,-0.9526159273815774,0.4170566740270512,nan
1740573894.0185401,0.20612011387552864,0.4951424753246097,-0.7206454136996042,0.3897863048992822,nan
1740573894.0224435,0.24277273945684033,0.5307022929561356,-0.21373412230854197,0.2178580178192376,nan
1740573894.0263758,0.1946120508852012,0.021267884750403213,0.26134306654862927,0.046247828264869235,nan
1740573894.0302794,0.08052041701534507,-0.5553801338735409,0.5246839131645749,-0.02498801765384152,nan
1740573894.0341828,-0.0321293723854653,-0.6009686196298449,0.5494505312209799,-0.04028683955108695,nan
1740573894.0380862,-0.09856476189383515,-0.06188141008265633,0.3868507021012161,-0.11491258763167529,nan
1740573894.0419898,-0.1425860635829662,0.48336103005358916,0.12297524026850934,-0.26972889082627305,nan
1740573894.0458932,-0.2136932385423127,0.4667858671978838,-0.12488304219401612,-0.38118217438601054,nan
1740573894.0497966,-0.30022504686836315,-0.016220796495466493,-0.24612626588417844,-0.3189282894417179,nan
1740573894.0537002,-0.3094353065878567,-0.3281245864305529,-0.2102763298897369,-0.10505268352165432,nan
1740573894.0576036,-0.15713030444838272,-0.07185053352539734,-0.08744877061809338,0.10649348353951907,nan
1740573894.061507,0.12299680062567481,0.39873519623709436,0.02346108749699804,0.20599488555951598,nan
1740573894.0654106,0.3779898004492323,0.39236330327027624,0.07405195033348372,0.2346049125833159,nan
1740573894.069314,0.4579116147172556,-0.2413211741570312,0.059418470515939535,0.2870813521326725,nan
1740573894.073244,0.34001646669441393,-0.8410013768863641,-0.03574591864817002,0.34728520239250404,nan
1740573894.0771475,0.1301617389672095,-0.6622342574774068,-0.21921819184367483,0.2874758604329887,nan
1740573894.0810509,-0.048151230773451785,0.21501261018920273,-0.39724039815293694,0.04573279958591476,nan
1740573894.0849545,-0.15175648245238121,0.8981710386804478,-0.36318068861249625,-0.252073178608357,nan
1740573894.088858,-0.21080012828567493,0.6622476435276493,0.020817677700916085,-0.40291598789316957,nan
1740573894.0927613,-0.2536968738385712,-0.21450572857096206,0.5975895071023002,-0.3458661321741972,nan
1740573894.096665,-0.26613795941955903,-0.7455130934324039,0.9386561164601029,-0.21353361788748504,nan
1740573894.1005683,-0.22114806631452105,-0.3446051963338075,0.6958638920042882,-0.14814616081083745,nan
1740573894.1044717,-0.12148681340615886,0.5192879301471321,-0.029801385641480466,-0.12169897086256193,nan
1740573894.1083753,0.0056178722821006695,0.8624208981411327,-0.7112704925449291,0.0018961989367310477,nan
1740573894.1122787,0.14093755340892722,0.28318275166505774,-0.8489286206970824,0.24468649984447713,nan
1740573894.116182,0.2728541106222747,-0.6311299278478532,-0.4260547803887362,0.4358483796871619,nan
1740573894.1201108,0.36299513487979546,-0.9927906228405028,0.09732176392674072,0.39983014444042697,nan
1740573894.1240141,0.3447946909567052,-0.5509193448212104,0.24940656901323113,0.17829745862096885,nan
1740573894.1279178,0.18838242295694635,0.16442344976626874,-0.004460250334856747,-0.009454701244377601,nan
1740573894.1318212,-0.03759185106961224,0.5308744770209008,-0.27354240544146824,-0.0321130492819399,nan
1740573894.1357245,-0.2030836589654333,0.4621738811876504,-0.17131805125497196,-0.0015491270438720052,nan
1740573894.1396282,-0.23811644536547993,0.2965083669637746,0.29233514605184585,-0.11169731692664613,nan
1740573894.1435316,-0.20381270041729405,0.24047620302452843,0.7330227632609748,-0.3621440089527003,nan
1740573894.147435,-0.21480532033278996,0.14402551785035275,0.764493901676488,-0.5247994443535353,nan
1740573894.1513386,-0.28871396976132685,-0.1615685719030445,0.3373111360695335,-0.40620025264648896,nan
1740573894.155242,-0.30258746623570904,-0.5051579083660546,-0.2529458165258762,-0.0781284327477722,nan
1740573894.1591454,-0.12611298190677608,-0.5294056781503383,-0.6420037126506767,0.2112654971835133,nan
1740573894.163049,0.20919572702560602,-0.16092527149494723,-0.6769771849727038,0.323687462432957,nan
1740573894.166976,0.5040277404871322,0.24701959654670094,-0.4723436616238277,0.3457060543364874,nan
1740573894.1708794,0.5699855068629879,0.31725420706241025,-0.2414843457173148,0.40180577229873504,nan
1740573894.1747828,0.4015792267609134,0.08989525288063636,-0.08526225823853958,0.4391938083604805,nan
1740573894.1786864,0.15508704923604064,-0.06558180116073165,0.06947188649386223,0.2898676762461363,nan
1740573894.1825898,-0.03124786431474684,0.05100408050260672,0.33185875452722124,-0.06909186024246933,nan
1740573894.1864934,-0.1640161929805469,0.21377360961340688,0.6491595375878253,-0.4198889602714373,nan
1740573894.1903968,-0.32998710440908313,0.09212819928553727,0.7716093217816776,-0.5278854084298409,nan
1740573894.1943002,-0.532504465238064,-0.27004410456509775,0.47161077177319083,-0.40716449195001486,nan
1740573894.1982038,-0.6345827734521788,-0.4523677389048559,-0.16412298345311413,-0.2758963403933355,nan
1740573894.2021072,-0.48323288426696576,-0.1617164421525867,-0.6987336326675281,-0.2522288259871636,nan
1740573894.2060106,-0.0784047532474576,0.37970187209425305,-0.6956699857163174,-0.1950470929364422,nan
1740573894.2099142,0.3959202261289961,0.6487397460866395,-0.16719643624206004,0.08472822417959386,nan
1740573894.2138371,0.7052573088368378,0.38452556681092737,0.36103568982089307,0.5119428855137036,nan
1740573894.2177405,0.7253764081364386,-0.16259441127706117,0.3256768853908637,0.7612571529328234,nan
1740573894.221644,0.4944183684418335,-0.5471610693817235,-0.2822039793467299,0.6138252226396265,nan
1740573894.2255476,0.1499569483874131,-0.5810177448549853,-0.8368281288314949,0.21625753826767596,nan
1740573894.229451,-0.16374045168915527,-0.39835487938098635,-0.6640469753026423,-0.09387706871357811,nan
1740573894.2333543,-0.35527776065403854,-0.15949124373279452,0.2585157813185266,-0.18144222351423597,nan
1740573894.237258,-0.40918725500380654,0.1416531183737278,1.2125637077855644,-0.22686942763276852,nan
1740573894.2411613,-0.37859794363100147,0.5235393232625153,1.3868827428170216,-0.4227734897678912,nan
1740573894.2450647,-0.3367778387824149,0.8020589541499836,0.6275487393372429,-0.6636044301426994,nan
1740573894.2489684,-0.30401512332464264,0.6944887229246098,-0.44859914727546396,-0.649151320515382,nan
1740573894.2528718,-0.2189869642488033,0.16160196899809184,-1.0547142346386336,-0.2751100448696499,nan
1740573894.2567751,-0.006618040961635727,-0.4635024805970479,-0.915749525155714,0.2046512352935943,nan
1740573894.2607148,0.3111676327486649,-0.7694503203406371,-0.3823142608554518,0.46737023413521467,nan
1740573894.2646182,0.5879933390936972,-0.6504947230427544,0.033755705253492356,0.48828803066289855,nan
1740573894.2685218,0.6608265497919418,-0.33009852294687025,0.1478009249067725,0.5026457070253727,nan
1740573894.2724252,0.4900062459093578,-0.041386019429754166,0.14154989251182262,0.619110997497953,nan
1740573894.2763286,0.18191807702803042,0.19267465115938054,0.22596666745690777,0.6185827128283293,nan
1740573894.2802322,-0.12273515477802968,0.4196908042582231,0.36849733276954244,0.23824927140857924,nan
1740573894.2841356,-0.35794625790874757,0.5281447954839767,0.36533081401969314,-0.41710221103429235,nan
1740573894.288039,-0.5206863347074332,0.32968601383635265,0.1184289294959736,-0.9008928511279874,nan
1740573894.2919426,-0.5873762631392552,-0.1115998596401147,-0.21647139235281637,-0.9013238852391585,nan
1740573894.295846,-0.49958198502607865,-0.3936274002016627,-0.3601131693312638,-0.5777152693964712,nan
1740573894.2997494,-0.25104302399392087,-0.17442184592668175,-0.1708247927574238,-0.31892270720948795,nan
1740573894.303653,0.05292310819195492,0.36705974623637705,0.21264604303305604,-0.2308856103433051,nan
1740573894.307591,0.27388600319650647,0.6210958045445,0.4644857336092788,-0.02860055742969483,nan
1740573894.3114944,0.3765985847470975,0.18870937078962077,0.3243130648376026,0.5102562406069939,nan
1740573894.3153977,0.44071115531142047,-0.630628171188245,-0.17987204211477298,1.125740347271772,nan
1740573894.3193014,0.5157863304717258,-1.1004166151217964,-0.7138488737293159,1.2782204784018911,nan
1740573894.3232048,0.5106163557951067,-0.7993677429553501,-0.8685646540773886,0.7660270967424524,nan
1740573894.3271084,0.2910849742116339,-0.025839144549460454,-0.4860698234150893,-0.01286857413892914,nan
1740573894.3310118,-0.112131819134262,0.5769136021001484,0.19408765230946914,-0.503194707779853,nan
1740573894.3349152,-0.4662573811440789,0.7004990511617426,0.7235974721635889,-0.5955553669091785,nan
1740573894.3388188,-0.5652951880511844,0.5720258390765458,0.8163255926206309,-0.6399284203416864,nan
1740573894.3427222,-0.46633489886415214,0.5214722579437027,0.5509820895775075,-0.8805051281869388,nan
1740573894.3466256,-0.4150401294383816,0.5219234604173266,0.21772711295599495,-1.071584903178754,nan
1740573894.3505292,-0.5097689156947617,0.273261549939484,0.0005906339116137618,-0.787449826436593,nan
1740573894.3544645,-0.5170494772948234,-0.3280191182176907,-0.1466503852007414,-0.013798293144878165,nan
1740573894.358368,-0.11914770858072536,-0.9621352156408949,-0.32851552916961807,0.7723809004272938,nan
1740573894.3622713,0.6514743191874417,-1.1844989619696378,-0.5043650652035989,1.1467646604908996,nan
1740573894.366175,1.3195592897216595,-0.8644578673125713,-0.532757006600453,1.1764273115491166,nan
1740573894.3700783,1.3871944025545768,-0.2506953893066749,-0.3870151241518178,1.1656714383354299,nan
1740573894.3739817,0.8235596045549959,0.33722808889533323,-0.21703443722730467,1.0833139988011091,nan
1740573894.3778853,0.06277941954171787,0.7570383920377055,-0.1423998464250616,0.5249018526906077,nan
1740573894.3817887,-0.4866255142706195,0.9824231363765459,-0.05815733775555598,-0.6490262624925748,nan
1740573894.3856924,-0.8299825912703236,0.9534315928827515,0.24275165560546835,-1.8515106708609947,nan
1740573894.3895957,-1.2043445244629825,0.6285984576746325,0.7517261541838637,-2.2254843987541872,nan
1740573894.3934991,-1.571935457266552,0.13663167226020795,1.1580028583252768,-1.568935807630831,nan
1740573894.3974028,-1.4714391114500822,-0.29376334305079677,1.144877998897678,-0.5561784011578124,nan
1740573894.401335,-0.5021287987357811,-0.6097515750869941,0.695834336958332,0.1041690783589529,nan
1740573894.4052384,1.0740256897230362,-0.9864558351982625,0.005127359619670908,0.5227338310204254,nan
1740573894.4091418,2.3427233404048016,-1.439711709483744,-0.8407479186319343,1.3162204461718483,nan
1740573894.4130454,2.443925688639478,-1.473674813206834,-1.853394771722573,2.450328413082499,nan
1740573894.4169488,1.2932944463467382,-0.4352082196836044,-2.6988603890232974,2.830120235500616,nan
1740573894.4208524,-0.3693069633509259,1.5508655766657644,-2.5079943270973986,1.4644085434569687,nan
1740573894.4247558,-1.5772526875064956,3.14520106021318,-0.5836348234025269,-1.0436869268128215,nan
1740573894.4286592,-1.7732876970940648,2.7204391459699653,2.485974817557253,-2.6886428285429114,nan
1740573894.4325628,-1.0222240250604393,0.04939852345228379,4.699091147558568,-2.123139625668627,nan
1740573894.4364662,0.13672112611982207,-2.9989566783500856,4.151170958606328,-0.33878179728627084,nan
1740573894.4403696,0.943603732545703,-3.8231784472332726,0.946576387730228,0.24170241580946908,nan
1740573894.4442732,0.7574384550858978,-1.4907571940825368,-2.5779396892597943,-1.40278649905471,nan
1740573894.448203,-0.4588224923271469,2.156397081954066,-3.87140689930657,-3.3088527427965633,nan
1740573894.4521067,-1.8225064430979272,3.9780279740049416,-2.5020956931408436,-2.350249041723705,nan
1740573894.45601,-1.957055735839833,2.360487162397645,-0.3362660902477221,2.1521529896149287,nan
1740573894.4599135,-0.17885984153551862,-1.2727094481657466,0.623298993505097,6.980306597105377,nan
1740573894.4638171,2.551043614731756,-3.7408728813774883,0.2867974829711241,7.686144695682905,nan
1740573894.4677205,4.10242754337337,-2.9902765659810533,0.10999925413938597,2.939549906039445,nan
1740573894.471624,3.003484423580541,0.11159975786424975,0.9066032314262644,-3.8876426649882867,nan
1740573894.4755275,-0.049433605517824546,2.6887034522789532,1.6664811291089974,-7.648455527472376,nan
1740573894.479431,-2.6858756345010977,2.5498563173340147,0.9579303708225492,-6.011097938974117,nan
1740573894.4833345,-3.092465524904641,0.15419333176171446,-0.8460565151935733,-1.2438152380019596,nan
1740573894.487238,-1.7443365193109222,-1.9097692878606307,-1.560513203195058,2.3170852063848,nan
1740573894.4911413,-0.724461678147788,-1.4130704591519545,0.17938800649770523,2.349083325030824,nan
1740573894.495069,-1.2606679326620205,1.3220953882262583,2.743099084515051,0.21487983452542125,nan
1740573894.4989724,-2.1760216372744052,3.5452502446053797,2.815455354407805,-0.9726783497040169,nan
1740573894.5028758,-1.1153978001520433,2.5305043470653863,-0.7968452318804596,0.4379071777901907,nan
1740573894.5067794,2.609373481341993,-1.7212009208711363,-5.195458561211641,3.261142272975492,nan
1740573894.5106828,6.6485345266814635,-6.0183586357377274,-5.962968830917741,4.828473327214863,nan
1740573894.5145862,7.417291238402357,-6.454253072033365,-1.8374728403832954,3.4103143910936766,nan
1740573894.5184898,3.4409463154533375,-1.884810795317483,3.69141063661111,-0.46804010492893705,nan
1740573894.5223932,-3.075863798985256,4.6964642664048535,5.873363754883321,-4.573810427611624,nan
1740573894.5262966,-7.993812421655517,8.376886217007135,3.5555407730052857,-6.573106133070013,nan
1740573894.5302002,-8.534342766200677,6.400309591152102,0.022530254127106658,-5.443270676938316,nan
1740573894.5341036,-5.044920178368971,0.4813590783675342,-1.0461145372579164,-1.926499779735033,nan
1740573894.5380073,-0.00794100709348218,-4.7928788309357255,0.23691744675539475,2.0624003835206097,nan
1740573894.5419328,4.168983331214777,-5.982585794706712,0.512176298565157,4.640406044583588,nan
1740573894.5458362,6.341731022179359,-3.4509081626175746,-2.25686774930019,5.007463661364229,nan
1740573894.5497396,6.278089986064255,-0.29829376559540494,-5.718905636688545,3.6430920017516657,nan
1740573894.5536432,4.0417031340289835,1.0242922358031579,-5.443669996844088,1.5922733733163492,nan
1740573894.5575466,0.19039955379698897,0.8191377702986996,-0.1618979868937838,-0.4139346888103531,nan
1740573894.56145,-3.7308834708273633,0.9891012676484068,6.1281942269034495,-2.155334583082865,nan
1740573894.5653536,-5.652430631109469,2.283138404346765,7.878731637360511,-3.4233392119102573,nan
1740573894.569257,-4.493146587118326,3.2311330448614477,3.6484270615246888,-3.6717636730813386,nan
1740573894.5731606,-1.2582283078414789,1.9644543936979835,-2.448441925630343,-2.460078089723485,nan
1740573894.577064,1.6455381434875314,-1.2679417956256418,-5.026362509366592,-0.2236927181963148,nan
1740573894.5809674,2.4212424752476194,-3.904874141824567,-2.745332672198323,1.7208009411209255,nan
1740573894.584871,1.2889225293476447,-3.5755834528743997,0.9243806865527766,2.244344136359478,nan
1740573894.5888119,-0.04683693198010331,-0.5947097076213582,1.879684752684888,1.4917106160302778,nan
1740573894.5927155,-0.19343275819491085,2.291443339986694,-0.34582893331286324,0.6961851856460719,nan
1740573894.596619,0.7358460325282853,2.640615154859676,-2.66471204470027,0.7978782299552997,nan
1740573894.6005225,1.5597778542370413,0.6149407331070856,-2.209047750560294,1.3784616543165225,nan
1740573894.604426,1.3593204967434311,-1.4753954297629954,0.6708749504602771,1.1657677162654276,nan
1740573894.6083293,0.23904848422626268,-1.6766702869979393,3.1933347760537316,-0.4121374677709774,nan
1740573894.612233,-1.0364481200090325,-0.19275195033134188,3.2708723117069707,-2.392006964571592,nan
1740573894.6161363,-1.8299823349173163,1.2262079405851203,1.3250126506114226,-3.150020436279024,nan
1740573894.6200397,-1.95342423210263,1.3077088844227158,-0.7681545312065351,-2.041306821806689,nan
1740573894.6239433,-1.4572662457188177,0.39020966603302826,-1.7943353498165857,-0.010434840509580911,nan
1740573894.6278467,-0.4494679232325039,-0.3287753325575035,-1.8901820587031468,1.4258969436335627,nan
1740573894.6317503,0.7800617882310805,-0.2681033707870029,-1.5657679611089832,1.6195516845893587,nan
1740573894.6356893,1.6763471202574423,0.05993638579111518,-0.8227758067806339,1.1172133496282548,nan
1740573894.6395926,1.7408284192659385,-0.10038061836353558,0.46192405785862384,0.7346475903100644,nan
1740573894.643496,1.0105028570048156,-0.7581804498993244,1.7209156436529434,0.6237308699795024,nan
1740573894.6473997,0.09303236317882833,-1.189988428598394,1.9011843567068032,0.36561407001169294,nan
1740573894.651303,-0.3893023153408564,-0.804600782743958,0.656863006920657,-0.24516518653150107,nan
1740573894.6552064,-0.369318712713581,0.20799012710479764,-0.9970587866571532,-0.8329303921116152,nan
1740573894.65911,-0.28341198456847133,1.1058493303605104,-1.5718067965389704,-0.9195797899079763,nan
1740573894.6630135,-0.4834072332785218,1.3236916229112927,-0.6379236890758734,-0.5471946354229549,nan
1740573894.666917,-0.8171315714930392,0.8904982568180617,0.7465681912033415,-0.21077448186137757,nan
1740573894.6708205,-0.8485049976948303,0.22872642292942935,1.2006185650350294,-0.21623412375601342,nan
1740573894.6747239,-0.405937687340192,-0.29148536761877253,0.4386080788013429,-0.3194805322752847,nan
1740573894.6786275,0.21502549485577607,-0.5660752641136673,-0.601250320797348,-0.10002800739161666,nan
1740573894.6825655,0.6007240957765153,-0.6610198738041498,-0.9040509367906308,0.4438313623439244,nan
1740573894.686469,0.6504429084495492,-0.6434521293171362,-0.39880990541595324,0.8551968703339512,nan
1740573894.6903725,0.5737798677160814,-0.519667866316456,0.2042947885258281,0.7689735780430585,nan
1740573894.694276,0.5272316063180807,-0.26504822457189164,0.34682035649095894,0.3352234966996314,nan
1740573894.6981795,0.4048180325501904,0.1199090363530145,0.14603216393499907,-0.005486780142030939,nan
1740573894.7020829,0.04808168413074751,0.5458422323678683,0.03209567122539326,-0.06948738764371658,nan
1740573894.7059865,-0.43694432195678096,0.8072179596640173,0.13335786754518691,-0.09039476811033972,nan
1740573894.70989,-0.7111953139027439,0.685675763128784,0.19836040099587876,-0.32401729559093767,nan
1740573894.7137935,-0.5735532364457319,0.17181100766593946,0.028743674287722946,-0.6530073751600992,nan
1740573894.717697,-0.20671411136407336,-0.41498571459070477,-0.22997291750195648,-0.7148034333428687,nan
1740573894.7216003,0.022833142354937486,-0.6285515955096438,-0.2956133060673935,-0.3698243684343091,nan
1740573894.725504,-0.023955130816803956,-0.3093355274746567,-0.11423616163954169,0.10943896259314875,nan
1740573894.7294571,-0.13042739295705993,0.2144002355405451,0.10814250922522704,0.36308012745181695,nan
1740573894.7333608,-0.018397966882708696,0.41560479797347666,0.1924332121508107,0.34702431947595785,nan
1740573894.7372642,0.3071907242617772,0.09720632961129144,0.16735827778455445,0.30461811128888316,nan
1740573894.7411675,0.5703678728515506,-0.40214410304605147,0.1321446704405322,0.38418185074173394,nan
1740573894.7450712,0.5454503123107749,-0.5675410145190568,0.060156122357715655,0.4342915866901887,nan
1740573894.7489746,0.28219181943312077,-0.24740344506036385,-0.1416569733566835,0.24133827265999627,nan
1740573894.7528782,-0.006759377612077423,0.21802795095139488,-0.40805991381263096,-0.1329879976497166,nan
1740573894.7567816,-0.20313428896251698,0.40040453878643645,-0.4837469031248029,-0.3868624066628868,nan
1740573894.760685,-0.3494968594814636,0.2404312705921697,-0.18961653369553189,-0.34948239301643913,nan
1740573894.7645886,-0.4842177314825633,0.048986523691908146,0.32868241627599737,-0.19280153907030267,nan
1740573894.768492,-0.515615526244999,0.09493309706851268,0.6938847465347008,-0.19394819103986627,nan
1740573894.7723956,-0.3271977307640423,0.2874881965005143,0.6394979900421303,-0.3548167168713858,nan
1740573894.7763274,0.030994040991389922,0.3079835405540935,0.2209730288542731,-0.382159962110359,nan
1740573894.7802308,0.3395450280060269,0.0011204362089674113,-0.29006736710268255,-0.06689710072139009,nan
1740573894.7841344,0.4220347064972549,-0.4382811152699929,-0.6360296212688533,0.41851203748322785,nan
1740573894.7880378,0.31268352943626465,-0.6673524890571534,-0.6753092873940836,0.6859888310374221,nan
1740573894.7919414,0.17700679575081604,-0.5243756081795131,-0.37113791659205186,0.5568104541226916,nan
1740573894.7958448,0.10322984216227685,-0.13586199470279148,0.16953902588303785,0.22575879914416289,nan
1740573894.7997482,0.03684295538494352,0.24520546772791518,0.636430335216215,-0.009780518735312646,nan
1740573894.8036518,-0.07894954959773975,0.44224218718767466,0.6553681991449666,-0.08705017300159196,nan
1740573894.8075552,-0.17743678304746413,0.418814070751147,0.14569288827685203,-0.1672736709018007,nan
1740573894.8114588,-0.1497422642449066,0.23797327868904652,-0.4767753348238197,-0.34140263282368666,nan
1740573894.8153622,-0.025241856617629947,0.02229622295030261,-0.6095711932641911,-0.4737801142155867,nan
1740573894.8192656,0.01734616850439506,-0.08670138853549551,-0.0828220756848671,-0.3879489597180819,nan
1740573894.8231952,-0.13575780775420596,-0.022841191120807944,0.5850949535866085,-0.12443397432755071,nan
1740573894.8270988,-0.3535229418330928,0.11393913330505759,0.6733176076307223,0.09118122329267832,nan
1740573894.8310022,-0.36727180162163425,0.11229933460619552,0.030232585759483007,0.13111849536751988,nan
1740573894.8349059,-0.0699062840441522,-0.13892769967779586,-0.7233181475269866,0.11692062272660471,nan
1740573894.8388093,0.3422375360177522,-0.4899237144353118,-0.829213062537871,0.23234149226676665,nan
1740573894.8427126,0.5618047901358,-0.6283831418882561,-0.1884270819874381,0.44597734756264396,nan
1740573894.8466163,0.4768635560268608,-0.37219617580166897,0.5577157619006475,0.517570005097153,nan
1740573894.8505197,0.2408201358046753,0.14317402350530406,0.7306211606079105,0.2899569023122115,nan
1740573894.8544233,0.051070349973226924,0.5797708555863234,0.2955857382035261,-0.10716009611357581,nan
1740573894.8583267,-0.07027833074259075,0.685001105898382,-0.21056632417381466,-0.4000983369078348,nan
1740573894.86223,-0.2308398839413645,0.45986346116351035,-0.3360937655728479,-0.4699000158207801,nan
1740573894.8661337,-0.4487833410158235,0.08814539056555773,-0.15200923246248807,-0.42654039431539253,nan
1740573894.8700612,-0.5690446949740805,-0.23124953410839114,-0.02010706824605523,-0.3902171104380498,nan
1740573894.8739648,-0.43415178654232306,-0.3746979476174047,-0.07988953514674595,-0.30085030432632803,nan
1740573894.8778682,-0.08907458256940522,-0.30544057975275796,-0.12258131965655229,-0.02512096334860256,nan
1740573894.8817716,0.2471939661308872,-0.09328777007397714,0.04599308690895978,0.38755066447119635,nan
1740573894.8856752,0.409243247173241,0.07991279662518479,0.28856336500768237,0.6678940007144089,nan
1740573894.8895786,0.425346679536301,0.035788678203732945,0.29986597536268145,0.596621793168849,nan
1740573894.8934822,0.4069388666550863,-0.2010991488923604,0.022777654892056794,0.2561750624470687,nan
1740573894.8973856,0.3570107100802302,-0.35710358836125117,-0.24856184948591972,-0.05799438834471372,nan
1740573894.901289,0.16882063166623007,-0.16470477005446643,-0.22726146263295574,-0.16427950131434857,nan
1740573894.9051926,-0.17816520047122145,0.3025792870064735,0.008554081400779713,-0.15914999625548631,nan
1740573894.909096,-0.49977962942526216,0.6285395634165863,0.12450394402968869,-0.2313956599563142,nan
1740573894.9129996,-0.5594390939698961,0.4750454254337471,-0.03331692591693159,-0.3847092786723142,nan
1740573894.9169254,-0.33109513833897936,-0.013308509501620042,-0.23654525381601235,-0.42913270069805154,nan
1740573894.9208288,-0.04378901638800887,-0.3247806744070557,-0.16773675715264344,-0.23921092970156607,nan
1740573894.9247324,0.06993965876189664,-0.14898133971384628,0.16645147876191232,0.06889403921237308,nan
1740573894.9286358,0.029433877567524906,0.24091901125303142,0.42717617155986576,0.2708005091717186,nan
1740573894.9325392,0.05316222499741408,0.2752484193826925,0.3456512446767298,0.29405598756827006,nan
1740573894.9364429,0.25781687520211455,-0.24319723606532498,0.02538966546355187,0.2630176507257957,nan
1740573894.9403462,0.4794985027042609,-0.8589129427056323,-0.2208064440185761,0.2848954526643181,nan
1740573894.9442499,0.4469033154279055,-0.9232930506554083,-0.2604632064509185,0.28262214297883065,nan
1740573894.9481533,0.10874770159495221,-0.2866798820201158,-0.24317166669134802,0.11183716969611185,nan
1740573894.9520566,-0.27693624160957314,0.5576047283703329,-0.3029236490087342,-0.19464697279358634,nan
1740573894.9559603,-0.40631174919663876,1.0091019857420116,-0.2961533510205853,-0.40109938749100577,nan
1740573894.9598637,-0.24501057800247333,0.9233152621112929,0.024563018251528842,-0.32969699029814886,nan
1740573894.9637866,-0.03764879805853498,0.5787181286198325,0.5903609860406586,-0.08751832365365313,nan
1740573894.96769,-0.015572427613716237,0.20146621090606442,0.9216227195507986,0.043450057094918476,nan
1740573894.9715936,-0.14844953869839234,-0.26992256401179926,0.5809663559274659,-0.06139243732950967,nan
1740573894.975497,-0.2115177485694736,-0.8821421081120348,-0.2930715437016587,-0.21860623331739024,nan
1740573894.9794006,-0.06268057291801317,-1.3079375579281989,-1.013176121995803,-0.15762806645066146,nan
1740573894.983304,0.2007481588705827,-1.0416167458861458,-0.9759294247637058,0.1509690100603374,nan
1740573894.9872074,0.3643303491637686,-0.028587039525293442,-0.2506101741734086,0.4519292164637689,nan
1740573894.991111,0.32628990366735144,1.0560114485793846,0.5043688181724828,0.48776327525412705,nan
1740573894.9950144,0.16969568481828806,1.3520165294996676,0.7020808158979112,0.26302976883724444,nan
1740573894.998918,0.030568477777387956,0.671523754444214,0.360390766665094,-0.00517363263320128,nan
1740573895.0028214,-0.0495077344090313,-0.29385037393950914,-0.02271054352024162,-0.15140846889150036,nan
1740573895.0067248,-0.11986152236397045,-0.6869217004227025,-0.05514683672383896,-0.20540825486885514,nan
1740573895.010664,-0.21038194962746157,-0.33954069617667093,0.15859038225444447,-0.27233455570347403,nan
1740573895.0145674,-0.2755527228455417,0.16807415844749568,0.20512970039672931,-0.3483026116152322,nan
1740573895.018471,-0.253403029458054,0.24554001898454136,-0.13367848795057605,-0.3212736722404621,nan
1740573895.0223744,-0.14334147497222985,-0.07229032248041407,-0.6213852398246884,-0.1365047083193071,nan
1740573895.0262778,-0.00039994255762705345,-0.2975888584190909,-0.79983575353968,0.10941154773698125,nan
1740573895.0301814,0.12921931762120883,-0.1631376406123155,-0.4384249768181345,0.26945441528748937,nan
1740573895.0340848,0.23353113645097898,0.07796281726996408,0.25342164572051906,0.3007680638701341,nan
1740573895.0379884,0.2968587777265804,0.06096337792080992,0.8176632996926267,0.27369621343307404,nan
1740573895.0418918,0.27566271307660767,-0.16187745036948128,0.9189853302177765,0.24449826655148452,nan
1740573895.0457952,0.1442292393208346,-0.18910625131662703,0.5602701210927464,0.17897566640252552,nan
1740573895.0496988,-0.045935351899584066,0.15562561392154356,0.009666433003034932,0.026250491670583916,nan
1740573895.0536022,-0.1877418290461374,0.5182047136884461,-0.4326543302931033,-0.1747437946043576,nan
1740573895.0575395,-0.21575247529053748,0.4224782018820459,-0.6163963199801424,-0.3146087635581133,nan
1740573895.0614429,-0.16592148951531546,-0.0976444350275136,-0.5653180392772841,-0.33371079925181873,nan
1740573895.0653465,-0.12123176300052792,-0.46878543956080854,-0.3860041989763799,-0.2744790709877783,nan
1740573895.0692499,-0.10896636379955961,-0.2509346748153623,-0.16870597583947192,-0.1959233331222757,nan
1740573895.0731535,-0.07849423680885628,0.2910399563872667,0.04804956983618216,-0.0809720469203153,nan
1740573895.077057,0.014876145328324741,0.45335214993855927,0.2523308401273177,0.11846928766418167,nan
1740573895.0809603,0.13285516388965032,-0.06852933725660357,0.4221022431681692,0.3547651885131887,nan
1740573895.084864,0.18880828933025368,-0.7611876773023288,0.5162355285399288,0.4689736042306454,nan
1740573895.0887673,0.15220876135996522,-0.8286419850448911,0.49267080239016664,0.3465876766739984,nan
1740573895.092671,0.08647403970632231,-0.0942441045320859,0.32988589775330995,0.06543896537122078,nan
1740573895.0965743,0.06724052176881125,0.7695568754636126,0.03998652631682341,-0.16290306319419504,nan
1740573895.100478,0.08387626824773943,0.9564678761373715,-0.3195741546584856,-0.20867120299595482,nan
1740573895.1044135,0.05249932205385043,0.3763241850063742,-0.6386750536927539,-0.14359927692198834,nan
1740573895.1083171,-0.0719592169815756,-0.3059709685059499,-0.7791273853447261,-0.12387287754787242,nan
1740573895.1122205,-0.22460283841472067,-0.4420580894478191,-0.6464580906061775,-0.18801127114185048,nan
1740573895.116124,-0.29073424205466264,-0.07766587507228816,-0.2662506898208906,-0.2214869181501025,nan
1740573895.1200275,-0.2245020083092668,0.2013074054354861,0.212049254451159,-0.12043593227422882,nan
1740573895.123931,-0.08440978204894939,0.004938521177838739,0.6060846090430931,0.06603729005822752,nan
1740573895.1278346,0.046117460539025566,-0.4235509239521233,0.8072652302737068,0.19622350302607794,nan
1740573895.131738,0.14241258643853397,-0.5373848764136888,0.8007160617469801,0.20873778984789346,nan
1740573895.1356413,0.22378270542604187,-0.1427573612848559,0.5981231026602774,0.17592183501070557,nan
1740573895.139545,0.2782586473921176,0.3894710640609777,0.19473101283272137,0.17606077245202514,nan
1740573895.1434484,0.24689250119890432,0.5594154906486134,-0.3689549230798479,0.17063401850895465,nan
1740573895.147352,0.10103563492814226,0.27895009809865273,-0.9149346539072118,0.06266120333375001,nan
1740573895.1513023,-0.09131291289935037,-0.08864380062982744,-1.1620978516236664,-0.1415907063051186,nan
1740573895.155206,-0.21283192528858108,-0.1768818778692834,-0.921303052878462,-0.297037756624986,nan
1740573895.1591094,-0.2143335245004592,-0.002323515478726005,-0.2791149803326682,-0.27750340901449044,nan
1740573895.1630127,-0.15848853684149986,0.12512479074640742,0.4339559275655838,-0.12930962663417844,nan
1740573895.1669164,-0.13094881359903657,0.004154271780717533,0.8835822770570811,-0.014820896987745961,nan
1740573895.1708198,-0.12866922336101455,-0.23175700183069162,0.9505765224393071,-0.010743098801699722,nan
1740573895.1747234,-0.06929773916573698,-0.2960522136836104,0.7311498840760592,-0.02192356511134469,nan
1740573895.1786268,0.08645032372760002,-0.09166614479393131,0.37189736709220894,0.07384180858739847,nan
1740573895.1825304,0.25561236230874174,0.1810137589730331,-0.04200031996421174,0.2392128740666696,nan
1740573895.1864338,0.3053056883247025,0.24776963814919853,-0.44225994332616886,0.3012050735172688,nan
1740573895.1903372,0.1961368429478871,0.04948958716727527,-0.7039741017129743,0.1667032823047395,nan
1740573895.1942408,0.024360687409076192,-0.20638014971301957,-0.703797000306675,-0.04632040122044407,nan
1740573895.1981711,-0.0864021322999876,-0.25870100938671514,-0.46183596158928714,-0.1400254467487968,nan
1740573895.2020745,-0.10958253482964866,-0.038002217617643184,-0.16011649012314996,-0.07282897010016241,nan
1740573895.2059782,-0.10979333008382344,0.28202871055416706,0.03642684035670974,-0.0016971695205009645,nan
1740573895.2098815,-0.1314445582945994,0.44448860556141634,0.15646666788656557,-0.0738774058240299,nan
1740573895.213785,-0.13792134489055685,0.31860268383009566,0.3552325933703081,-0.23094181081392287,nan
1740573895.2176886,-0.07955488872338451,-0.01139011897238029,0.6542213007799994,-0.27462489647395344,nan
1740573895.221592,0.012555386157123647,-0.32553566215868235,0.8140308804483424,-0.11225011644976046,nan
1740573895.2254956,0.05002519938432958,-0.4359174990119552,0.5497025370230921,0.12691264334112734,nan
1740573895.229399,0.010014107954203494,-0.3139367684104209,-0.11539735060185323,0.24622964270123845,nan
1740573895.2333026,-0.011390037673228551,-0.08910791153144691,-0.7734354215883954,0.2060029823600391,nan
1740573895.237206,0.08779045022638525,0.07143375010304545,-0.9688763281943275,0.13665914500378207,nan
1740573895.2411094,0.2593892430675342,0.10178533204355827,-0.6127134753343407,0.1397860977142226,nan
1740573895.245037,0.3146223874919559,0.07688223380072137,-0.03679519323230535,0.14837633976489673,nan
1740573895.2489405,0.12463143642663006,0.11876809900190888,0.35058066888144224,0.03155506263812609,nan
1740573895.252844,-0.20660695652332028,0.2568205462036052,0.4157232702909521,-0.19821735682148137,nan
1740573895.2567475,-0.4132370769189583,0.3771127859532364,0.30381925721795516,-0.35729706024739893,nan
1740573895.260651,-0.3279860764551309,0.31704597894281766,0.17666862572393024,-0.2940191375599821,nan
1740573895.2645545,-0.050812155620774145,0.023939812009388786,0.04845791937978242,-0.07243191201275483,nan
1740573895.268458,0.1622781556786279,-0.36892547761960615,-0.10917010580156496,0.09700537251318178,nan
1740573895.2723615,0.1644591157400302,-0.6243303866566347,-0.20644725256446997,0.09781880063823589,nan
1740573895.276265,0.04303148902604695,-0.5757710089514043,-0.09649101717612002,0.024896825675754835,nan
1740573895.2801685,-0.01844328803415721,-0.24888540702596781,0.19574140653151764,0.04251584724399877,nan
1740573895.284072,0.039965901222244096,0.16594156315515474,0.4020968288155583,0.16931862003816786,nan
1740573895.2879755,0.11000982579967769,0.4555547261051374,0.2551124591195685,0.25716169154383195,nan
1740573895.291902,0.07606990787263367,0.5164243931017638,-0.2037041213602075,0.17875510285913288,nan
1740573895.2958057,-0.03347045811117146,0.3801233492354386,-0.6214717987179833,-0.01757315554400253,nan
1740573895.299709,-0.08898141003930507,0.14380487531263367,-0.6644345518138282,-0.17103504046454124,nan
1740573895.3036127,-0.029852118634223553,-0.10214894073201722,-0.3196220536096002,-0.19445027502648024,nan
1740573895.307516,0.05820473025886848,-0.28492348261116174,0.1475300307499562,-0.14746769320124312,nan
1740573895.3114197,0.052608022468985514,-0.33142968172977016,0.4808515221659233,-0.12427540595310231,nan
1740573895.315323,-0.05288144529231802,-0.19911190331376655,0.6102591212149637,-0.12180690589805872,nan
1740573895.3192265,-0.14281309446495047,0.04403496631691613,0.5644228964732976,-0.06149097016233919,nan
1740573895.3231301,-0.12266975597960322,0.20171338692153443,0.33069964264279345,0.07807643238989527,nan
1740573895.3270335,-0.026637546307793695,0.08982552541650436,-0.09297988433255286,0.20527862258047933,nan
1740573895.3309371,0.03905844095474853,-0.24770762250117287,-0.5376829948567413,0.21487075409015857,nan
1740573895.3348405,0.034489573336769885,-0.48707388534132373,-0.6946778554630492,0.11306915243709567,nan
1740573895.3387818,0.025566849057449426,-0.2800134555274955,-0.4090407183768996,0.007378271245783515,nan
1740573895.3426852,0.08004603317132843,0.36362278485796573,0.09035064257769743,-0.022057618270974064,nan
1740573895.3465889,0.16299651547768845,0.9649638010221478,0.3621413619126253,-0.0048900867417273,nan
1740573895.3504922,0.17212645976077773,0.9429940562590476,0.2033126987565624,-0.02134248745201158,nan
1740573895.3543959,0.06795034217262459,0.17762096366586377,-0.12440966158118763,-0.08986433506781351,nan
1740573895.3582993,-0.07136653409795318,-0.7922531807355804,-0.1864899229909726,-0.1469411870156444,nan
1740573895.3622026,-0.14300388289959565,-1.2013974131034533,0.12182024351097778,-0.13284642371434768,nan
1740573895.3661063,-0.13967251074478856,-0.751767481735427,0.44460082362009984,-0.06239362915779867,nan
1740573895.3700097,-0.13965336344481633,0.11555930400532023,0.3742838096907665,0.005550994132783533,nan
1740573895.3739133,-0.17968460297104416,0.6588679579603508,-0.06583249645465834,0.044635862203583114,nan
1740573895.3778167,-0.18218798804259437,0.5454979418957331,-0.43009953739348133,0.07662757269937882,nan
1740573895.3817203,-0.04592917283296103,0.10727423212256594,-0.3472143293694545,0.11608011244565927,nan
1740573895.3856592,0.2023734456335734,-0.09725877863425367,0.06465463731377696,0.13431350647761758,nan
1740573895.3895628,0.39094106655233746,0.09104147888743108,0.3349750039674086,0.09757125765577075,nan
1740573895.3934662,0.3635647632552552,0.3064238001046573,0.16284286792695002,0.021555646337067375,nan
1740573895.3973699,0.14353961277818417,0.14313073004381502,-0.2676807006294193,-0.040862676570532754,nan
1740573895.4012733,-0.08869036588161487,-0.3291530315992021,-0.5068776987131837,-0.06450666782140797,nan
1740573895.4051766,-0.18177431239414724,-0.620320348383316,-0.3134445104518742,-0.07649827904051527,nan
1740573895.4090803,-0.15366960476410163,-0.3814335233989767,0.13803780166638122,-0.10386017236228387,nan
1740573895.4129837,-0.13477424387959644,0.17709282128685166,0.48370689831873415,-0.12073965896201574,nan
1740573895.4168873,-0.1935398246417824,0.4973331474781578,0.5192951011686776,-0.07832944287514684,nan
1740573895.4207907,-0.25190985884528544,0.28159905335647756,0.3041259769631371,0.016904802207973118,nan
1740573895.4246943,-0.18112080479050924,-0.1879054455042836,0.004916104823810226,0.08970688557393004,nan
1740573895.4285977,0.04215582106572698,-0.37135455443905296,-0.2595951490815912,0.08090467770422463,nan
1740573895.432536,0.29617521491896803,-0.06605819291982346,-0.4160039284542006,0.025743506500124896,nan
1740573895.4364393,0.42276274105814704,0.38753357562132146,-0.3861856967664096,0.015218374948205018,nan
1740573895.440343,0.35647384520635295,0.49583995527697694,-0.14374599968255508,0.07889918458154112,nan
1740573895.4442463,0.151046826115641,0.14197792819892344,0.182297874697597,0.13860217044232478,nan
1740573895.44815,-0.08771085750628725,-0.324559048188107,0.34973471981154175,0.09995639318739534,nan
1740573895.4520533,-0.2688098649056849,-0.4949536425670586,0.21932666532117004,-0.02877397985673202,nan
1740573895.455957,-0.33454182609377087,-0.31485799596416625,-0.08286155568934302,-0.14186540512957618,nan
1740573895.4598603,-0.26396663288314276,-0.05723543301743619,-0.27151102464712673,-0.16006244485638174,nan
1740573895.463764,-0.09332200829948138,0.053503002117436964,-0.187581686460806,-0.1148726791546898,nan
1740573895.4676673,0.07960298926305613,0.08600546193024287,0.0510168776969935,-0.08738642330805244,nan
1740573895.4715707,0.15201708048780382,0.2346185693133584,0.20230143516764484,-0.08812450022453845,nan
1740573895.4754744,0.10200245546822609,0.47983009950271843,0.17225648644617744,-0.04308243225412413,nan
1740573895.4793591,0.011094527586953553,0.529146962324327,0.08776774612940165,0.09127959647196159,nan
1740573895.4832625,-0.015090231324640454,0.14891509786797458,0.09919774032593473,0.23890261173707042,nan
1740573895.4871662,0.049771450791970435,-0.49054500394615896,0.16731482939557596,0.2700936212656923,nan
1740573895.4910696,0.13571082813795937,-0.8887142098766286,0.10168381539282881,0.14996301463664188,nan
1740573895.4949732,0.15688348655616324,-0.6823098773629156,-0.1908973755983062,-0.017829940173263517,nan
1740573895.4988766,0.09102338594152981,-0.023737868887465628,-0.5440833339656503,-0.11074895785447447,nan
1740573895.50278,-0.02401459298462369,0.5468818714871503,-0.6553854183304926,-0.12015440133382946,nan
1740573895.5066836,-0.14505406539705795,0.6212910746068001,-0.3714912614628587,-0.13040558203447303,nan
1740573895.510587,-0.24273832171124768,0.296273368713677,0.16174994482851995,-0.17875717822346704,nan
1740573895.5144906,-0.2722189479976152,0.013536571534791887,0.6249793397204986,-0.1880633380700116,nan
1740573895.518394,-0.17396965743533657,0.04933296536784095,0.7801246451725995,-0.06940750649983143,nan
1740573895.5222976,0.05165776858232082,0.21387771293845995,0.6085623872814154,0.1356171692815445,nan
1740573895.5262294,0.28037484230885285,0.09409981247225463,0.24754121519733646,0.2660878522995229,nan
1740573895.5301328,0.3310704684272716,-0.4216114388603755,-0.15274702023321893,0.21004360197769348,nan
1740573895.5340364,0.14237217653973497,-0.9236890947221729,-0.4959138961699834,0.03127915778689043,nan
1740573895.5379398,-0.127889093592824,-0.8475384255559815,-0.7079168054448842,-0.09940771805358939,nan
1740573895.5418432,-0.2271358940241636,-0.0763576249931298,-0.7043771272347387,-0.08614834994555008,nan
1740573895.5457468,-0.061489119602477785,0.8547876317048948,-0.4327092008810077,0.009697689176832433,nan
