timestamps,TP9,AF7,AF8,TP10,Right AUX
1740794952.7016196,-0.41790070172457006,-0.8469090466551725,-0.3730542779445349,-0.24301143341910741,nan
1740794952.7055256,-0.4591098197318233,-1.1480605187484978,-1.018382927288769,-0.2877365171296573,nan
1740794952.7094314,-0.2086177586198583,-0.6401027009069141,-1.0613696692192773,-0.1213945685884044,nan
1740794952.7133374,0.13759199231382288,0.08479913776575448,-0.4821013806121162,0.0683355525439697,nan
1740794952.7172432,0.33945684409044535,0.4005603419777525,0.23049245728826323,0.12281375027985621,nan
1740794952.7211492,0.3146782924958653,0.2223467227329678,0.525325067190283,0.08688241265896321,nan
1740794952.725055,0.16395373478669503,-0.04984631726791085,0.31660494506432646,0.10299202655521071,nan
1740794952.728961,0.030419344045359734,-0.06131887611317968,0.02583131031413157,0.18667163526427266,nan
1740794952.732867,-0.032078085860192826,0.1334003772638441,0.07982178958804306,0.19474502765119245,nan
1740794952.7367728,-0.0593352774524643,0.2372661866267426,0.4147453509849943,0.0302069738834536,nan
1740794952.7406788,-0.09314868645593541,0.12399868944188035,0.548253324193487,-0.19650105058029635,nan
1740794952.7445846,-0.1321977302020348,-0.029156488125669955,0.1515908266629806,-0.27764295430725167,nan
1740794952.7484944,-0.15245012137005878,-0.014037822304318779,-0.5230746773563227,-0.1569463796823238,nan
1740794952.7524004,-0.13782492787082362,0.1147210472874436,-0.8628486912136331,0.005516667042170295,nan
1740794952.7563062,-0.0793626172275523,0.10558257398222813,-0.5412940055823273,0.038780917850748664,nan
1740794952.7602122,0.0270970763482874,-0.15551017540891537,0.12194021632205372,-0.029737477488900658,nan
1740794952.7641182,0.15509387231563063,-0.4667390463752131,0.4974314719899395,-0.03177019581346993,nan
1740794952.768024,0.23303055736304715,-0.5100681973911937,0.31176312949022017,0.09867282458226682,nan
1740794952.77193,0.19390649395228685,-0.19078718224933597,-0.09375029139792874,0.22257693569176923,nan
1740794952.7758358,0.05423165920748961,0.2699334658729724,-0.18865649794092207,0.17381455959656109,nan
1740794952.7797418,-0.08111352455966774,0.5628464078223874,0.1312424900920932,-0.015121184877322722,nan
1740794952.7836478,-0.11910413043567847,0.5523362999921877,0.4407003724304761,-0.1407696706523394,nan
1740794952.7875535,-0.07532248705534357,0.3073301747444676,0.30287091400242383,-0.08159208859953491,nan
1740794952.7914596,-0.04355683418168863,-0.04280112309731896,-0.19814544126781444,0.04944682981217711,nan
1740794952.7953715,-0.0689490936706109,-0.3912879695848103,-0.5333204464757247,0.05270589040724513,nan
1740794952.7992773,-0.08801100511295612,-0.6059837657857811,-0.33391169649800795,-0.09773120257062624,nan
1740794952.8031833,-0.02199707722467543,-0.5196454478541642,0.1701428200423013,-0.21594356370063802,nan
1740794952.807089,0.09453467068165251,-0.08243735394000994,0.3941285506582334,-0.13830763143611682,nan
1740794952.810995,0.13150062596141063,0.476837634837192,0.06259752512784815,0.06860705409682827,nan
1740794952.814901,0.026922096284699756,0.7448026037471488,-0.45717891905691477,0.18898344865921082,nan
1740794952.818807,-0.10894936694911679,0.4746229527869905,-0.541654535892503,0.12076429960788125,nan
1740794952.822713,-0.10373800642244076,-0.14634459627736635,-0.00014602118339516055,-0.012113229493467189,nan
1740794952.8266187,0.06530453374476047,-0.6294513965640774,0.6926533839722078,-0.030480776469954767,nan
1740794952.8305247,0.22014095917574983,-0.621090605715983,0.8762494639895707,0.0735956204738989,nan
1740794952.8344305,0.17559606439136072,-0.2045114973682625,0.37302461677022397,0.13968847163173365,nan
1740794952.8383365,-0.04128044459787132,0.23215855042861713,-0.3633061081439862,0.052835143080188926,nan
1740794952.8422482,-0.2132770518968655,0.39230857152586035,-0.7385798720724743,-0.11289955960931293,nan
1740794952.8461542,-0.17950869257825217,0.2999980662501367,-0.5836643149991663,-0.19447162264701862,nan
1740794952.85006,-0.01467243382880807,0.16085543178806785,-0.20643994662864096,-0.13804918401962138,nan
1740794952.853966,0.07279865554355032,0.08219339112022812,0.041585001553516285,-0.03977128711595696,nan
1740794952.857872,-0.0033354495253149975,-0.0015312512091710672,0.1329035837345812,0.0019020989321721017,nan
1740794952.8617778,-0.10959431919050153,-0.15268510999850515,0.26368506887721177,0.008004584431938619,nan
1740794952.8656838,-0.06811942135644897,-0.280599435194524,0.4798089916606286,0.05644066184258885,nan
1740794952.8695896,0.11532415008671192,-0.23827396667301448,0.5417169957995605,0.139984596809448,nan
1740794952.8734956,0.24994494638994005,-0.04052895395211045,0.21840973407352202,0.15653302559125631,nan
1740794952.8774016,0.18250924986236738,0.10364215191221789,-0.3520814154739903,0.052617200865221835,nan
1740794952.8813074,-0.02733601796521367,0.0273410118618916,-0.708483631038053,-0.08010270727753735,nan
1740794952.8852134,-0.1809956635994101,-0.16345621548360018,-0.5211626849773047,-0.10163282332353976,nan
1740794952.8891246,-0.16088808929991733,-0.17249445436696248,0.037924789792056476,0.00039553668853049015,nan
1740794952.8930306,-0.03418300138155626,0.1426382439012341,0.4407033420524522,0.0861472961826467,nan
1740794952.8969367,0.05691721346808714,0.5515110948142787,0.3324970820410877,0.03202433824402349,nan
1740794952.9008424,0.056467702338367336,0.639348223119562,-0.11276985876667653,-0.11601783870439984,nan
1740794952.9047484,0.015325580118035143,0.23465208889568542,-0.3859994706090757,-0.1961210451485376,nan
1740794952.9086542,-0.015007614977757013,-0.38082344438708426,-0.1744602604313314,-0.12171006417962558,nan
1740794952.9125602,-0.04629002835800927,-0.7220348326082898,0.3242975762751883,0.027234567215470337,nan
1740794952.916466,-0.09509292311907715,-0.56120589761263,0.6138828736378268,0.1143352513859516,nan
1740794952.920372,-0.11068247186085264,-0.12274126265485753,0.39618195524656735,0.10545776215822811,nan
1740794952.924278,-0.019261075867852712,0.17740804358685805,-0.15084747864751058,0.07823269178032881,nan
1740794952.9281838,0.15832886188241704,0.15651402687833316,-0.563490127597972,0.09241858305999391,nan
1740794952.9320898,0.2823305260249759,0.00833501258085496,-0.5299396369668776,0.10708750717164424,nan
1740794952.9360008,0.22529397457211783,0.04129795849853689,-0.1488802831756018,0.05035780975930747,nan
1740794952.9399068,0.016191574317447183,0.3179638166118963,0.20367219505789788,-0.06565876899122282,nan
1740794952.9438126,-0.17944936531387076,0.5798973807680343,0.23722558932781412,-0.14752434620619087,nan
1740794952.9477186,-0.2290908625568009,0.5150192109168614,-0.0025655557012908277,-0.136305966491104,nan
1740794952.9516244,-0.15764070075533504,0.07112655047777554,-0.20286257735619415,-0.07744772723324295,nan
1740794952.9555304,-0.0881119705608644,-0.4931131832031087,-0.09090634118949956,-0.051707804196030174,nan
1740794952.9594364,-0.0814246412529384,-0.8319671110835383,0.29683614420285886,-0.06422364369975891,nan
1740794952.9633422,-0.07182131664697348,-0.7669393338740691,0.6222771333173898,-0.04230257671406618,nan
1740794952.9672482,0.03200040388331322,-0.36055790095556367,0.5359684579603502,0.05805645042991564,nan
1740794952.971154,0.21157358775713478,0.1791387492271449,0.006319910287238395,0.18211053132099986,nan
1740794952.97506,0.3338141702314875,0.6202081710188178,-0.6132786409738654,0.23354888471241328,nan
1740794952.9789658,0.28088958675845715,0.7790577995750467,-0.8661397898168168,0.17824116948036423,nan
1740794952.9828765,0.06821995323074141,0.5804348147093916,-0.5846245641930669,0.0619518105832547,nan
1740794952.9867826,-0.16911146198853014,0.12386273464205322,-0.0269347706545202,-0.061444686481438554,nan
1740794952.9906886,-0.2925215460397841,-0.3264466118105448,0.37848544133606793,-0.1751904020773689,nan
1740794952.9945943,-0.25871486535118965,-0.5021804344315556,0.4289364721796048,-0.26032747961224806,nan
1740794952.9985003,-0.12644021620781154,-0.3473754938640934,0.28505379874161135,-0.25666575931649227,nan
1740794953.0024061,0.00640845768740147,-0.07126832567499687,0.2247249327492365,-0.11780373800354797,nan
1740794953.0063121,0.07215613630948503,0.05622201683273888,0.30294939873181437,0.09575231021722874,nan
1740794953.010218,0.06832895902247925,-0.023530006011887337,0.30389746743563595,0.2319586717797243,nan
1740794953.014124,0.04671289349811485,-0.11685416537201622,0.03095494192102964,0.1945230930004658,nan
1740794953.01803,0.06251930182720321,-0.026430968104788476,-0.41339380335807363,0.05549272371005102,nan
1740794953.0219357,0.11665229594236542,0.1940679730690349,-0.6947491734924723,-0.021504492456975544,nan
1740794953.0258417,0.14688744134257728,0.2930235258070805,-0.5900229010874707,0.0278254323245554,nan
1740794953.029752,0.09161049209817666,0.13708195665698372,-0.2112641176818706,0.0963365280097069,nan
1740794953.033658,-0.03231802073096717,-0.09355426193793184,0.1400594574471475,0.04815292254276958,nan
1740794953.037564,-0.1321245709588461,-0.10221563868909327,0.29931309644622295,-0.10112543652821462,nan
1740794953.0414698,-0.13578481437317177,0.13919747542511846,0.35482081476974464,-0.19895815929393815,nan
1740794953.0453758,-0.07569946178341828,0.2971726652635363,0.44005888693120343,-0.14898701890141441,nan
1740794953.0492816,-0.049279614571066103,0.050462861927538745,0.4960776135633509,-0.031001663958442796,nan
1740794953.0531876,-0.09118204997773792,-0.47008939507427017,0.32804829976608846,0.01225632258670924,nan
1740794953.0570934,-0.1154237128518866,-0.7292677250395282,-0.10630908297356058,-0.02806160609353086,nan
1740794953.0609994,-0.016620575385124334,-0.3534355842580904,-0.5537807440003667,-0.01579849814463718,nan
1740794953.0649054,0.17936657007945467,0.3923862341060873,-0.6834575822648382,0.12797515628647277,nan
1740794953.0688112,0.30737101289965785,0.803995337596735,-0.4312171618302354,0.2776998366554945,nan
1740794953.0727172,0.2312350470844266,0.4689712005523388,-0.06098381651240684,0.23002757553068734,nan
1740794953.0766273,0.002130828357052304,-0.25794103781155864,0.13684805882050072,-0.03060663264296863,nan
1740794953.0805333,-0.18463105339952718,-0.6000302226071823,0.15053672527859127,-0.26843106777390907,nan
1740794953.084439,-0.1929921722103338,-0.19168913287951503,0.19292501698824663,-0.2461764503864769,nan
1740794953.088345,-0.0764122602840814,0.5078155769295956,0.36974511067735755,-0.0037976391691253997,nan
1740794953.0922508,0.009691878999039996,0.6959944521346463,0.4982976403497078,0.17756053871683666,nan
1740794953.0961568,-0.00480322877051936,0.09466183019992395,0.3200395702922519,0.09763986410646863,nan
1740794953.1000626,-0.046815655404386494,-0.7411628745955554,-0.14431897754878784,-0.13471190518005186,nan
1740794953.1039686,-0.025057696844782984,-1.0026956302069963,-0.5440474120025783,-0.2376193497489808,nan
1740794953.1078746,0.0410611605020871,-0.45211135211756287,-0.5450658534015084,-0.087411228274328,nan
1740794953.1117804,0.05915752865101907,0.3881760865160091,-0.18662707594696912,0.15193577577591688,nan
1740794953.1156864,0.007267232807505368,0.824859105330829,0.16467006243209098,0.23942784745655182,nan
1740794953.1195922,-0.022981316424287652,0.6613729931773383,0.21208788830702488,0.1327821395015392,nan
1740794953.123502,0.046832551714449375,0.241707166840879,0.024555236643763294,-0.001593701511714728,nan
1740794953.127408,0.15320381582554118,-0.05704946497470227,-0.09042750253659179,-0.024596417092881028,nan
1740794953.1313138,0.14666791566771314,-0.21064443993215792,0.035803002610927205,0.012591723327598303,nan
1740794953.1352198,-0.018778347921277597,-0.39136927150965645,0.2485736147512089,-0.024460823493541537,nan
1740794953.1391258,-0.20213011738182002,-0.5746085074580517,0.271207444583273,-0.14219828186251643,nan
1740794953.1430316,-0.22041486562143842,-0.4899742635991573,0.03529911864640663,-0.19590891382510459,nan
1740794953.1469376,-0.05922411928503723,-0.006202970005248047,-0.24036551349090823,-0.08494804614035895,nan
1740794953.1508434,0.10678588581126609,0.5690521860655108,-0.2906030960333131,0.09775872415420624,nan
1740794953.1547494,0.11270625131040192,0.727103984183834,-0.07849830466965362,0.16625098707399596,nan
1740794953.1586552,-0.015402760786010203,0.3127498945409755,0.1841424224224159,0.0671987373374939,nan
1740794953.1625612,-0.10811989254531607,-0.2637593368341635,0.257046218531683,-0.05858199105926798,nan
1740794953.1664672,-0.05857668723492659,-0.44934002786040156,0.08450822174604646,-0.05574095288165843,nan
1740794953.1703792,0.06725911911513317,-0.14527985851013223,-0.18597063203636527,0.056232402488101796,nan
1740794953.174285,0.1340611673792841,0.20844656531350575,-0.34576598697992983,0.12080534978062685,nan
1740794953.178191,0.10339295658003439,0.16142559324460623,-0.27658532587737356,0.050129422054284695,nan
1740794953.182097,0.05204028639646869,-0.22062554438628193,-0.014274903691043292,-0.0696914907702741,nan
1740794953.1860027,0.04110453037593482,-0.44060817849110195,0.2798254445854853,-0.10024625936959689,nan
1740794953.1899087,0.02761463290375332,-0.16101406183316008,0.4153708757997906,-0.029432219277182214,nan
1740794953.1938145,-0.06093600997865332,0.38642844827476375,0.30137475480872034,0.02610431706180516,nan
1740794953.1977205,-0.1971588600742144,0.6394976315955611,0.02539944266226523,-0.013212591327243976,nan
1740794953.2016263,-0.25464225928922846,0.3144257108305369,-0.2064582877195195,-0.08317704322127156,nan
1740794953.2055323,-0.15095599031766263,-0.29464472271143377,-0.2478490663622325,-0.0680746398186355,nan
1740794953.2094383,0.04607154866045558,-0.630977454515563,-0.14188651670583693,0.03708486529390005,nan
1740794953.213344,0.18483114190389116,-0.4303128056360783,-0.05231955347296721,0.1142897239492573,nan
1740794953.2172558,0.18829747676003042,0.07232404597939521,-0.06136467060904607,0.07708023400651744,nan
1740794953.2211618,0.114903300302073,0.4372868060234259,-0.0744930600586322,-0.014498380227021204,nan
1740794953.2250676,0.06405179571678499,0.4387523765569776,0.036468200859304516,-0.032962277826466733,nan
1740794953.2289736,0.05882252462929686,0.1832545233580077,0.22068870039513716,0.045698653238883745,nan
1740794953.2328794,0.04528049057092846,-0.09558686867623073,0.2563603484212465,0.10419184682914702,nan
1740794953.2367854,-0.01694017766557893,-0.26321890575616663,0.018977438782002157,0.03293292430974255,nan
1740794953.2406914,-0.10445581292544878,-0.3095818540402494,-0.30026675289727395,-0.12202967363253255,nan
1740794953.2445972,-0.17161609598176097,-0.24831094141576038,-0.3365695973448866,-0.20104380921065468,nan
1740794953.2485032,-0.20163030719367026,-0.07983453012016331,0.04278591630555865,-0.11406703937988161,nan
1740794953.252409,-0.19058393905544987,0.14777254572222723,0.5206855063654532,0.05622702116937448,nan
1740794953.256315,-0.10930159831419256,0.31136468929718,0.5984419618911777,0.14932922767561851,nan
1740794953.2602208,0.06732759976577529,0.29944838289226483,0.11135307058895602,0.09920083048607695,nan
1740794953.2641325,0.282917749067376,0.1229879148007266,-0.5600392818867385,-0.013840013265414087,nan
1740794953.2680383,0.3960699056274198,-0.08566204752384318,-0.8358338889675754,-0.06992852422216107,nan
1740794953.2719443,0.2997254127925462,-0.1883730968611226,-0.49296819807943265,-0.033091640206584456,nan
1740794953.27585,0.041579744985409346,-0.14706025688185023,0.14389727978314582,0.03954925551988289,nan
1740794953.279756,-0.20702800523442597,-0.028557595638890963,0.5528738360187264,0.07901953194260895,nan
1740794953.283662,-0.3107986445322057,0.061412947484326685,0.5095904207689841,0.06412878513770594,nan
1740794953.2875679,-0.27390108555962606,0.04223783210222515,0.2174278559356414,0.011961127922165153,nan
1740794953.2914739,-0.1758484558383079,-0.09732690688267738,0.003184246039854259,-0.05205041707324526,nan
1740794953.2953796,-0.049150345914738186,-0.2651208230016112,-0.03066920851783617,-0.09892826542941562,nan
1740794953.2992857,0.12224197703854504,-0.28460639700909063,-0.027737589954764972,-0.09719720443830822,nan
1740794953.3031917,0.29002877965234225,-0.023774687296731867,-0.1235993164148731,-0.04051815026036614,nan
1740794953.3070974,0.3088447434971455,0.430213231051081,-0.2621507981529062,0.029041748885573544,nan
1740794953.3110085,0.08942402417112896,0.7466322433213105,-0.28519910041603314,0.05356707525943679,nan
1740794953.3149145,-0.23210587707018193,0.5927777211848416,-0.14327571657805582,0.025679985623629675,nan
1740794953.3188202,-0.3638300771161379,-0.029223264030962575,0.04691832844469342,0.0014230306187086464,nan
1740794953.3227262,-0.1533855339887474,-0.7005266805948613,0.1497938858444734,0.028150280379017508,nan
1740794953.326632,0.2156202617912531,-0.9106391212074831,0.15729149640046863,0.07505288867645381,nan
1740794953.330538,0.3867536287957539,-0.5165919428947094,0.1545833156922835,0.06708157040586024,nan
1740794953.334444,0.20312616129020167,0.12218228558553076,0.17237156380786484,-0.009984293577305958,nan
1740794953.3383498,-0.12999320766014852,0.48775939527644874,0.1345521809289978,-0.07424474831730397,nan
1740794953.3422558,-0.28446553225219173,0.3855602724363596,-0.024361269232403407,-0.04563022754825165,nan
1740794953.3461616,-0.17115250425802295,0.07840092835557255,-0.22570804958353846,0.03976817458527973,nan
1740794953.3500676,-0.0015709345329509587,-0.03974858075391968,-0.2841972741051941,0.05758057963947838,nan
1740794953.3539734,0.005387250854195524,0.13818399078758312,-0.10209032218242255,-0.05010086488186662,nan
1740794953.3578844,-0.10349261238265761,0.35658051737151564,0.1899973533009885,-0.183796340916419,nan
1740794953.3617902,-0.0987915654656886,0.3027402900571824,0.31818977691194034,-0.18749075220650635,nan
1740794953.3656962,0.11103546946917686,-0.062298326678550425,0.11810372842344836,-0.03008144748708393,nan
1740794953.369602,0.3367512014065857,-0.48078043964195394,-0.2825737605256625,0.1549310365397711,nan
1740794953.373508,0.32682879941101395,-0.6553625277230734,-0.538111349944248,0.2224191410381671,nan
1740794953.377414,0.0716077647780267,-0.49216137062277027,-0.3720775070047168,0.16986488883247056,nan
1740794953.3813198,-0.1867144764974752,-0.1209664954631313,0.1626060731097528,0.10308696402610344,nan
1740794953.3852258,-0.24187900909050145,0.25027942683053606,0.6851676312591177,0.07224152526686951,nan
1740794953.3891315,-0.14252684573572166,0.46857474631676216,0.7749996879169055,0.007389628022486824,nan
1740794953.3930376,-0.08003058656576996,0.47871817490036195,0.3230871942891139,-0.15463562230477268,nan
1740794953.3969433,-0.11503460801969373,0.3202814175634351,-0.35457990896473013,-0.32852759469368226,nan
1740794953.4008493,-0.10968961301872178,0.10953052825141452,-0.7609667643801041,-0.33745520240148646,nan
1740794953.40476,0.052977563068910584,-0.02733289648804549,-0.6260113212409426,-0.12323913207560468,nan
1740794953.4086657,0.26734997801450766,-0.06308793111590809,-0.12033458155790788,0.15560984705301667,nan
1740794953.4125717,0.3050329071510237,-0.107698090083137,0.32063706801325653,0.28164966100845984,nan
1740794953.4164777,0.10042213878780754,-0.282628939370021,0.3935264318028753,0.21203239120127798,nan
1740794953.4203835,-0.14745655236174188,-0.5297373693972274,0.1651633834330992,0.10064536069090177,nan
1740794953.4242895,-0.19908415276214178,-0.5910058841022332,-0.05978219676642461,0.08387139715271211,nan
1740794953.4281952,-0.05005613276300594,-0.2523766448978847,-0.07282331657372428,0.10762867098698273,nan
1740794953.4321012,0.08373189196149834,0.37092100822593227,0.06071368384850243,0.021018261592379118,nan
1740794953.4360073,0.044268866971276175,0.8450319642154295,0.13703886459644052,-0.18762461771061448,nan
1740794953.439913,-0.0835824387670594,0.7833069627286954,0.06562945138452207,-0.33177275899087416,nan
1740794953.443819,-0.10635629892432585,0.22604590714448797,-0.059219591285588256,-0.24175895967779484,nan
1740794953.4477248,0.012988345707443087,-0.36913388738964836,-0.11432315724315488,0.011580254769187573,nan
1740794953.451635,0.10858239412797027,-0.5445828798805978,-0.1011936978607277,0.1796024226077269,nan
1740794953.455541,0.038999710648226445,-0.2566671473042907,-0.10175266163907125,0.12349377048775141,nan
1740794953.459447,-0.11555107939232244,0.12435508451695043,-0.12319901908796538,-0.027015057519192174,nan
1740794953.4633527,-0.1479598272983766,0.20689076636579562,-0.0707946381476337,-0.04496527383179187,nan
1740794953.4672587,0.010198892536178355,-0.05196621642820855,0.09591307396709389,0.10509099070293838,nan
1740794953.4711645,0.19549239173706118,-0.3546165600659739,0.24322163733601684,0.22374648241658257,nan
1740794953.4750705,0.21105172047468765,-0.3904166054326063,0.18509329779248215,0.13294184931178446,nan
1740794953.4789762,0.061380826672210065,-0.12010405664660334,-0.06520534970738896,-0.09274058667957981,nan
1740794953.4828823,-0.07158704193355309,0.240116725238367,-0.2419367796397814,-0.21228028603178903,nan
1740794953.4867883,-0.06796420581783122,0.45144010992320166,-0.10081431774248459,-0.11310316860823337,nan
1740794953.490694,-0.009462657747825788,0.43485301433428575,0.26312788834616113,0.055477666656657765,nan
1740794953.4946,-0.045530131053686085,0.26213737397957143,0.4501345073597872,0.07351336727373374,nan
1740794953.49851,-0.17349482825693835,0.042676956928577814,0.16671784180205246,-0.0778362095619746,nan
1740794953.5024157,-0.22739268215555172,-0.1462694792856383,-0.4156756941110922,-0.2008324831999349,nan
1740794953.5063217,-0.09153812860176079,-0.2581774126487828,-0.7730166609917912,-0.12961804104354951,nan
1740794953.5102277,0.13938817563334033,-0.2755569631578667,-0.5326158633791546,0.07440757113087289,nan
1740794953.5141335,0.26112973275259116,-0.2328830944745484,0.14762813270827704,0.21269734739974577,nan
1740794953.5180395,0.19328757495884677,-0.20193350031416513,0.7200278359794338,0.19026684032640467,nan
1740794953.5219452,0.054267792408136624,-0.2067260059589496,0.7565271719598837,0.09841920775551603,nan
1740794953.5258512,-0.0026574656482178877,-0.15748484227611384,0.3068841311274486,0.05739519660982814,nan
1740794953.5297573,0.027524439501994815,0.07561073919714165,-0.21991761763377954,0.050115831061043434,nan
1740794953.533663,0.02446369568193176,0.47729868967674316,-0.46886458171947365,-0.02959817424424508,nan
1740794953.537569,-0.07994232878401583,0.7931114240801661,-0.4060071036031239,-0.19239587366057453,nan
1740794953.5414748,-0.20849983140951966,0.692586995433157,-0.22437782647986468,-0.29648420636629325,nan
1740794953.5453868,-0.23796422342937434,0.09421803766576992,-0.07590628286652347,-0.20953196400209284,nan
1740794953.5492928,-0.14389738193894863,-0.6646517700903694,0.051740384490294083,0.01604097019026177,nan
1740794953.5531986,-0.006045895108264773,-1.0381639110017316,0.2212281948676998,0.18577234317871286,nan
1740794953.5571046,0.10532290075327311,-0.7268060883183229,0.3825760093156422,0.17769344893505357,nan
1740794953.5610106,0.1894104163234427,0.03535105015861379,0.3768222845098755,0.06515734494520897,nan
1740794953.5649164,0.25097822144754256,0.6570794271923471,0.11008324224577366,0.005568995038756342,nan
1740794953.5688224,0.23618965612188006,0.6953393185247024,-0.2943732104278373,0.04732288486205232,nan
1740794953.5727282,0.09160316170854273,0.22592811459867254,-0.5438474094931656,0.09480972275769686,nan
1740794953.5766342,-0.1254057335138703,-0.26819978467407474,-0.41105584190320305,0.05359661618750829,nan
1740794953.58054,-0.2600753494535214,-0.37269444348615677,0.04080318268597076,-0.048205673041033265,nan
1740794953.584446,-0.2179266877343611,-0.10857625796365443,0.4604040004438558,-0.11235059079500394,nan
1740794953.588352,-0.07551093591703371,0.16126659041999564,0.4828318482335183,-0.10516235003008019,nan
1740794953.5922635,0.011330652571485264,0.15696935366945095,0.07057098334409181,-0.0846038479105239,nan
1740794953.5961695,-0.00282670141542433,-0.030207136784202653,-0.4003814884041222,-0.09426257586378643,nan
1740794953.6000752,-0.010961818795884662,-0.09056413818815913,-0.4528706605890286,-0.08757110164528555,nan
1740794953.6039813,0.07986772768149276,0.1013268143592191,0.01739728159930171,0.0021983894861773985,nan
1740794953.6078873,0.19463455317676118,0.30802235531479855,0.5726799773758077,0.14329012097569338,nan
1740794953.611793,0.16920419572076187,0.19653683764244997,0.6100560683409237,0.21372653007408904,nan
1740794953.615699,-0.02262445912608269,-0.2442197237018408,-0.02195780896355262,0.14280344988919702,nan
1740794953.6196048,-0.1941546343510523,-0.6274259805925163,-0.7936444314876913,0.004158274491120016,nan
1740794953.6235108,-0.14900023567173398,-0.5547996839147612,-0.955759813707567,-0.06798387630579522,nan
1740794953.6274168,0.07236062373562394,-0.05237541214799258,-0.28348734606642606,-0.037618852191437374,nan
1740794953.6313226,0.2182345588172061,0.43921690999557467,0.6602543885158842,0.0018645806403385535,nan
1740794953.6352286,0.11362204835078388,0.5252716208251724,1.0523450556684018,-0.03872577760822846,nan
1740794953.6391401,-0.1321771935398147,0.2585255191826864,0.6068872745828638,-0.12332847357372814,nan
1740794953.6430461,-0.25368390366993493,0.031492173886608514,-0.18429996525719072,-0.13949153035737255,nan
1740794953.646952,-0.13881976088256995,0.09223866637308631,-0.6045010057765677,-0.04869532177466108,nan
1740794953.650858,0.05582570768742606,0.25308261677791066,-0.4388847697033921,0.061694610665744935,nan
1740794953.6547637,0.11436398659053174,0.13628925734929903,-0.09111878008907803,0.09031610008040024,nan
1740794953.6586697,0.023596350892401915,-0.33293625919865133,-0.018111779307331616,0.0460817011479667,nan
1740794953.6625755,-0.03766817538194717,-0.775345037831323,-0.18182468196536986,0.022496356934617753,nan
1740794953.6664815,0.047848621922179396,-0.743839259222176,-0.15971261504006606,0.06362386694353622,nan
1740794953.6703875,0.17525815758641106,-0.2134771464252193,0.2495002974232485,0.10513201243742643,nan
1740794953.6742933,0.1561356365773008,0.3826607230459516,0.6855422129237034,0.06646084660738194,nan
1740794953.6781993,-0.027357313998001245,0.6057436190588136,0.5970096706150078,-0.03551155073160486,nan
1740794953.682105,-0.18457477810163858,0.43379852150394854,-0.087229037106446,-0.10584312059375246,nan
1740794953.686016,-0.14733440544491955,0.19856049080195168,-0.7798039925440866,-0.09389980921684088,nan
1740794953.689922,0.0216087131858117,0.15862126834765597,-0.8009007374702044,-0.050114160546586954,nan
1740794953.693828,0.10502977156710011,0.22750927865760465,-0.09339986416600797,-0.043757295273341094,nan
1740794953.6977339,-0.003361361402723722,0.14266911737599083,0.6899329150551008,-0.06215285964564974,nan
1740794953.70164,-0.17199586807635434,-0.17851763477377905,0.8256067968814037,-0.0347408537122903,nan
1740794953.7055457,-0.19148383311319753,-0.5344597322517372,0.21497421124405644,0.05345390937697143,nan
1740794953.7094517,-0.0183524865827117,-0.6722091062559721,-0.5598017486522671,0.12420096680410071,nan
1740794953.7133577,0.1866809872490246,-0.5341534067954876,-0.8231557893659863,0.1052625239607949,nan
1740794953.7172635,0.2495458436667908,-0.23637545081906589,-0.41236294442237054,0.030919025948824876,nan
1740794953.7211695,0.15884357291535933,0.11791521698889425,0.2577815157378676,-0.0025175835755203084,nan
1740794953.7250752,0.034363440343247745,0.4937393657021899,0.6395863656588266,0.027791304834941,nan
1740794953.7289813,-0.03396751515760641,0.7947849331552563,0.5195005922428777,0.03550218465072138,nan
1740794953.732892,-0.06373566280129882,0.8081168765977897,0.10715061692853736,-0.048301577012918,nan
1740794953.7367978,-0.10555030146834367,0.4022050297985958,-0.232993010827303,-0.15482624973317094,nan
1740794953.7407038,-0.1494406456892382,-0.23138273860865632,-0.29774112546921117,-0.14431672536207701,nan
1740794953.7446096,-0.14174876406130293,-0.6557668590998557,-0.15175359020561485,0.005841948815197718,nan
1740794953.7485156,-0.07025006023584277,-0.5959359037053372,-0.0027165142949242605,0.14068635246119768,nan
1740794953.7524214,0.013433137642067512,-0.23605917177464386,0.003797381208622912,0.10046205158545407,nan
1740794953.7563274,0.06137182274845853,-0.024638826468135408,-0.09991719430526314,-0.07395700422208779,nan
1740794953.7602334,0.08295737369737112,-0.16663468901353573,-0.1563387038708991,-0.17082399843307872,nan
1740794953.7641392,0.10966498825112503,-0.3826775022190467,-0.050585078219462155,-0.05676889975214871,nan
1740794953.7680452,0.13200725846150688,-0.23515979000082707,0.16094043456381746,0.15539202202229238,nan
1740794953.771951,0.10890880514391883,0.3401474790831288,0.2953612902004197,0.2346011207375458,nan
1740794953.775857,0.03634932470385773,0.9111572996201384,0.23182144484561554,0.10462563220964323,nan
1740794953.7797675,-0.033152267094663075,0.9798099756828628,0.04700954612670574,-0.07295913319641668,nan
1740794953.7836733,-0.059500472025146016,0.47650465900611066,-0.06708851334472297,-0.10543181860593331,nan
1740794953.7875793,-0.07412866718369496,-0.2166932119153783,-0.028857377705046417,-0.003325405466384187,nan
1740794953.791485,-0.13124125659493507,-0.6798215300295245,0.02596615347139188,0.04891896936402203,nan
1740794953.795391,-0.20702883186211946,-0.796278047423175,-0.09358984292725123,-0.05967932840315981,nan
1740794953.7992969,-0.1958640586979824,-0.6839994889459602,-0.36999529694847205,-0.21905673794384992,nan
1740794953.8032029,-0.036182994684177495,-0.4240308422991388,-0.5309605189420024,-0.23264309620037757,nan
1740794953.8071089,0.18577496105892136,0.0009948119735033176,-0.31404018399874856,-0.05645213856225584,nan
1740794953.8110147,0.30224670238382295,0.5086927549344507,0.22850784318021353,0.15617617318483706,nan
1740794953.8149207,0.238265350004919,0.8142150924165343,0.7267429114481287,0.24311565665676782,nan
1740794953.8188264,0.08449686425752374,0.6621621903191398,0.8125828279016165,0.2026562827114457,nan
1740794953.8227324,-0.021404068100138746,0.1467340840777207,0.43486727096306255,0.14093891603210407,nan
1740794953.8266425,-0.0525884956599918,-0.3150077103211527,-0.13388626427957206,0.10017925995875,nan
1740794953.8305485,-0.08984421168333899,-0.3920982362070568,-0.557820216041909,0.015635437482023205,nan
1740794953.8344543,-0.17306979573058062,-0.17057054184351372,-0.6732772189938462,-0.14860849886042637,nan
1740794953.8383603,-0.2191333573118966,-0.008000590607414001,-0.5121986153906837,-0.29334854777587344,nan
1740794953.842266,-0.1287855471906508,-0.08740546812571014,-0.19557219397135378,-0.2775792558690859,nan
1740794953.846172,0.056699433459777446,-0.2177026913241018,0.13733335461183513,-0.1000772840227269,nan
1740794953.850078,0.17126354227086268,-0.1184231050193972,0.3478330995561433,0.078446992935322,nan
1740794953.8539839,0.11450595516624702,0.18314036747271437,0.35681191180070754,0.11772678554057303,nan
1740794953.85789,-0.02055636854171214,0.3548903855605069,0.23057407891734305,0.056082677252593714,nan
1740794953.8617957,-0.05549204446690259,0.16762935799976778,0.14789046038973847,0.041222823392213524,nan
1740794953.8657017,0.055421209187060984,-0.2025240760277269,0.20442097097511025,0.12739471526344426,nan
1740794953.8696074,0.17012219370074264,-0.35912235904231904,0.26063489585372107,0.20610764695505343,nan
1740794953.8735173,0.13714103489716606,-0.13517053803770027,0.07003100918166455,0.15597798503222954,nan
1740794953.8774233,-0.01871386597791224,0.23346448896645067,-0.39462288480348134,0.004801443329609297,nan
1740794953.8813293,-0.13601672170044365,0.3968620428931462,-0.8021432112498625,-0.11297376781639089,nan
1740794953.885235,-0.12229033806138345,0.26558803803327635,-0.74653596343613,-0.1367494068863468,nan
1740794953.889141,-0.05605907098106261,0.03130512259970338,-0.1903275373172473,-0.14308838476219665,nan
1740794953.8930469,-0.059881632774482815,-0.12590279186067224,0.44437033993129693,-0.20363760639806466,nan
1740794953.8969529,-0.12299005228585366,-0.22389982644653186,0.6854167601752379,-0.24471611413179267,nan
1740794953.9008586,-0.11441640811293669,-0.337887799505896,0.4804178585617968,-0.12665618063005504,nan
1740794953.9047647,0.031107912182202137,-0.38712123517581276,0.1907150975865353,0.14318920251425307,nan
1740794953.9086707,0.2052277879135299,-0.19933635876324052,0.12565517238726778,0.35883246288768167,nan
1740794953.9125764,0.24444712081011308,0.20632031941321216,0.1830511036946439,0.3304893119791301,nan
1740794953.9164824,0.12388457313016508,0.5246741961042699,0.029544329654543153,0.11264652251057375,nan
1740794953.9203944,-0.022403876590074243,0.4546235459433048,-0.4129696704491706,-0.054042350551648646,nan
1740794953.9243002,-0.07223357417142486,0.05565599169920544,-0.79252802143123,-0.03258212661210518,nan
1740794953.9282062,-0.04778164213568211,-0.28223742574008553,-0.7004786324737532,0.049647537169556014,nan
1740794953.932112,-0.04575438932440648,-0.25423792250336924,-0.15049389614217862,-0.020951910337751862,nan
1740794953.936018,-0.08227011861681581,0.03884092229755476,0.41474758182112476,-0.24889662408133803,nan
1740794953.939924,-0.07865115035103028,0.23618888084114478,0.5935944229509663,-0.39703020009209533,nan
1740794953.9438298,-0.003673130716537018,0.13383457841139915,0.41013702635137483,-0.2676315893642694,nan
1740794953.9477358,0.046283812916012274,-0.1292047286531899,0.18650786380086903,0.05198934254257891,nan
1740794953.9516416,-0.029997289533742786,-0.29393316240691275,0.11738437901043548,0.2856540597090212,nan
1740794953.9555476,-0.1669067250332298,-0.2802871437492871,0.09291448150045303,0.281070892523255,nan
1740794953.9594536,-0.16688151334346407,-0.1892326878458756,-0.054560086545164733,0.14940172702442395,nan
1740794953.9633594,0.06080780486722933,-0.079290770567538,-0.2641724076099463,0.07856828269251949,nan
1740794953.9672713,0.3497051504773025,0.11273188233493271,-0.3224370175189356,0.08716884870349971,nan
1740794953.971177,0.42783750733244397,0.3875857379227753,-0.1823569222317361,0.04096865349186756,nan
1740794953.975083,0.21155555848292074,0.5442550739521774,-0.06096851150168721,-0.11427188604169436,nan
1740794953.978989,-0.10901532062982613,0.36699163820810665,-0.14954235164485608,-0.24150376769793533,nan
1740794953.982895,-0.2918345986998577,-0.05903910500166606,-0.31486789764393536,-0.1866532292327835,nan
1740794953.986801,-0.29149536986978386,-0.36144687934915587,-0.2199179380603854,-0.0024063143130185066,nan
1740794953.9907067,-0.23624619479838826,-0.2957964169728456,0.24469449347443067,0.09566327715005377,nan
1740794953.9946127,-0.20018263274815,-0.06404084443917978,0.7561788722211735,0.0020257954094472005,nan
1740794953.9985185,-0.10099997654149963,-0.07766062207190544,0.8647363190945254,-0.13425855302661696,nan
1740794954.0024245,0.1345514837945802,-0.39943812191621125,0.4610265634618743,-0.09671270490492291,nan
1740794954.0063303,0.38124509907321863,-0.5781815374909767,-0.14122739644202179,0.1124024419856755,nan
1740794954.0102363,0.4008613657922026,-0.1690178541711614,-0.5692908486168192,0.26155001840805836,nan
1740794954.0141478,0.1331252442597609,0.6441098453979988,-0.7248295542777741,0.17856192777637694,nan
1740794954.0180535,-0.18361175191045367,1.1263322987285806,-0.7076444623536127,-0.02976762577483176,nan
1740794954.0219595,-0.25354451061668315,0.7709957662678196,-0.5298237905437282,-0.11260379362932575,nan
1740794954.0258653,-0.056523320661138944,-0.10682150744981252,-0.08860968188432286,0.006035706259571444,nan
1740794954.0297713,0.13668676328672114,-0.6940830688031305,0.5419429743744795,0.1330025350835276,nan
1740794954.0336773,0.09286454920178148,-0.5738587341517932,0.9601724444290225,0.055888777535963746,nan
1740794954.037583,-0.114646080594071,-0.1389536442735734,0.7684595207022195,-0.18336135966039932,nan
1740794954.0414891,-0.22223463177083333,-0.03923813188105077,0.069225159363045,-0.3350053407145502,nan
1740794954.045395,-0.11508802318970796,-0.3507567459055983,-0.5222412818847574,-0.2392297000910658,nan
1740794954.049301,0.04659383430230282,-0.49597768800430486,-0.48172302703931985,0.0019086570914316906,nan
1740794954.0532067,0.06080626129492513,-0.014700761418598208,0.048214196144889754,0.17225894197118136,nan
1740794954.0571127,-0.044949218267487434,0.777745349430138,0.4040053932642549,0.1916434569517781,nan
1740794954.061026,-0.062449850882503474,1.083748535752982,0.1442536091212583,0.15237695639543303,nan
1740794954.064932,0.10258591010162153,0.538394339002282,-0.4550287571342713,0.14069734808921897,nan
1740794954.068838,0.288688453963361,-0.3538035157335379,-0.727478341845183,0.12024254978438542,nan
1740794954.072744,0.27875668197565706,-0.781962460259225,-0.37693572146324833,0.028877931757062766,nan
1740794954.07665,0.07377565093923594,-0.5071543772529805,0.2172263710117097,-0.08511066669635317,nan
1740794954.0805557,-0.12101070703104207,-0.023831776524422275,0.4780195613031885,-0.11342440487920322,nan
1740794954.0844617,-0.16738773423142142,0.1176906608811943,0.290392771536662,-0.059020691369282945,nan
1740794954.0883675,-0.14885257769152113,-0.05767169395028816,0.06310218159917284,-0.05799148884988111,nan
1740794954.0922735,-0.20379527318802038,-0.1151967006195384,0.16704349901357674,-0.18197269373245056,nan
1740794954.0961792,-0.28370845462395095,0.12844065933185286,0.4631666433023191,-0.2895025633900081,nan
1740794954.1000853,-0.19573727542529928,0.3524592548268372,0.47942277786391635,-0.17319408487293,nan
1740794954.1039913,0.10492322114158131,0.2038490612900899,-0.00743063227520648,0.1498432794740092,nan
1740794954.107902,0.37850025611127613,-0.16853854042030467,-0.6843758926896053,0.3976565228862837,nan
1740794954.1118078,0.3506083636982871,-0.2643426429733447,-1.0133300141235728,0.33628277819244395,nan
1740794954.1157138,0.06101215359098923,0.1007312026998437,-0.7489379739409758,0.071097519890669,nan
1740794954.1196198,-0.14897151105785586,0.48905888297139355,-0.10861597535525248,-0.07513958430427907,nan
1740794954.1235256,-0.03482696971989578,0.3421793529340314,0.49088931207619385,0.02891542019019789,nan
1740794954.1274316,0.2453901995406493,-0.30512678112139924,0.7659145517715734,0.15022980072428124,nan
1740794954.1313374,0.30677786131145135,-0.8005888932904096,0.6677569679687506,0.0011116646819677393,nan
1740794954.1352434,-0.006722836691486837,-0.6059663947285896,0.30867764780576057,-0.35127571397899,nan
1740794954.1391492,-0.43566446238786183,0.08779629501535412,-0.10703015035688448,-0.5207904066572104,nan
1740794954.1430552,-0.600052363226398,0.594457995650219,-0.34239014123537076,-0.27289857223257286,nan
1740794954.1469612,-0.4012170571701042,0.5112455644474497,-0.27081947288708735,0.15966187781684746,nan
1740794954.150867,-0.060093856038987016,0.10258677594955615,-0.0206769285246838,0.33918314271291605,nan
1740794954.1547778,0.1910247223083657,-0.11777750317884028,0.10389352848347078,0.15302705040719958,nan
1740794954.1586835,0.3310815015439243,-0.02018448088235035,-0.06230003761197022,-0.060478295315379134,nan
1740794954.1625896,0.4358094517845092,0.08043643116845114,-0.33387669845149454,0.039043345028102444,nan
1740794954.1664953,0.46310521280092415,-0.0642612646391395,-0.3685561047812832,0.3401583482605099,nan
1740794954.1704013,0.28886056115446057,-0.2797525345096896,-0.08332451995239504,0.4108463893072698,nan
1740794954.1743073,-0.05582196357935415,-0.23495191220318504,0.223119457854873,0.05816946358700708,nan
1740794954.1782131,-0.32421564771546985,0.05918775824279299,0.2372086280855734,-0.39940069779007636,nan
1740794954.1821191,-0.3195861712422573,0.22006234972657493,0.04611274088039073,-0.503908770330135,nan
1740794954.186025,-0.1527105444647369,-0.0010900673046287735,0.04143996243821844,-0.20687919586778813,nan
1740794954.189931,-0.11279947071883889,-0.34360348337034835,0.3793129681944573,0.0976385724374132,nan
1740794954.1938367,-0.279480481647563,-0.3147416319286893,0.6805172525012191,0.08302050242826939,nan
1740794954.1977427,-0.3883746629761585,0.19468601294668336,0.42279980768149233,-0.12175761180334087,nan
1740794954.2016528,-0.16519502264989652,0.7217404221235344,-0.38673576949648464,-0.15111057202317144,nan
1740794954.2055588,0.2854037698274638,0.7189520396629651,-1.0906610289093317,0.08978562274937583,nan
1740794954.2094648,0.5638527419086834,0.1440137832832517,-1.030726990705997,0.3125821420904435,nan
1740794954.2133706,0.45754434143594575,-0.522404258873139,-0.2515551203060142,0.26145775634933077,nan
1740794954.2172766,0.19836337116893796,-0.7947536840094973,0.5524638028769688,0.07022316197828202,nan
1740794954.2211823,0.1368189173956597,-0.6018072700107775,0.770245030094665,0.057697835136705844,nan
1740794954.2250884,0.24699645957002722,-0.19514407589097293,0.43028684560876973,0.23887164957546714,nan
1740794954.2289944,0.13988663822977432,0.19683407238603487,0.002585062214139603,0.2480720702254557,nan
1740794954.2329001,-0.38279563336488354,0.49149226580148586,-0.18889548686162705,-0.16690068280699247,nan
1740794954.2368062,-0.9476660145126684,0.6081328069530683,-0.18722243515955764,-0.7183090629381135,nan
1740794954.240712,-0.9564055682991245,0.4201044964995739,-0.10738478954892727,-0.8307639544020815,nan
1740794954.244618,-0.2942494137226793,-0.03962106221042933,0.10487768616158531,-0.3161408261046596,nan
1740794954.2485278,0.4771667360000463,-0.4429586793326291,0.45540839360418006,0.36890040893848697,nan
1740794954.2524335,0.7210830784319981,-0.427096277903416,0.6085353411132913,0.628770090074136,nan
1740794954.2563396,0.412398347471501,-0.024718242055268024,0.13639854540757188,0.3828777408459299,nan
1740794954.2602456,0.08495790414723266,0.3028846570010874,-0.8323839184446898,0.07019495283755073,nan
1740794954.2641513,0.13598333033068716,0.16965405424398974,-1.4535774740697214,0.04674318895153281,nan
1740794954.2680573,0.3736432820983499,-0.263769394409597,-0.9577981521526008,0.18070987652551312,nan
1740794954.2719631,0.3443580208565528,-0.45831017991364587,0.3893179676771201,0.13870847936987268,nan
1740794954.2758691,-0.04176182390081985,-0.14399493058228788,1.381716436970383,-0.09290045771882736,nan
1740794954.2797751,-0.42056801698898794,0.34005489404670264,1.1154058293510467,-0.20492266792906702,nan
1740794954.283681,-0.4942073574219075,0.44969879626033843,0.016245868788808744,-0.0745465252861047,nan
1740794954.287587,-0.4074730869834742,0.09469249604510901,-0.6180014210893164,-0.018169622210118128,nan
1740794954.2914927,-0.451746621950731,-0.2646881134297121,-0.11944506278925089,-0.3456589418703224,nan
1740794954.2954047,-0.540320054057354,-0.19528368600165044,0.7608388429888506,-0.7923040320870008,nan
1740794954.2993107,-0.2624342122694134,0.18977557042085783,0.7564341816065874,-0.6958110999151844,nan
1740794954.3032165,0.4761061559734182,0.40628743385106164,-0.3684502078842861,0.16159461978617573,nan
1740794954.3071225,1.11578176956844,0.2055757585535981,-1.4946163657494604,1.1101302002281508,nan
1740794954.3110285,1.002485961793361,-0.1736781879670944,-1.4469247915568593,1.2422555069807595,nan
1740794954.3149343,0.22758285540103323,-0.3778739383516542,-0.33904832920036776,0.46492394778163654,nan
1740794954.3188403,-0.3772207403202067,-0.3712061935870365,0.6548660557813043,-0.3577453675462992,nan
1740794954.322746,-0.21825484334926382,-0.3430386624672697,0.7554624230018514,-0.4233033382859026,nan
1740794954.326652,0.2910621611685738,-0.2962801137725404,0.4052015564895049,0.057650654546643434,nan
1740794954.3305578,0.21573801820283733,0.002873379866741264,0.4681017072726149,0.18339420544902985,nan
1740794954.3344638,-0.6746987945954271,0.5763163726794525,0.9297046643833705,-0.4314426607637723,nan
1740794954.3383698,-1.4854924212206666,0.9599112005635065,0.8753606798823081,-1.1100556389523282,nan
1740794954.3422813,-1.2087078759489929,0.6491525757526436,-0.17696650965071498,-0.9594015478607739,nan
1740794954.3461874,0.023724699844965193,-0.20027520942351124,-1.37923340815334,-0.033439029261751886,nan
1740794954.3500931,1.0341735899385773,-0.7948962168461776,-1.423222664998726,0.7115057579143635,nan
1740794954.3539991,0.9865811195093416,-0.5880833220252816,-0.2065154772403177,0.6385259673624624,nan
1740794954.357905,0.3505188297644445,0.03662664144867896,0.8650201852595406,0.22470732702974264,nan
1740794954.361811,0.20880858036583047,0.24184717313328208,0.5007026193310228,0.3424473779531413,nan
1740794954.365717,0.7817024941147522,-0.1464191881279041,-0.844805215917201,0.960639933941975,nan
1740794954.3696227,1.0943638428409659,-0.37095594417049493,-1.4248988369650641,1.0639574989693523,nan
1740794954.3735287,0.28154980540792207,0.1741741044461204,-0.30179431464918854,0.03374383307789619,nan
1740794954.3774345,-1.1366673675882575,0.8790456437212005,1.4662051555318147,-1.3037757669166472,nan
1740794954.3813405,-1.7461928933577366,0.48781288221551267,2.0706184723713092,-1.515190494961546,nan
1740794954.3852465,-0.9939617198743853,-1.1072666492605054,1.1179475026851484,-0.40827919497084414,nan
1740794954.3891578,0.034678748334815906,-2.1501720116088054,-0.016045005331141452,0.51745590656535,nan
1740794954.3930635,-0.04728354663311389,-0.7688015116991935,-0.11232119991122788,-0.13329624482551694,nan
1740794954.3969696,-1.0480953247396303,2.484365559315349,0.19401436342297207,-1.6839481462106205,nan
1740794954.4008756,-1.2207863080774979,4.473710030162239,-0.7053436468163334,-1.8621923594684455,nan
1740794954.4047813,0.6055991043370501,2.5309340213310545,-2.888791271613097,0.5067312828647307,nan
1740794954.4086874,3.288650068752662,-2.3340779122475404,-4.0819882872604225,3.7168630052300813,nan
1740794954.4125931,4.270867184537704,-5.863964118731598,-2.0166005504187448,4.666010499929653,nan
1740794954.4164991,2.2717003180686537,-4.667161687541665,2.5458245422031585,2.161214237115493,nan
1740794954.420405,-1.277244848250859,0.2170899199761194,5.903646758272059,-1.7165169449356767,nan
1740794954.424311,-3.6958478427306494,4.271820978900664,5.004936542991521,-3.819671708038614,nan
1740794954.428217,-3.6954898696259777,4.100132730435705,0.6951828907644503,-3.1774411846132606,nan
1740794954.4321227,-2.221701117708639,0.7345162246062171,-3.1255837717752484,-1.5503359295741914,nan
1740794954.4360337,-0.8368048087050496,-1.855494311628312,-3.5970994889636203,-0.8564027687059835,nan
1740794954.4399397,0.09232815505307428,-1.2149974813721898,-1.6317975808040457,-0.8020112705434824,nan
1740794954.4438455,1.204322062471389,1.2003963917640124,-0.26450728030190357,0.33025480471444996,nan
1740794954.4477515,2.56005083073955,2.1206399278656747,-0.7711010103415943,2.8562739137646664,nan
1740794954.4516575,3.0942145105935515,0.30178327393465965,-1.3099833446775278,4.626112713980438,nan
1740794954.4555633,1.9997733335875068,-2.351414267215763,0.3051836063835605,3.370761560795396,nan
1740794954.4594693,0.1340009710060613,-3.306889537471932,3.2435032979539367,-0.2911841203003567,nan
1740794954.463375,-0.7281731138569333,-2.1920120085857864,4.122371172201352,-3.0702641703055007,nan
1740794954.467281,-0.14673457289050332,-0.560776960827093,1.0880457111046986,-2.567785242365737,nan
1740794954.471187,0.1513378966392111,0.5665144842520252,-3.3518031996980735,-0.09958852777824448,nan
1740794954.475093,-1.672268727627806,1.8383161016709497,-4.531322192716446,0.7306559716083272,nan
1740794954.478999,-4.833900868870753,3.85293739940621,-0.8127404724477051,-1.6883269377097017,nan
1740794954.4829097,-6.01351328666264,5.150536650617218,4.122827735649695,-4.746691691611213,nan
1740794954.4868157,-2.706043081261014,3.1971776708976627,4.8618381010293295,-4.2032636858329635,nan
1740794954.4907217,3.6862668301432664,-2.2164912824641507,0.11560560043228948,1.07335891599852,nan
1740794954.4946275,8.61635925905376,-7.382341273317197,-5.569097847448513,7.39010988600151,nan
1740794954.4985335,8.451092293959437,-7.6203500721057695,-6.339259746543706,9.473351608169303,nan
1740794954.5024393,3.629087348532342,-2.164696650848287,-1.1161009463335179,5.33075591302116,nan
1740794954.5063453,-2.2028831096849384,4.460173211283195,5.211423304604034,-2.097075821798961,nan
1740794954.510251,-5.747088697952573,6.59434029669016,6.720492356572168,-7.73707087637505,nan
1740794954.514157,-6.359366670480028,3.0089475381560127,2.3162184284448557,-8.494398479172633,nan
1740794954.518063,-5.16838229702198,-2.042046647300457,-3.461178363209716,-4.931394034894178,nan
1740794954.5219688,-2.943101733714366,-3.4128326415054437,-5.208119048870058,0.1513403595326415,nan
1740794954.5258749,0.35992777519760105,-0.324645839312582,-1.8739084658448149,4.054092995292253,nan
1740794954.5297854,4.175613300936384,3.256995444416511,2.7266869453344453,5.397379988056059,nan
1740794954.5336912,6.530288829244234,3.196577710837579,4.096877490606872,4.139960239376688,nan
1740794954.5375972,5.518236259369236,-0.48738915651316345,1.340709450750546,1.3010782316628473,nan
1740794954.5415032,1.5285276812173274,-4.053181824135984,-2.541779313509906,-1.4007925557525132,nan
1740794954.545409,-2.6281625475507067,-4.244634723192639,-4.003734873149989,-2.421889382347149,nan
1740794954.549315,-4.200238829979212,-1.4183070055053175,-2.194755266382607,-1.5337724259758612,nan
1740794954.5532207,-2.950297390961781,1.4852765898169198,0.8655851245746468,-0.06307519615950205,nan
1740794954.5571268,-0.9208163727164809,2.341022083127806,2.679936041805858,0.37357542143696093,nan
1740794954.5610325,0.025622533045590958,1.6038391921308157,2.455742003160769,-0.48868454938472844,nan
1740794954.5649385,-0.037166583494101325,0.937038882423509,1.170741822702784,-1.3621484418393008,nan
1740794954.5688446,0.1324359724526247,0.9440544728232022,0.08190151625400752,-0.950122724217946,nan
1740794954.5727503,0.9756076832690028,0.8015142871727408,-0.45722627093796,0.5182395194110484,nan
1740794954.5766606,1.5592562939999,-0.18299113956953406,-0.8443121015507147,1.5617596272122136,nan
1740794954.5805666,0.9801052578606746,-1.4125794106176783,-1.3331274436310614,1.1929845540100192,nan
1740794954.5844724,-0.25063409365431283,-1.7305586016766576,-1.587100090453457,0.040358279855911915,nan
1740794954.5883784,-0.7284101217514921,-0.9321873386499557,-1.107773444461358,-0.4726229708321596,nan
1740794954.5922842,0.06709459923706616,-0.02005751562819244,0.07398594956406357,0.1486746575285972,nan
1740794954.5961902,1.0396234143835532,0.08653674431232404,1.26204421131391,0.9343208402625233,nan
1740794954.6000962,0.7752573734488433,-0.33068817439241766,1.6644173045329407,0.6913908241167452,nan
1740794954.604002,-0.7093355253197257,-0.2630493453481622,1.0860514767927598,-0.5415088211928871,nan
1740794954.607908,-1.9225317033023774,0.634901100010886,0.0769996997711303,-1.5647493698428725,nan
1740794954.6118138,-1.6081489076766773,1.5513642055387726,-0.5802127067637252,-1.4321951988651553,nan
1740794954.6157198,-0.142505600242124,1.5169284710725983,-0.5457237684896667,-0.45102053532185843,nan
1740794954.6196258,0.9968158380536536,0.5775935813665333,-0.14121861077477282,0.34932591320036255,nan
1740794954.6235354,0.9417729219285204,-0.3387219354639307,0.055412201808148334,0.47294076416210706,nan
1740794954.6274414,0.2520317908679329,-0.6161891424246628,-0.1841800501350124,0.36096911454430247,nan
1740794954.6313474,0.0031492916713261776,-0.6181536718045084,-0.5349502394434236,0.5831818174975748,nan
1740794954.6352532,0.4261012958869656,-0.9853889154436005,-0.5068571082621495,0.9916771634981728,nan
1740794954.6391592,0.7659819693133268,-1.547827886579644,-0.00798949749724283,0.9342735174409238,nan
1740794954.643065,0.3747662816736068,-1.3648909758632437,0.522389857093566,0.17336444065771417,nan
1740794954.646971,-0.44511326318008426,0.04389787436651112,0.5676399365457082,-0.730575820137988,nan
1740794954.6508768,-0.864276325731664,1.8116747903936548,0.09906719551903849,-1.0522806637860675,nan
1740794954.6547828,-0.5677541593946729,2.410050549658506,-0.3620733735843565,-0.7107762177757191,nan
1740794954.6586888,-0.06653639012482315,1.2562194040386954,-0.2766548978619298,-0.24904109682721554,nan
1740794954.6625946,0.027437643576912776,-0.584566740293089,0.3332804815961973,-0.09775871793467404,nan
1740794954.6665006,-0.24759995055378975,-1.4533684318363842,0.8685464087449095,-0.11666203255573428,nan
1740794954.6704125,-0.35768493724718364,-0.7760475785308846,0.7269363083473246,0.056696263733532204,nan
1740794954.6743186,-0.026045117236669843,0.44990302383000846,-0.10910960970042101,0.4207730026818077,nan
1740794954.6782243,0.4415057676996226,0.8152184086726242,-1.0420265847152796,0.6091260420829047,nan
1740794954.6821303,0.6181053097367664,-0.026967598470733236,-1.3826852148667659,0.43077748326376175,nan
1740794954.686036,0.5008772211621084,-1.1243523687299357,-0.9075640120028259,0.15349248832641704,nan
1740794954.6899421,0.3996078853963196,-1.327769674512625,0.0307673648320603,0.1146393955259843,nan
1740794954.6938481,0.3903995514568466,-0.4452974321386546,0.8472339854585279,0.21117796367278555,nan
1740794954.697754,0.1610764813815517,0.7060349803689114,1.1504379082564522,0.021445527976642984,nan
1740794954.70166,-0.49101094433450426,1.212866445989472,0.918442179053205,-0.5536933848371859,nan
1740794954.7055657,-1.1930451526371977,0.882374448638805,0.39141998636019737,-1.0064231251807587,nan
1740794954.7094717,-1.2697114079470817,0.22193317617507954,-0.1402696412664667,-0.7630220186612461,nan
1740794954.7133775,-0.5046965996731981,-0.1877345311610838,-0.4897815920078694,0.0731778854472483,nan
1740794954.7172894,0.5394581634414425,-0.19333051673090662,-0.619407920987082,0.7403230493451659,nan
1740794954.7211955,1.0689184412536101,-0.04445587399539283,-0.5939102119979163,0.6496900297892384,nan
1740794954.7251012,0.8437424902405435,-0.04015067732825178,-0.48134989865259115,0.04900533614436149,nan
1740794954.7290072,0.30311700706347444,-0.2516891563701969,-0.277204195804315,-0.2921281158046455,nan
1740794954.732913,-0.033790732455120896,-0.5089353793310007,0.06492872406334602,0.0033156675869156077,nan
1740794954.736819,-0.10447799942325092,-0.5719133744225724,0.5055809274027838,0.5075169311914518,nan
1740794954.7407248,-0.17231430193739375,-0.328645145659382,0.8372160475152699,0.5455988150728543,nan
1740794954.7446308,-0.3283768393676616,0.10568609265666525,0.7908815886180894,0.008506163474206468,nan
1740794954.7485368,-0.3509109855926219,0.4620483965076178,0.2854371265838715,-0.558074282873926,nan
1740794954.7524426,-0.08591053055373077,0.5344630705476909,-0.4208687947301995,-0.6339099921577603,nan
1740794954.7563486,0.2305362388053661,0.36343418692279655,-0.8720895070918623,-0.2953730819097416,nan
1740794954.7602544,0.20819582882263957,0.18574708736678197,-0.766292876159439,-0.013754390757388303,nan
1740794954.7641659,-0.1798589573059232,0.16864852712346645,-0.20583270970170475,-0.021274683863216827,nan
1740794954.768072,-0.49363010559487913,0.21072168359646007,0.38792346407879,-0.07828830109452618,nan
1740794954.7719777,-0.3205842640667748,0.06068210050275876,0.6165583310654452,0.11394511223861148,nan
1740794954.7758837,0.22535563029998026,-0.3516753935014355,0.3965531672864577,0.45559318832055185,nan
1740794954.7797894,0.6211119969418543,-0.7582384839883785,-0.03100829180952893,0.5580650263586904,nan
1740794954.7836955,0.5260834172114403,-0.7874584520980601,-0.33376103388219985,0.2556271338305348,nan
1740794954.7876012,0.12921062237859351,-0.35442486588770655,-0.33702820046286996,-0.16596032870026256,nan
1740794954.7915072,-0.1377453114646408,0.23201461374396304,-0.10349552032296447,-0.31529091670067544,nan
1740794954.7954133,-0.1200900351439166,0.5696751551844241,0.16592391014161373,-0.15667794714603056,nan
1740794954.799319,-0.04810532225596467,0.5331766012809354,0.29353772870585254,-0.0034059413680066816,nan
1740794954.803225,-0.15714047985305227,0.3176445441901446,0.22939081502927713,-0.08575043300342305,nan
1740794954.8071308,-0.3573125800933128,0.16002339482954786,0.04941127240257414,-0.26968131256231875,nan
1740794954.811042,-0.3729215869691072,0.09815646533768013,-0.1279257237019353,-0.26703571426749345,nan
1740794954.8149478,-0.1287989328931546,0.021442854040003557,-0.23257919595604276,-0.02622870120208387,nan
1740794954.8188539,0.14504717459562658,-0.12207048965290533,-0.26580872738886197,0.21237620166701196,nan
1740794954.8227596,0.21514397146811545,-0.25674398525139375,-0.24296725935936422,0.23912550192838525,nan
1740794954.8266656,0.1333031874828407,-0.30383705573019376,-0.13425102641914136,0.12660247227976662,nan
1740794954.8305714,0.13020312479834653,-0.281892007809539,0.10359416312257096,0.08984477254199295,nan
1740794954.8344774,0.27368386222957314,-0.23504228380504122,0.4190073973605247,0.1736848750550109,nan
1740794954.8383834,0.36134601898186264,-0.12648281373577724,0.6186380858860885,0.1995189129391939,nan
1740794954.8422892,0.1917074559624364,0.09966796759333066,0.49123581661475535,0.02987108406052163,nan
1740794954.8461952,-0.15212533844079565,0.3528453806952857,0.021401927051601502,-0.22315685057754697,nan
1740794954.850101,-0.38587541120437047,0.4040858546678417,-0.5319316183418183,-0.32963286082651205,nan
1740794954.854007,-0.3637596838509172,0.14840884371983024,-0.814842068961214,-0.22887306244781455,nan
1740794954.8579178,-0.22802784804597648,-0.18537898627824026,-0.6661062377819637,-0.08397920927696907,nan
1740794954.8618238,-0.1817259799267463,-0.21381051396771952,-0.2287275915087783,-0.043180179353192315,nan
1740794954.8657296,-0.19966530045126382,0.1553759402546613,0.21896661374991172,-0.04603101952078169,nan
1740794954.8696356,-0.0704274498616958,0.5336988558539694,0.5124803730460825,0.06012941482440114,nan
1740794954.8735414,0.2814707520444469,0.4204759524612941,0.6587621454103171,0.26369820140526296,nan
1740794954.8774474,0.6217492376129135,-0.22560585680828657,0.6812591888361416,0.3604684600725444,nan
1740794954.8813531,0.6274232846503446,-0.870424336414144,0.4985945030651649,0.21020503807350566,nan
1740794954.8852592,0.2471487599408007,-0.925530350326114,0.030016915389815615,-0.06195168509200474,nan
1740794954.8891652,-0.23137934676020497,-0.35082155189635106,-0.5943696352873984,-0.1994832956295991,nan
1740794954.893071,-0.4772655677620329,0.33147956983080257,-1.018760188968113,-0.12133133043624636,nan
1740794954.896977,-0.4181912532346769,0.610229276515304,-0.9359632523217296,-0.00512666705416518,nan
1740794954.9008827,-0.22462237328394716,0.4766249623178462,-0.3846126282661877,-0.040849675015519164,nan
1740794954.9047935,-0.06381690917365024,0.2961848159740352,0.2656038248510687,-0.18014727394006924,nan
1740794954.9086993,0.04421426684791321,0.2845055905772703,0.643725116441793,-0.20789673136184045,nan
1740794954.9126053,0.13625000653697342,0.2639999553094811,0.6739712076811595,-0.035414889963985535,nan
1740794954.9165113,0.17749548988758182,-0.01706693444661888,0.5385069479953233,0.1740729866711002,nan
1740794954.920417,0.1046958151870824,-0.453757711222405,0.3968830601601458,0.21018618803122482,nan
1740794954.924323,-0.03460034975099952,-0.6354773461173605,0.2170098407963188,0.07761485356713563,nan
1740794954.9282289,-0.08212073231617908,-0.34794958721107233,-0.09906719846859256,-0.025173078827167225,nan
1740794954.9321349,0.048701826237241765,0.10709405200102057,-0.4923092144389118,0.02745962068343128,nan
1740794954.9360409,0.23792852155181632,0.217744564625564,-0.7376455347665213,0.13200668119253825,nan
1740794954.9399467,0.26817920511223564,-0.13089934224227676,-0.6723748587643961,0.10709948710487285,nan
1740794954.9438527,0.06532470208236762,-0.47485721676312204,-0.37160551007571474,-0.06032973455367692,nan
1740794954.9477584,-0.21660619467656597,-0.26924094549950545,-0.044644636104356455,-0.20043756611307847,nan
1740794954.9516687,-0.3626965397849113,0.4755928784541438,0.2111078084442411,-0.1833494973681522,nan
1740794954.9555745,-0.30684588446983124,1.1385639688194522,0.47046568283977946,-0.07265378470810599,nan
1740794954.9594805,-0.1462846714962552,1.0860190979450324,0.7677766923589998,-0.013128122578241606,nan
1740794954.9633865,0.011101536801174304,0.2844121272720201,0.9038865651729535,-0.02488602581654432,nan
1740794954.9672923,0.1439093088691428,-0.6915278910071235,0.5861149817048714,0.005052820526670716,nan
1740794954.9711983,0.2554607451754179,-1.2002779219340365,-0.19267913115975002,0.12921284965562163,nan
1740794954.975104,0.2900807597239804,-1.0363504957725562,-0.9831791502146312,0.22877441210920724,nan
1740794954.97901,0.18258587412864838,-0.45697812761148543,-1.1991243938459746,0.15812235548491224,nan
1740794954.9829159,-0.021774959220550345,0.1503622978883657,-0.6644941262167205,-0.044057293436102145,nan
1740794954.986822,-0.1693137642986208,0.5497140748449132,0.18087032940944434,-0.17545455337268426,nan
1740794954.990728,-0.15644673216258725,0.684447824341,0.6691956782200106,-0.11491001125115503,nan
1740794954.9946337,-0.048644683052142944,0.5827656828943969,0.5161800915580952,0.027982277195143762,nan
1740794954.9985435,0.006180335549588837,0.31988637532043934,0.04150009559519693,0.06258525747355244,nan
1740794955.0024495,-0.034647174265069844,0.022762105730782266,-0.20668131866419756,-0.030048530280371473,nan
1740794955.0063553,-0.0688482456390901,-0.18713360402333293,-0.010524482220634904,-0.0833886612659844,nan
1740794955.0102613,-0.012079791611749234,-0.2862312741427441,0.34896094451095877,0.006980220809157692,nan
1740794955.014167,0.0642992080368972,-0.33929597677342943,0.4423592741944828,0.11571757902382061,nan
1740794955.018073,0.026622786839673968,-0.36980856867429984,0.14752262860549967,0.048583277440811534,nan
1740794955.021979,-0.10907869434140319,-0.2864266194328964,-0.2649969923926548,-0.1664766560457878,nan
1740794955.0258849,-0.14903185744926203,-0.005014800615519352,-0.45357625028523296,-0.26182412551449585,nan
1740794955.0297909,0.04103140705668447,0.3616934561153342,-0.3463453418903817,-0.05277983726838158,nan
1740794955.0336967,0.3197873491569765,0.5205412152532822,-0.1488929482110227,0.2943386817785634,nan
1740794955.0376027,0.3819132877782393,0.2778908793818651,-0.06760502291461176,0.4144447495403417,nan
1740794955.0415087,0.10773647067510142,-0.20681324415155436,-0.08971435322108365,0.16441170970732766,nan
1740794955.0454206,-0.2647714122408636,-0.5152192291755258,-0.04705176264976747,-0.196692019623099,nan
1740794955.0493264,-0.38078069849279234,-0.3618363844784605,0.15062674056187142,-0.3017881874995886,nan
1740794955.0532324,-0.1615108947831191,0.12024196052049832,0.39450930533676265,-0.09705287169355861,nan
1740794955.0571382,0.11284775383562684,0.5085859492200626,0.4877685852762495,0.11710376810908717,nan
1740794955.0610442,0.13308835864597612,0.496587724786606,0.34248268270736837,0.06562981078425764,nan
1740794955.0649502,-0.08560778964599237,0.14948052016750968,0.049519323450210956,-0.1724357952760743,nan
1740794955.068856,-0.24048328605913277,-0.22158573204053544,-0.22187350276308848,-0.27924515778652365,nan
1740794955.072762,-0.1101004373108879,-0.3790081517388069,-0.3600884879807505,-0.09420528208408778,nan
1740794955.0766678,0.19168106665612103,-0.3223942022663327,-0.35449759736435354,0.20347129746125386,nan
1740794955.0805738,0.36423518616298634,-0.18578337407173423,-0.2541282670100366,0.32806073839524913,nan
1740794955.0844796,0.2669501681315053,-0.06159001564714985,-0.12510611630400076,0.21847941631520848,nan
1740794955.0883856,0.044712073787525335,0.0413443513004371,-0.0340878070053222,0.05925436706242479,nan
1740794955.0922973,-0.0859001442759004,0.12400173783013656,-0.015585748529448183,0.0060570224101479326,nan
1740794955.096203,-0.09221464161053242,0.16191008767190976,-0.01880378128484055,-0.001374604592492729,nan
1740794955.100109,-0.10986186779446896,0.15487639534283995,0.0833552711654614,-0.1056518859447707,nan
1740794955.1040149,-0.21269458414639608,0.15328605181745408,0.36381376002863314,-0.28492504324278767,nan
1740794955.107921,-0.290125297149507,0.18753390632298444,0.687799542383499,-0.34299002277918705,nan
1740794955.111827,-0.19072432173915932,0.1936515230006879,0.7375558761951958,-0.1579355326343486,nan
1740794955.1157327,0.06442268178040436,0.06723594249193857,0.2815564897828873,0.13956427467159793,nan
1740794955.1196387,0.27994138435212296,-0.19056197502107497,-0.5294826122277058,0.2977047056495326,nan
1740794955.1235445,0.2991309139860537,-0.42107549341110123,-1.1713536817873422,0.2225150816870277,nan
1740794955.1274505,0.16514991468915582,-0.4440163398122211,-1.1419941700486935,0.05858399157631127,nan
1740794955.1313562,0.04147420792326286,-0.24003008410795465,-0.41917668937164243,-0.011043289206990594,nan
1740794955.1352623,0.009065391458102794,0.032775214912721146,0.47263047878421066,0.02391814840041743,nan
1740794955.1391737,-0.0036966535176674027,0.20472609197164252,0.8972266611824928,0.035397327288297996,nan
1740794955.1430795,-0.08992903548974611,0.242976756031961,0.6546534538440331,-0.0424350502716168,nan
1740794955.1469855,-0.21798846289176124,0.22309286772112782,0.11803055529565701,-0.12812801006567498,nan
1740794955.1508913,-0.25727257794035724,0.1991878180472196,-0.1666530058265553,-0.12165061094742359,nan
1740794955.1547973,-0.1345541376311547,0.15901214907838393,-0.008958839819981586,-0.04782150020079548,nan
1740794955.1587033,0.07530178295314296,0.09762712328255063,0.29183793990943174,-0.011175784235424641,nan
1740794955.162609,0.22226980414594363,0.057122734225136,0.30603958184655566,-0.03667954827272155,nan
1740794955.166515,0.2176856885200436,0.03999276346442449,-0.07755391669729102,-0.03362334147033416,nan
1740794955.170421,0.08744712733211309,-0.06680093841166032,-0.5689724265335023,0.059436991658608725,nan
1740794955.174327,-0.07714895792000143,-0.3726743525996876,-0.7926634052474045,0.15829693917377305,nan
1740794955.1782327,-0.18290502680144768,-0.7493463980558582,-0.623807309582396,0.12846346991506416,nan
1740794955.1821387,-0.1626723023165352,-0.8082247126115785,-0.21203863328580339,-0.020991069314585276,nan
1740794955.1860497,-0.0018312326498067417,-0.2510085891794231,0.24311939265089816,-0.11684799054723492,nan
1740794955.1899557,0.21951224582450338,0.7127111416628406,0.6426140479745396,-0.030939359882648072,nan
1740794955.1938617,0.3351989750333234,1.3909134116675468,0.9107832445577386,0.14042229914650772,nan
1740794955.1977675,0.20949733712462804,1.1837375231381686,0.8835581350612798,0.17323494273000678,nan
1740794955.2016735,-0.1170677138447073,0.183114276348708,0.41364774301830537,-0.012454059298072985,nan
