timestamps,TP9,AF7,AF8,TP10,Right AUX
1740797611.0901995,0.2542090055413525,0.7910608617408997,-0.36847295514407624,-0.15032824877737958,nan
1740797611.0941055,0.0844183011649462,0.29549028090374496,-0.07212715062595296,-0.18013393723457427,nan
1740797611.0980115,-0.0758563548814264,-0.342467785012877,0.16825960810521715,-0.09302282167566278,nan
1740797611.1019175,-0.10467654401570661,-0.6343341700844838,0.2564216653466916,0.023097536581886985,nan
1740797611.1058235,-0.04492499198449831,-0.4636642894920489,0.26202088484183944,0.09338540490806446,nan
1740797611.1097295,-0.015139428200898777,-0.07552730114386787,0.2540607901039703,0.09991713817174924,nan
1740797611.1136355,-0.05311561597063766,0.22984206277878272,0.1620455407616471,0.06179227725636468,nan
1740797611.1175416,-0.08736495906898742,0.33857357706322433,-0.1295810035321492,-0.0006643412384898461,nan
1740797611.1214476,-0.052192951576323435,0.3062745670850498,-0.5443565487763934,-0.07345318432925596,nan
1740797611.1253533,0.019771299599155617,0.2035587262471656,-0.7485306981713173,-0.13146244286923517,nan
1740797611.1292593,0.04856696641436614,0.04340881693150405,-0.4214173342717985,-0.13156668453740836,nan
1740797611.1331654,0.021969424718016564,-0.15761528299399058,0.36773091520131695,-0.04058844569541427,nan
1740797611.1370747,0.010380044835120974,-0.3141721883786402,1.091271611002832,0.11806134572264629,nan
1740797611.1409805,0.05913771565173855,-0.31697346095824114,1.1489076727479575,0.24861440121797762,nan
1740797611.1448865,0.11037113859204964,-0.1443695964050256,0.3904887247190028,0.23721160411464962,nan
1740797611.1487925,0.07335334824343442,0.09304316085625454,-0.7070938733606753,0.0530932748437599,nan
1740797611.1526985,-0.04161484365732608,0.23450529225584255,-1.3840210995719406,-0.19304106731058693,nan
1740797611.1566045,-0.1122155831143756,0.20066558884906574,-1.1720452875843173,-0.31419624992666856,nan
1740797611.1605105,-0.052204714610947146,0.05133591572733494,-0.2307403728997543,-0.20707306382882953,nan
1740797611.1644166,0.06288744833377213,-0.07536270934810606,0.7927110092408844,0.037939716364585985,nan
1740797611.1683226,0.0685940892162994,-0.07925376320609437,1.2370963287305539,0.2046675852329481,nan
1740797611.1722286,-0.08404746382817925,0.028907238016009227,0.8761226324942212,0.15499657495752286,nan
1740797611.1761346,-0.24092916023452843,0.1458393558955332,0.04102616391747818,-0.03156055181431175,nan
1740797611.1800406,-0.20103096286730016,0.15835791826472137,-0.6504934208330888,-0.13927623121295615,nan
1740797611.1839495,0.0494550050757729,0.025225094406185564,-0.7608619295679215,-0.04613752840209216,nan
1740797611.1878555,0.2983892861786128,-0.1922763011923995,-0.34535114180758203,0.14260765394814695,nan
1740797611.1917615,0.3200175958158273,-0.361859978590512,0.14589519877639384,0.20968405269141946,nan
1740797611.1956675,0.10586183074383225,-0.35337018227708944,0.3004864222279123,0.06817935926749033,nan
1740797611.1995735,-0.1364017809255275,-0.12080145927556385,0.11310433776233395,-0.13965243729537213,nan
1740797611.2034795,-0.20101789184062033,0.2449107189746757,-0.07444243202061974,-0.20107144679228858,nan
1740797611.2073855,-0.07407436436825267,0.5346748391264555,0.0014667341680346176,-0.0701270483113435,nan
1740797611.2112916,0.08863532068865955,0.5343742630814635,0.20915492522213655,0.0865317425832039,nan
1740797611.2151976,0.1314774632903332,0.18847921058079994,0.19117140344475575,0.08505048167616007,nan
1740797611.2191036,0.02164038058178682,-0.30833456537543313,-0.15798159496868489,-0.06632346115191938,nan
1740797611.2230096,-0.16350745773529854,-0.6090297060988052,-0.48349668762465203,-0.1822395320589737,nan
1740797611.2269156,-0.3089657997688927,-0.47691166377816274,-0.33736584124736274,-0.11400852431205502,nan
1740797611.2308242,-0.30772868616902604,-0.0072951752268895515,0.2597784630238255,0.08818363844472232,nan
1740797611.2347302,-0.09693771619082885,0.41915381644042143,0.7390651594071258,0.24150658744693837,nan
1740797611.2386363,0.2727101964792089,0.45638704792700724,0.5558055262239645,0.23078494799252497,nan
1740797611.2425423,0.5952084123340797,0.10817508593421951,-0.18800726865788994,0.10688751201180625,nan
1740797611.2464483,0.6109747352890311,-0.2765266816952412,-0.793155006248265,-0.009357841296399256,nan
1740797611.2503543,0.23189354779469185,-0.34457088262923163,-0.6775656011090183,-0.07432008794577205,nan
1740797611.2542603,-0.32233406672940773,-0.08091270127479411,0.015248194300918791,-0.13649412259083504,nan
1740797611.2581663,-0.664709925066546,0.20142056466458066,0.5848580091201975,-0.2224889023452607,nan
1740797611.2620723,-0.5694596935912651,0.211544776072745,0.5221360585818677,-0.2625269611197147,nan
1740797611.2659783,-0.16928232977779414,-0.008981581214172347,0.0027354519007562945,-0.16325851824096935,nan
1740797611.2698843,0.18779065888549054,-0.15419917131146776,-0.38412571880143587,0.06178434838633109,nan
1740797611.2737904,0.27370264590369264,-0.01972290568809538,-0.30079423670914296,0.2726725743072798,nan
1740797611.277699,0.1570947599395894,0.24736715669727508,0.04832597898739686,0.3281344013995636,nan
1740797611.281605,0.059514457905075854,0.30055846152767496,0.2589560364401085,0.21481207338407943,nan
1740797611.285511,0.08799623268862362,-0.014680846271019505,0.20791082057702434,0.04101061358093435,nan
1740797611.289417,0.15190374894468142,-0.4596324001717298,0.09224487555366548,-0.08196229743888499,nan
1740797611.293323,0.12303348644619068,-0.6143886276567998,0.06554354529800299,-0.12943163723298565,nan
1740797611.297229,0.008063269998728494,-0.2855205848312269,0.013266385770195167,-0.14110020780046295,nan
1740797611.301135,-0.08048367269849095,0.30201291394035024,-0.22736492918295073,-0.14481304420304228,nan
1740797611.3050408,-0.09115183405939589,0.7026525840810514,-0.527388328336236,-0.12800032728513136,nan
1740797611.3089468,-0.10087232371935052,0.627272025063611,-0.5157581761557726,-0.0727696283668106,nan
1740797611.3128529,-0.18930481169204252,0.15455272687105667,-0.022472096141485914,0.011340929155024377,nan
1740797611.3167589,-0.2914709065951254,-0.3691684356313377,0.6249154106282296,0.09782110722640591,nan
1740797611.320665,-0.2393347463692167,-0.6076947914220711,0.8628020376648716,0.16394486595505792,nan
1740797611.3245714,0.03511980859610015,-0.4564335908487872,0.46009614009753524,0.18428859921451357,nan
1740797611.3284774,0.3766688212807881,-0.07303977140401771,-0.2393843609287626,0.12381573002321603,nan
1740797611.3323832,0.5245772270163993,0.26526023384019864,-0.666694092503916,-0.023673358853772343,nan
1740797611.3362892,0.3551737650622557,0.36426417974666175,-0.5681990371681671,-0.18184973167915472,nan
1740797611.3401952,-0.006796894180667405,0.2362301440388483,-0.16136454250769627,-0.21652767417545754,nan
1740797611.3441012,-0.3107910883869953,0.0528040527377999,0.18400481511517291,-0.062334541407320046,nan
1740797611.3480072,-0.39039149282979535,-0.035335234792484946,0.3077263524855969,0.17108329714144613,nan
1740797611.3519132,-0.25579737071862285,-0.0416563019293608,0.2810437840880943,0.2628316174796849,nan
1740797611.3558192,-0.028176020123860685,-0.09359817190732142,0.1833815356002129,0.09298649370717019,nan
1740797611.3597252,0.16546416431743105,-0.23518752664387405,-0.0022911931389660643,-0.21017494636786868,nan
1740797611.3636312,0.23837004877703039,-0.3199317938514972,-0.2555936374982235,-0.36923961002145383,nan
1740797611.3675373,0.15294603035855053,-0.15862635429822064,-0.40073637952464025,-0.2270272794662288,nan
1740797611.3714468,-0.052487640461560674,0.21867801236919052,-0.24445896274136802,0.0916342828443851,nan
1740797611.3753529,-0.24670850024698585,0.5120116155866574,0.16335578039268936,0.3045155543466136,nan
1740797611.3792589,-0.27215467478960875,0.4313223673809014,0.4961801719654547,0.25468690364152996,nan
1740797611.383165,-0.07915775723851404,0.024245417722883397,0.44611975261070114,0.050813389922310624,nan
1740797611.387071,0.20427466905598451,-0.3396572086005465,0.04104012080699965,-0.07523795076998539,nan
1740797611.3909767,0.36693863150351835,-0.35061555235747893,-0.3738217057434474,-0.023151381136369723,nan
1740797611.3948827,0.29926136353772853,-0.08710625533895419,-0.4706845452435307,0.08891311139760173,nan
1740797611.3987887,0.08216358855005307,0.0953845991325324,-0.22622216379835275,0.08156777199370577,nan
1740797611.4026947,-0.11053553191179166,-0.007087556373523648,0.11678200105606855,-0.07923490161184342,nan
1740797611.4066007,-0.18475348181881396,-0.21003601140740913,0.311361985647647,-0.2536190650444729,nan
1740797611.4105067,-0.18791843418167697,-0.1821915814843395,0.2858716953136849,-0.28519302033348365,nan
1740797611.4144127,-0.2092497880395416,0.12924446918409643,0.10733352769040488,-0.1525803220917263,nan
1740797611.418322,-0.24944128228477233,0.41491959080652857,-0.13097013668637042,0.03836585215724125,nan
1740797611.422228,-0.21193191754305976,0.3685386135626531,-0.3324819312486418,0.1768203324469687,nan
1740797611.426134,-0.02003625175368885,0.051427123935671566,-0.3675987760027531,0.2297865601692281,nan
1740797611.4300401,0.2735671463088305,-0.1927847985218684,-0.1348227026272013,0.21820856067846883,nan
1740797611.4339461,0.5011112699247889,-0.1596317545764557,0.29224886716441856,0.15975503883748007,nan
1740797611.4378521,0.5029798686990551,-0.00919020451241485,0.6258927332695788,0.06414339861418013,nan
1740797611.4417582,0.24923572284128723,-0.02041202555871202,0.5639281450118364,-0.0374827441562137,nan
1740797611.4456642,-0.1336679542370237,-0.20562703339139002,0.0803695233886744,-0.10331505917034643,nan
1740797611.4495702,-0.44070494243958613,-0.2933224150344206,-0.49682717278204314,-0.1327739429050537,nan
1740797611.4534762,-0.5133312880522113,-0.10276082405700619,-0.7410471389533274,-0.17394724574473472,nan
1740797611.4573822,-0.33428145905699325,0.18773939658997899,-0.49312968842283245,-0.24568610162175303,nan
1740797611.4612882,-0.03268609801457634,0.25065295823156963,0.009928849697788391,-0.2672429610510499,nan
1740797611.4651973,0.20804706212065788,0.04218925790710497,0.3627422748053808,-0.11928532601607661,nan
1740797611.4691033,0.27615270932048935,-0.11297276505191597,0.3521498953026106,0.19275751850172296,nan
1740797611.4730093,0.19260904916894053,0.07038909057692834,0.11492324407513878,0.46666880370870945,nan
1740797611.4769154,0.061307146273301055,0.43693683017049223,-0.03461766230561486,0.4594177765391478,nan
1740797611.4808214,-0.03257741219607369,0.5243531396675893,0.07442923200566989,0.1469367255555307,nan
1740797611.4847274,-0.07104914135468128,0.10549537939718551,0.3044581437899389,-0.2041363196506591,nan
1740797611.4886334,-0.06641966187426096,-0.5115258599836353,0.3496034015438555,-0.2805814020332733,nan
1740797611.4925394,-0.01360248214432482,-0.7994903486650358,0.04825144258455818,-0.05452414210877941,nan
1740797611.4964454,0.09001596819682164,-0.5722504327069192,-0.42803951101256366,0.16739186676081952,nan
1740797611.5003514,0.18679834053330074,-0.12913010969481126,-0.7017474037015976,0.06996676558051483,nan
1740797611.5042574,0.1675437794716696,0.15137955689408586,-0.532275016058769,-0.302239100076179,nan
1740797611.5081635,-0.022439573620161364,0.2337198767645202,-0.05154988080157008,-0.5535471681513352,nan
1740797611.5120726,-0.28955845791683704,0.35107883682356555,0.35167218502833747,-0.3500780987824647,nan
1740797611.5159786,-0.4392139855477486,0.584257202573026,0.4027008429717352,0.1967545829940742,nan
1740797611.5198846,-0.34214946759191883,0.6820476975485428,0.19665780701520652,0.6111287135076184,nan
1740797611.5237906,-0.05200932305123357,0.3737943721259495,0.06711141637232089,0.5369809603907364,nan
1740797611.5276966,0.24879080430146963,-0.23437802059673307,0.19940849618416928,0.1073409096285705,nan
1740797611.5316026,0.40843223902955844,-0.7077236493730007,0.4074846889122292,-0.21141746950567145,nan
1740797611.5355086,0.39934157097188067,-0.734725590714234,0.3305604712944001,-0.13399952140087082,nan
1740797611.5394146,0.27608308702110873,-0.42919787739693765,-0.15091881516807396,0.14222675243762653,nan
1740797611.5433207,0.09210824633136647,-0.13154644731774193,-0.7309838056484719,0.18541956119707195,nan
1740797611.5472267,-0.11373382039838158,0.0032168906092921255,-0.9344151501696217,-0.1568917575006102,nan
1740797611.5511327,-0.28150845579755146,0.10392247368062943,-0.5553744869546982,-0.5649774166617093,nan
1740797611.5550385,-0.3426416553929736,0.29344001142501086,0.15739137558730035,-0.5950529452881276,nan
1740797611.5589473,-0.28757279801212565,0.45642314436574555,0.7219084086446378,-0.1706739620511475,nan
1740797611.5628533,-0.182036513669191,0.40211558646696866,0.805267694266744,0.33756030958995265,nan
1740797611.5667593,-0.08055575557442383,0.182324294385511,0.42885560445492515,0.5187830093185811,nan
1740797611.5706654,0.04821325934870109,0.07825287315712759,-0.10685918304322146,0.3379923205602474,nan
1740797611.5745714,0.24887153432760312,0.21457064188184846,-0.4446014209833812,0.10155410540151492,nan
1740797611.5784774,0.43060145435246117,0.3102805404611829,-0.3834206165731593,0.05790020325502328,nan
1740797611.5823834,0.3803456057722484,-0.03369441388374095,-0.005885641286898747,0.13111352425597758,nan
1740797611.5862894,0.015397557502098548,-0.7935009979963596,0.34778038218318585,0.08247225490880768,nan
1740797611.5901954,-0.3999687842138059,-1.3967743828563763,0.3178274041320593,-0.1460780326100227,nan
1740797611.5941014,-0.42200965848659855,-1.2348808663268873,-0.13364379032557233,-0.3550757179058663,nan
1740797611.5980074,0.08502290349822914,-0.27726861447129497,-0.6020840748586532,-0.35566792635880845,nan
1740797611.6019135,0.6712121805348862,0.8822283991249285,-0.573906615371163,-0.20951959985609528,nan
1740797611.605822,0.6563223541058295,1.564875555153872,0.022451926435039234,-0.11832409725880437,nan
1740797611.609728,-0.14553491971671367,1.520406498345575,0.6434036046711922,-0.1208892953818228,nan
1740797611.613634,-1.1095681657234324,0.9369819839060448,0.6369392001012588,-0.026901025264028502,nan
1740797611.6175401,-1.331219599016788,0.11891176119971486,-0.03334794222446164,0.2944625124492423,nan
1740797611.6214461,-0.5256883784701808,-0.6942218760861462,-0.6700846621714488,0.6498263930969534,nan
1740797611.6253521,0.6549798849047387,-1.25642881856838,-0.557031925557276,0.6731202836311975,nan
1740797611.6292582,1.2599569850383865,-1.3109034712379428,0.23847990550312792,0.25679096057721773,nan
1740797611.6331642,0.9665452130267035,-0.8258765184729638,0.9068990960892455,-0.27408122076328356,nan
1740797611.6370702,0.3037729289502009,-0.15612286457200855,0.7801416847008804,-0.5012241005344467,nan
1740797611.6409762,-0.03358018503186085,0.23465169684900314,0.04899540155641766,-0.3760905551835601,nan
1740797611.6448822,0.030069580888665137,0.2780510767597754,-0.5289061770150413,-0.23038377218848388,nan
1740797611.6487882,-0.0380749016397361,0.3828702654517139,-0.5593344843660721,-0.31182663463866256,nan
1740797611.652698,-0.6179406781392405,0.8682092894187212,-0.41112189267292115,-0.4375309909110097,nan
1740797611.656604,-1.3431213166136924,1.3924290951554121,-0.5775203283834707,-0.2294849566823512,nan
1740797611.66051,-1.3977759402893144,1.1900705396778477,-0.849084752824599,0.34949681685664324,nan
1740797611.664416,-0.4045416767527459,0.003358186209662746,-0.4713796555647522,0.8575621768879721,nan
1740797611.668322,1.0691374511709284,-1.375407526393343,0.7754004495805439,0.8486961019771774,nan
1740797611.672228,1.9460161896087107,-1.7556068073938769,1.9496592811773208,0.3812122545885534,nan
1740797611.676134,1.5798281887147718,-0.8227935862491473,1.7847319325036148,-0.08899422557545589,nan
1740797611.6800401,0.28582606508793296,0.41063843757573404,0.20687229281386213,-0.29006579340140215,nan
1740797611.6839461,-0.9799349655105736,0.6284628112729036,-1.3095887390476855,-0.41289600465080195,nan
1740797611.6878521,-1.4082608805452348,-0.32586930399924907,-1.2356121808188054,-0.69936365815452,nan
1740797611.6917582,-0.8838180703322238,-1.1961770903715947,0.20343237792397678,-0.913803606788556,nan
1740797611.695664,0.06061234217996584,-0.6518582459218669,1.0681941851528334,-0.5181830956857222,nan
1740797611.6995738,0.7086528908462791,1.1903810100579633,-0.17518644224397656,0.5334579720577446,nan
1740797611.7034798,0.6551498823187747,2.7377055318308186,-2.679090399003026,1.414276683829809,nan
1740797611.7073858,0.04269167482800264,2.4652158318912667,-3.708935979883151,1.1567721946566876,nan
1740797611.7112918,-0.5707538548635693,0.4215633108977297,-1.3674075323286388,-0.18312640674516636,nan
1740797611.7151978,-0.6453766043151133,-1.8414270949954679,3.1905658718824292,-1.3465517958596263,nan
1740797611.7191038,-0.11259139860936725,-2.7548909559671135,6.435281300357895,-1.1020484116238345,nan
1740797611.7230098,0.5425366177956628,-2.0564119352426107,5.5165150918122094,0.37766718796605664,nan
1740797611.7269158,0.7164417802256193,-0.7073235016787154,0.799441784026906,1.5901259227772626,nan
1740797611.7308218,0.2778648789405567,0.2744681294184253,-4.442221129678833,1.2520418403737745,nan
1740797611.7347279,-0.29274655225705365,0.7166799779937891,-6.729108625317859,-0.36036298656682003,nan
1740797611.7386339,-0.4103314909215375,1.082252878116025,-4.955143731100513,-1.7513715968060228,nan
1740797611.74254,-0.017304522514482716,1.5969638572781086,-0.8025743799524432,-1.7741205074799098,nan
1740797611.7464492,0.37235131027015045,1.8061175257975597,2.901033383145089,-0.6295681174175655,nan
1740797611.7503552,0.2840805688744468,1.0652727301446925,4.221829069940195,0.6786689382933047,nan
1740797611.7542613,-0.16385852946631863,-0.5900376551057784,3.0754666508823987,1.506385310851911,nan
1740797611.7581673,-0.4344066791996553,-2.1693219270065818,0.816735889792052,1.846184311215543,nan
1740797611.7620733,-0.26622880678219674,-2.4415728290519154,-0.9038734724706469,1.629743719577581,nan
1740797611.7659793,-0.01679562368028329,-1.0580649067172154,-1.2106719621829012,0.40387904469620267,nan
1740797611.7698853,-0.18647477243794303,0.9674021522144818,-0.4291298624230998,-1.8295177112023335,nan
1740797611.7737913,-0.6865609385128886,1.9917269152436001,0.3403377175819152,-3.7141955556178496,nan
1740797611.7776973,-0.797008173928576,1.1756679651338942,0.20068425202244905,-3.2643277120743153,nan
1740797611.7816033,0.03743837774948491,-0.6655636289450856,-0.7803263528082529,-0.008025749316417237,nan
1740797611.7855093,1.4664558557311074,-1.7202708791781083,-1.7010722916424428,3.838664366337236,nan
1740797611.7894154,2.4362143131994007,-0.8990371906458811,-1.7198941327602255,5.019729691205011,nan
1740797611.7933247,2.1367598863154944,1.013993374263802,-0.8014027743353921,2.423924389546974,nan
1740797611.7972307,0.6517190638902624,2.0626131093988813,0.42500440186982263,-1.6232966333686485,nan
1740797611.8011367,-1.303870007934728,1.1362994235512243,1.4135838780189498,-3.6476216963439017,nan
1740797611.8050427,-3.0404426748563584,-0.770423715198314,2.0973686518085293,-2.5722868670905794,nan
1740797611.8089488,-4.06510831416838,-1.558322323783407,2.4984203985068616,-0.5702112944067353,nan
1740797611.8128548,-3.7568360571908994,-0.3876038670100022,2.21981568013443,-0.214433527196543,nan
1740797611.8167608,-1.4329040860399098,1.2003096081981617,0.7134999199641683,-1.2525883110388185,nan
1740797611.8206666,2.7305580599300994,0.8980092200419164,-1.8159517442733304,-0.9286728223636053,nan
1740797611.8245726,6.845574605393594,-1.5661509889723053,-4.026393485033532,2.3273543559652237,nan
1740797611.8284786,7.974377310872604,-3.6309693468389344,-4.32472685717153,6.183038818195506,nan
1740797611.8323846,4.391443789157813,-2.3925224942262835,-2.2958671141172826,6.222002391613882,nan
1740797611.8362906,-2.4462334687553438,2.014573432746591,0.8298060426653456,0.7473152488200324,nan
1740797611.8402,-8.37349407135642,5.905479145993765,3.207231119822548,-6.661035136053371,nan
1740797611.844106,-9.479737307780272,5.3775019295063675,3.8215024599644147,-9.960449794248245,nan
1740797611.848012,-5.133037326252131,0.2973088301218479,2.9139344634444546,-6.2328697364665375,nan
1740797611.851918,1.5928709936115284,-5.222768681499202,1.2488755653655152,1.585673210307494,nan
1740797611.855824,6.40729596821635,-6.545527760718435,-0.6365187169741869,7.487709115764479,nan
1740797611.85973,6.947349699076249,-2.7885330828807784,-2.3485209686348765,7.709817717117165,nan
1740797611.863636,3.9926483949200393,2.5364524856754938,-3.215967148088907,3.3875113053360812,nan
1740797611.8675418,0.1678032667815879,4.972986758234387,-2.544923605635628,-1.4336160427410862,nan
1740797611.8714478,-2.292585445384563,3.092616057801823,-0.5079552219409107,-3.70314816918686,nan
1740797611.8753538,-2.7994926042404726,-0.7365871967187891,1.5478635086295653,-3.2667163193902438,nan
1740797611.8792598,-2.108666199481968,-3.0194681997565804,2.1434991759373365,-1.7361246265393477,nan
1740797611.8831658,-1.2601632860465335,-2.2557868395664005,1.1288969904269228,-0.450753786827266,nan
1740797611.887075,-0.783199035095003,0.29401908640775165,-0.1480956462831467,0.2633534453136751,nan
1740797611.890981,-0.5548017843145537,2.258597916937315,-0.3245211540936194,0.5431445338335352,nan
1740797611.894887,-0.13085460888388423,2.19349857161476,0.4720716154337207,0.5151522643963995,nan
1740797611.898793,0.7615075706930856,0.3467080417428455,0.868708928682257,0.4401241529939134,nan
1740797611.902699,1.8572494600661116,-1.8672150619052108,-0.01613796837655329,0.7369096258314718,nan
1740797611.906605,2.406138252176331,-2.8496906362552257,-1.4159334605787608,1.405883938338932,nan
1740797611.910511,1.7436194464921515,-1.7377521928834758,-1.756711637267769,1.6359042453889892,nan
1740797611.914417,-0.011344706489279335,0.9336554335383764,-0.5169482546996003,0.5316074994974248,nan
1740797611.918323,-1.8288789493918387,3.277507910953735,1.1112003191597433,-1.58940244997064,nan
1740797611.922229,-2.4977831571581035,3.255075966430389,1.5427194686921346,-3.018755132372072,nan
1740797611.926135,-1.6293314024385959,0.47234449678890056,0.5254972829713604,-2.2416107878111453,nan
1740797611.930041,0.024116117441602008,-3.0688634285867,-0.7261169355644373,0.2942604307420174,nan
1740797611.93395,1.2543657587827135,-4.398804726478332,-1.0148449913880744,2.3678073831835307,nan
1740797611.937856,1.3940773331466558,-2.208356084936508,-0.3978771422204225,2.18110044269888,nan
1740797611.941762,0.6793177515273984,1.8200152370905396,0.20810577463842786,0.21016952485141405,nan
1740797611.945668,-0.20834418526435958,4.437184911976465,0.3264679041171456,-1.3869402330841931,nan
1740797611.9495738,-0.7662355470370382,3.7082454575474455,0.3684486286844259,-1.141640109685649,nan
1740797611.9534798,-0.840778657955875,0.5452553568120319,0.7558224178686491,0.2674033833444947,nan
1740797611.9573858,-0.44009936406017724,-2.456535498082663,1.0647320090896808,1.0383115340467617,nan
1740797611.9612918,0.32432391972975966,-3.4371206614339496,0.48287840581396546,0.4037638036348084,nan
1740797611.9651978,1.0813254466887048,-2.469651938391727,-0.9611434885067501,-0.6389484222873854,nan
1740797611.9691038,1.2583148854095587,-0.7431824785201034,-2.091655006638882,-0.731580497973956,nan
1740797611.9730098,0.5725952900882118,0.841684424401185,-1.7838719371536091,0.16552499044112784,nan
1740797611.9769158,-0.5387123676597166,2.0270470265279417,-0.2648776954792003,0.8459424187807484,nan
1740797611.9808247,-1.2077837312604127,2.5754759464639507,1.1248666041991733,0.43581253018993255,nan
1740797611.9847307,-0.9992487954625665,1.9977144123542294,1.4504201741024307,-0.5680380096110782,nan
1740797611.9886367,-0.37648285447093344,0.21729459634556336,1.0894732518635128,-1.013526640492304,nan
1740797611.9925427,-0.1246243854909561,-1.8006138968224377,0.9204657710396492,-0.5198924713861427,nan
1740797611.9964488,-0.3415853531003106,-2.605219746471896,0.9377128588546462,0.2078657131494071,nan
1740797612.0003548,-0.26374665284637816,-1.6395453702055707,0.23529107633056726,0.43490848436477764,nan
1740797612.0042608,0.7226023545569839,0.1335837766722986,-1.496712700408475,0.31225813663211416,nan
1740797612.0081666,2.0464079904166477,1.1919596047729974,-2.966196874452651,0.4540774654458735,nan
1740797612.0120726,2.2784465359614425,0.9738171656430925,-2.3903472983430922,0.8601132012953324,nan
1740797612.0159786,0.6763365883994197,0.2581902774621435,0.3047574107576992,0.7677518098968116,nan
1740797612.0198846,-1.7535727017626506,0.0666987033838626,2.891110303396972,-0.2658515973882764,nan
1740797612.0237906,-3.0260301085231767,0.46484624284484094,2.9290264122104324,-1.5010411272806117,nan
1740797612.0276992,-2.1067379875333367,0.6431441574259201,0.4193852671789367,-1.6648233108993142,nan
1740797612.0316052,0.05862602511366929,0.03889308943253046,-2.035261184572722,-0.4567641170549434,nan
1740797612.0355113,1.5531644759390173,-0.9351652501986251,-1.9450396756367663,0.9676329648461831,nan
1740797612.0394173,1.4259072425351103,-1.372302415639154,0.39589545273081944,1.2483462290709832,nan
1740797612.0433233,0.4503725253646835,-0.8701956344665229,2.2617723219659522,0.3562712518488252,nan
1740797612.0472293,-0.011711862990524811,0.14314299799806934,1.4980269104820159,-0.45372253098291865,nan
1740797612.0511353,0.3835164948004513,0.9686282565452041,-1.1563737510234462,-0.21608954631243726,nan
1740797612.0550413,0.7296388239165408,1.2493143208743338,-2.9456424152074208,0.5885632033826923,nan
1740797612.0589473,0.14771860572259496,0.989073120693738,-2.08881100454832,0.7134396766665673,nan
1740797612.0628533,-1.044439641455547,0.27496416889442515,0.45614933069717767,-0.21398055053315612,nan
1740797612.0667593,-1.6578335211137807,-0.7012691634053992,2.244688811406974,-1.1659453635042016,nan
1740797612.0706654,-1.00509272841852,-1.4216518979660908,1.985508860599577,-0.9744164584120354,nan
1740797612.0745761,0.3265905567174433,-1.2506642013181275,0.5907119421502854,0.19740971805688415,nan
1740797612.0784822,1.1551268504934495,-0.14161964834053223,-0.27520436310007723,1.0192129324785342,nan
1740797612.0823882,0.9621700879890832,1.0219684060378318,-0.18237745416212242,0.6010399806071672,nan
1740797612.0862942,0.2788333423953607,1.1569694022526653,-0.12287806193483786,-0.4447892749875263,nan
1740797612.0902002,-0.10678299535792582,0.1754807660890329,-0.9010451808057045,-0.790913605527236,nan
1740797612.0941062,-0.049337078457951815,-0.7843752216284788,-1.8663278326055566,-0.03738528913284966,nan
1740797612.0980122,-0.010312843249275476,-0.5688521030039727,-1.5974446671562723,0.8260541639868338,nan
1740797612.1019182,-0.2940878768636201,0.6258176542595275,0.27542532905255646,0.6834497205694657,nan
1740797612.1058242,-0.6131760736946562,1.3855974965089348,2.321756571976567,-0.31223710687290246,nan
1740797612.1097302,-0.5024625690261479,0.6782934380135514,2.628323623302095,-0.9392438303755161,nan
1740797612.1136363,0.027056462389383924,-0.9101307060454626,0.806663893018624,-0.428072440061674,nan
1740797612.1175423,0.4693455985593341,-1.7958978988301875,-1.503108860996693,0.5940678952308459,nan
1740797612.1214516,0.445613089484217,-1.179325792105271,-2.217708648413186,0.886066278848094,nan
1740797612.1253576,0.14496842804444346,0.11985648629465256,-0.8509652219584285,0.10995826457972463,nan
1740797612.1292636,0.02454331938224152,0.7465729490488274,1.0743127945367819,-0.7844115873529525,nan
1740797612.1331697,0.1836620406398594,0.445904622178461,1.6098114613916952,-0.7421970922876294,nan
1740797612.1370757,0.23969937640270286,0.21752632858269874,0.3103827353926442,0.12894844619644466,nan
1740797612.1409817,-0.12886366094824656,0.8231393885022423,-1.409414594434248,0.7399312761347283,nan
1740797612.1448877,-0.6781246652563195,1.584197902739055,-1.7629669958094718,0.3731176779313471,nan
1740797612.1487937,-0.8065808889441597,1.101594431169399,-0.3731654328696296,-0.47066411527768837,nan
1740797612.1526997,-0.257786895227762,-0.8759442283759278,1.4113244832793153,-0.7241784633325128,nan
1740797612.1566057,0.5285442433128664,-2.759024647007647,1.9070712795695668,-0.05299823465382461,nan
1740797612.1605117,0.8542477136392028,-2.6383457753620885,0.753083758110081,0.7764687300443736,nan
1740797612.1644177,0.4918686326758623,-0.4039323921167284,-0.8107169419741826,0.8394691269150831,nan
1740797612.168327,-0.11873877778210297,1.980924701834973,-1.265033401689169,0.11367162934310554,nan
1740797612.172233,-0.3887376594323025,2.4487862393316937,-0.3495576350772667,-0.5816808044741024,nan
1740797612.176139,-0.18833476323729983,0.8942273781838802,0.7476742141272161,-0.5916227251368106,nan
1740797612.1800451,0.11405055868030088,-0.8894715555388852,0.7070712934213317,-0.11834389465297812,nan
1740797612.1839511,0.13597970244508542,-1.2075063985713037,-0.49771339105259177,0.15643083165135072,nan
1740797612.1878572,-0.11708312289901755,-0.12256500835020956,-1.561486645767527,-0.056950908198413246,nan
1740797612.1917632,-0.3423096089595522,0.9173396477950966,-1.225347117015691,-0.37069301022192064,nan
1740797612.1956692,-0.31767481584861246,0.8026591333925519,0.3871129275375593,-0.2741151690925146,nan
1740797612.1995752,-0.09552165696266374,-0.18938453525355806,1.8701113245277814,0.23559530448357216,nan
1740797612.2034812,0.1409365946830366,-0.9932164129104941,1.9352231583106425,0.68944134281614,nan
1740797612.207387,0.2924074253577561,-1.0138976628318657,0.6286447699139853,0.7022383380835284,nan
1740797612.211293,0.362521568926783,-0.5398257206927268,-0.8456263708855202,0.32856479562000285,nan
1740797612.2152023,0.3406648615328016,-0.08362224840272611,-1.384465268887566,-0.12273685171947327,nan
1740797612.2191083,0.1782901864308132,0.27937887498420344,-0.9391349400739897,-0.4512964718711591,nan
1740797612.2230144,-0.09933931028232239,0.7433197167481841,-0.26771281315270806,-0.6332670109132251,nan
1740797612.2269204,-0.3389757905235444,1.1852970052105396,0.02973882365436833,-0.6359719220632558,nan
1740797612.2308264,-0.38816501419117155,1.1095577778522099,0.039673060214462985,-0.36755894627715646,nan
1740797612.2347324,-0.2606398338754027,0.2745327616031637,0.16425895650945974,0.12701311745776114,nan
1740797612.2386384,-0.11109545345770787,-0.8343007649796356,0.48334556016815233,0.5541249357884186,nan
1740797612.2425444,-0.0356230452436062,-1.37826486037064,0.6705761844184932,0.6065361354097554,nan
1740797612.2464504,0.040503264850707536,-1.0061155678627596,0.4716886175758458,0.306006855114826,nan
1740797612.2503564,0.2250372461249345,-0.17906685690515595,0.04829900971739193,-0.004032465258921058,nan
1740797612.2542624,0.4442277834800432,0.37797372217391434,-0.24887834446265036,-0.05598231176480789,nan
1740797612.2581682,0.4568501336613298,0.4189626523628279,-0.31967049727715924,0.03714368432821489,nan
1740797612.2620773,0.13058316987956442,0.2699759982672432,-0.35661313691176133,-0.034302978989264654,nan
1740797612.2659833,-0.3383090845098691,0.2795335233553974,-0.4654991223928956,-0.329913211313243,nan
1740797612.2698894,-0.5604942700014324,0.38338848772262935,-0.43886968747148936,-0.5319979698256821,nan
1740797612.2737954,-0.3397538585929051,0.29229709007970645,-0.04657356762329061,-0.3267816386946403,nan
1740797612.2777014,0.10889869799466305,-0.03309647584694386,0.5324493944964984,0.17332259489654253,nan
1740797612.2816074,0.3657935380828671,-0.2892782261135891,0.7731843352604614,0.5088700904145788,nan
1740797612.2855134,0.22704001956914102,-0.23317107656524003,0.38488583316971425,0.38008244068020774,nan
1740797612.2894194,-0.1100302252499484,-0.024730908370601046,-0.2839338787691788,-0.025781522196464176,nan
1740797612.2933254,-0.282685290449058,-0.034610009744033714,-0.5695703642749156,-0.27142989444972226,nan
1740797612.2972314,-0.14626787566227528,-0.34610272934669445,-0.22282018251970614,-0.16558982432784866,nan
1740797612.3011374,0.10900963322596445,-0.5888222437528184,0.31041984865619326,0.07792106789676284,nan
1740797612.3050435,0.20552679096534837,-0.34260335189026175,0.40640539345495524,0.1632523041252038,nan
1740797612.3089523,0.08828553277038004,0.34745697810982334,-0.02220347519058073,0.06865187343300072,nan
1740797612.3128583,-0.045017883797962545,0.9462165469954604,-0.45097605430085036,-0.0028645403239819533,nan
1740797612.3167644,-0.0017908040680208823,0.933868293477751,-0.376727094909479,0.04350091345746198,nan
1740797612.3206704,0.1689963506534468,0.29979466360543605,0.10400399729657522,0.05797974929057791,nan
1740797612.3245761,0.22792925080577842,-0.4688033889063781,0.43661828062078467,-0.1105327185964316,nan
1740797612.3284822,0.02020911693535332,-0.8397808035610281,0.26297447087272185,-0.34222862383297614,nan
1740797612.3323882,-0.3313398257187125,-0.6550445839143827,-0.19456934551029031,-0.3461141680284817,nan
1740797612.3362942,-0.5245045937359036,-0.1647188583408093,-0.426991415933412,-0.03215327219817065,nan
1740797612.3402002,-0.36494045050675483,0.254449338124012,-0.2090931589427976,0.32907578517371583,nan
1740797612.3441062,0.048811034350066305,0.3872685061691143,0.2126666952119267,0.3942730707256537,nan
1740797612.3480122,0.41715298974060216,0.2653420963586492,0.4489900821633559,0.1445341546413822,nan
1740797612.3519182,0.5024785223313859,0.06462466388394131,0.3565236025885621,-0.10169948055477003,nan
1740797612.3558283,0.3065179721454615,-0.054773490546476414,0.07093252330233721,-0.08002077018144933,nan
1740797612.3597343,0.017732228219560997,-0.053131183494177746,-0.22338639773573027,0.10870141647508315,nan
1740797612.3636403,-0.18020880272474318,-0.005533603757193289,-0.42647932256707294,0.14801524605098465,nan
1740797612.3675463,-0.23698498432968046,-0.0014666288138204576,-0.45690309726975464,-0.08120205887590164,nan
1740797612.3714523,-0.2050171820360005,-0.0429328065624447,-0.220848422747779,-0.3444141035690944,nan
1740797612.3753583,-0.13461439686769783,-0.051405839892854896,0.2366908133435956,-0.3414691320483593,nan
1740797612.379264,-0.03385544378430948,0.015241077741743346,0.6132528043408481,-0.0707533543574966,nan
1740797612.3831701,0.080830311384317,0.07902442645893201,0.5442307343344874,0.18022210191170343,nan
1740797612.3870761,0.14390718390323026,0.02148087306677988,-0.0013914113045065165,0.18924210264224878,nan
1740797612.3909822,0.0925182895196925,-0.14451785051721716,-0.5866370720913001,0.04764403096621528,nan
1740797612.3948882,-0.04187263506884258,-0.23509123971937076,-0.6774587776313283,0.006381224443952737,nan
1740797612.3987942,-0.13035713186221096,-0.08610433312410873,-0.17632166838844957,0.13773483318777827,nan
1740797612.4027028,-0.06777310254446925,0.2221069135840436,0.4643539405846782,0.24719604614180718,nan
1740797612.4066088,0.10437933350411525,0.3954600435916071,0.6912337892435245,0.13448647174320558,nan
1740797612.4105148,0.22191943918638338,0.22765109612666487,0.37915522333421503,-0.1395300318584075,nan
1740797612.4144208,0.1613734801689105,-0.15286164992794954,-0.1163223409789983,-0.31576717913592245,nan
1740797612.4183269,-0.029178680660444115,-0.39158569469689647,-0.3859779595433615,-0.24075895999114916,nan
1740797612.4222329,-0.17819624966671,-0.27425494558290703,-0.35926186829789114,-0.030935647108230532,nan
1740797612.4261389,-0.1677546181863461,0.055890674606836804,-0.25362151900299723,0.08846411260636539,nan
1740797612.430045,-0.04642681031255206,0.2705107220096637,-0.22383873257502468,0.047328866327318996,nan
1740797612.433951,0.03948030676802138,0.2080049995228897,-0.17245771375016639,-0.02703561177725848,nan
1740797612.437857,0.009427190626136861,0.001977959579013654,0.07233759276693465,-0.007735628594051643,nan
1740797612.441763,-0.07578518809228527,-0.12562447651269412,0.4691041588343829,0.07333006759346046,nan
1740797612.445669,-0.09553249614052439,-0.11772786803672494,0.7325498076074562,0.10174269239527572,nan
1740797612.4495785,-0.0011282753259055673,-0.07770192518707641,0.5979303751986462,0.05924356309372314,nan
1740797612.4534845,0.14369295010757624,-0.06589669826219999,0.0833745378493547,0.0450830723015778,nan
1740797612.4573905,0.23230450182111162,-0.00862779836277249,-0.5138838995101834,0.11098037367676274,nan
1740797612.4612966,0.20075451314363243,0.15120772227791193,-0.8501663978253696,0.148847130329934,nan
1740797612.4652026,0.0560742001920404,0.2917378852029108,-0.7616011925506223,0.011356403580811638,nan
1740797612.4691086,-0.13715467116639396,0.20790512659024507,-0.32369706001076404,-0.2688131235241865,nan
1740797612.4730146,-0.2751709340336699,-0.11426068493708533,0.23283729487681715,-0.4514727004783767,nan
1740797612.4769206,-0.25423870785382335,-0.4033022490117528,0.6505494058734369,-0.3255042925104947,nan
1740797612.4808266,-0.05402265028096976,-0.36117758186515425,0.7568860371855258,0.04776481760178189,nan
1740797612.4847326,0.19586677028212207,-0.0042561736902575606,0.532203471305052,0.3712403388789317,nan
1740797612.4886386,0.2785331697777308,0.3245930604360514,0.10464592490177192,0.4005024249231026,nan
1740797612.4925447,0.08496567952245886,0.3154733406395463,-0.33054616732775083,0.1711107181438674,nan
1740797612.4964552,-0.23738589082120165,0.02173986647963714,-0.6065395097701222,-0.07031926661756342,nan
1740797612.5003612,-0.37714238153015095,-0.21506932309814344,-0.6271651802086113,-0.13165435085163396,nan
1740797612.5042672,-0.15272944404980807,-0.1520344672036317,-0.36861327772588476,-0.04109615157727845,nan
1740797612.5081732,0.2804524159554848,0.10266521404892236,0.09387513523678313,0.0369920579999709,nan
1740797612.5120792,0.5491721720110446,0.2414829965946245,0.5453639869866379,0.0009865288704289264,nan
1740797612.5159853,0.4121529854290707,0.10952257887261091,0.6926362230609533,-0.10199746920918379,nan
1740797612.5198913,-0.014512863479301316,-0.1501786057913432,0.37973019100026656,-0.16215608062193465,nan
1740797612.5237973,-0.38654418937565826,-0.28725704542477193,-0.2103308394323716,-0.12983239966081608,nan
1740797612.5277033,-0.4643278840480906,-0.21051425012092642,-0.6283021241799589,-0.03907425335733035,nan
1740797612.5316093,-0.2935076109087874,-0.030602307152732065,-0.5296226426531128,0.05601138866209411,nan
1740797612.5355153,-0.07646909261689079,0.11353812749158565,-0.010814126661303259,0.1289403539460747,nan
1740797612.5394213,0.0677157739933657,0.193383854445985,0.4583068880360099,0.16723928766217247,nan
1740797612.5433307,0.16828475829404724,0.24233675871592544,0.4770245113321698,0.14924922664084653,nan
1740797612.5472367,0.2636205274643666,0.23565795979183984,0.08594399536318748,0.063835392278166,nan
1740797612.5511427,0.2891672497818952,0.0940310352920368,-0.31325859305664905,-0.053570788885811245,nan
1740797612.5550487,0.16037689101554206,-0.18247313490682213,-0.3802885733766988,-0.13120673619653483,nan
1740797612.5589547,-0.06813436347699901,-0.43395674733392414,-0.13403286497798853,-0.12182018755640875,nan
1740797612.5628607,-0.20873417480486806,-0.4455848899634461,0.1548397213428018,-0.04827495121366466,nan
1740797612.5667667,-0.14285017921598112,-0.1494677032090474,0.2784579067343122,0.019090834430671264,nan
1740797612.5706728,0.023696127572206335,0.28291388595044287,0.23188278721523073,0.028886223371026122,nan
1740797612.5745788,0.06592421962025809,0.555533373397134,0.09187744499820542,-0.009961308391689069,nan
1740797612.5784848,-0.09540117402336862,0.4709253512286163,-0.10971445748061723,-0.045779056384655445,nan
1740797612.5823908,-0.28188029371258666,0.07907058943363729,-0.3254442026995832,-0.0335274977589686,nan
1740797612.5862968,-0.24558427893174048,-0.3551702868275694,-0.394400067116671,0.029146997763243934,nan
1740797612.590206,0.04866681351883596,-0.5376577109859225,-0.15679665246310542,0.09911895827750301,nan
1740797612.594112,0.36761314031410974,-0.35624278964118256,0.2903704966996261,0.11491310113352475,nan
1740797612.598018,0.4414300341042014,0.0337893297118336,0.5643246090223034,0.04341120137833195,nan
1740797612.601924,0.22308269321894586,0.3306143102933305,0.35569319168937297,-0.07829324922017254,nan
1740797612.60583,-0.09460055848998859,0.33590225470330537,-0.1820386305269744,-0.14948804377254968,nan
1740797612.609736,-0.286490344282503,0.11984687273118129,-0.5182600026886525,-0.08373619657893117,nan
1740797612.613642,-0.2811537510931137,-0.06730223679479196,-0.30022878177843465,0.09343191467306583,nan
1740797612.617548,-0.15577127882706376,-0.0625130283431974,0.22885974591997219,0.23199196700526237,nan
1740797612.621454,-0.011831121184547719,0.04515682257707307,0.4694324556185889,0.17744449154913242,nan
1740797612.62536,0.0985999815676675,0.042151257938987115,0.13513948294739678,-0.07032044335786933,nan
1740797612.629266,0.15107327179992314,-0.13153255707431133,-0.4109304911320705,-0.3249400599565621,nan
1740797612.633172,0.12415162197804955,-0.29024510241873486,-0.5593033987218097,-0.36758031776496014,nan
1740797612.637081,0.030778857206963935,-0.2246088735811121,-0.14003724787503075,-0.15054549173357906,nan
1740797612.640987,-0.05846573158091364,0.02659335985496684,0.4019832278322622,0.15584310965335516,nan
1740797612.644893,-0.07237351422937796,0.2063443892261375,0.530450451197336,0.32649283006181357,nan
1740797612.648799,-0.022464361014962915,0.1577415956815519,0.20599212280055482,0.28682482687102306,nan
1740797612.652705,0.007724680997614105,0.03185486976445543,-0.1416026554954035,0.14846477437696454,nan
1740797612.656611,-0.02582803337299515,0.09093135091655402,-0.17188978686347078,0.0529599106006502,nan
1740797612.660517,-0.05849940704760082,0.3259395306909288,-0.01090693708821261,0.012344806330598443,nan
1740797612.664423,0.0015264025697619297,0.39236626887080644,-0.006523051014562034,-0.0715766826162814,nan
1740797612.668329,0.13256499650874418,0.013985521190189384,-0.22179038325941772,-0.24309757974115728,nan
1740797612.672235,0.19179447798342783,-0.6022961678436728,-0.33967207970213914,-0.39076415244806806,nan
1740797612.676141,0.07756311300823414,-0.888804905351297,-0.09981354635455437,-0.3433748811900184,nan
1740797612.680047,-0.1303984315542854,-0.5151660883147705,0.31086272587367253,-0.06525404405172668,nan
1740797612.683956,-0.2412455002268491,0.20949327323893505,0.4419738360125422,0.27235575036966136,nan
1740797612.687862,-0.16547794462105508,0.636457721534348,0.13107321201856528,0.4356162602741747,nan
1740797612.691768,-0.011436627514577502,0.4773359921094846,-0.26908966005341806,0.3409258979909426,nan
1740797612.695674,0.05800295194622117,0.10001674117979441,-0.29322401146254146,0.11344670680374949,nan
1740797612.69958,0.02871840372575626,0.05934224857327052,0.07904852732002753,-0.060201121540367164,nan
1740797612.703486,0.035433728294539085,0.40240636505111765,0.38919829933008193,-0.11449135279940152,nan
1740797612.707392,0.15470821987047598,0.5777485251218195,0.2384963077266981,-0.12753918353766933,nan
1740797612.711298,0.2651953931093082,0.08471761721971428,-0.2402609819391049,-0.1805462414203568,nan
1740797612.715204,0.17864632251312892,-0.8746462634261631,-0.5316958523662328,-0.2352530574300833,nan
1740797612.7191098,-0.10409948412288399,-1.5024876976862953,-0.32105501235228107,-0.17863205397015575,nan
1740797612.7230158,-0.34259709285357975,-1.1759070712997368,0.1689929645191802,0.02043598422175883,nan
1740797612.7269218,-0.3067442077065927,-0.05249705478012409,0.4496277480006492,0.2351486741564939,nan
1740797612.7308307,-0.043096684729356134,1.0998549212578372,0.29669678856214904,0.2889712356797669,nan
1740797612.7347367,0.1698003276823935,1.5942420616050816,-0.060987446236050895,0.13791583622769243,nan
1740797612.7386427,0.13723282411973695,1.2941044794641614,-0.2501280175769325,-0.0758388406739001,nan
1740797612.7425487,-0.03799620473150474,0.5003396361514377,-0.1511495585874572,-0.1644907777242073,nan
1740797612.7464547,-0.09880959804092976,-0.4169710661511898,0.048430821088011146,-0.08022208755821816,nan
1740797612.7503607,0.04464976699692043,-1.168464209722435,0.12511947199436213,0.05312721904790754,nan
1740797612.7542667,0.20960527228293127,-1.466455078057901,0.05144398860089597,0.08934213895323943,nan
1740797612.7581728,0.1757937471679601,-1.0700026295011664,-0.04272810620476226,0.01715006067079542,nan
1740797612.7620788,-0.035462568999494785,-0.06695125046865204,-0.05573037559735235,-0.049258138882391285,nan
1740797612.7659848,-0.18540867061585856,0.9737430599494487,-0.001974683071083028,-0.024705907440429255,nan
1740797612.7698905,-0.11268972171076959,1.3418720066207848,0.0504945675091865,0.037329599855677284,nan
1740797612.7737966,0.06893906081144487,0.8051229539565049,0.05778267943784095,0.014170590818193746,nan
1740797612.7777054,0.11397289266837485,-0.1396509469105523,0.005204712998237744,-0.11887820815887501,nan
1740797612.7816114,-0.05002260027308001,-0.713576781304297,-0.10297723352786821,-0.22836217028784916,nan
1740797612.7855175,-0.23147583208213826,-0.572188233296084,-0.21127278464717528,-0.1561960355192205,nan
1740797612.7894232,-0.20487817828625166,-0.05091625680015254,-0.20422552675556405,0.09427319873140767,nan
1740797612.7933292,0.02277830443956761,0.2774242691704788,-0.004214908813212749,0.3332226321626015,nan
1740797612.7972353,0.22712464182474076,0.19916165873634847,0.299165603585826,0.3604978550810101,nan
1740797612.8011413,0.22957259738717878,-0.03388498815924528,0.4698152480438236,0.15833698578940542,nan
1740797612.8050473,0.08323597982268194,-0.11324698886872864,0.33396954084714153,-0.1028698703962891,nan
1740797612.8089533,-0.02613519012072485,-0.042883773351578655,-0.03163573333035463,-0.24137199283927027,nan
1740797612.8128593,-0.014516125079754517,-0.04286514986724624,-0.3586643099066554,-0.22394670108056278,nan
1740797612.8167653,0.02607433100745522,-0.1806261152624318,-0.4439620371812767,-0.14708337362888957,nan
1740797612.8206713,-0.01855136669255741,-0.24340935936629846,-0.3162635508237026,-0.09241641893370946,nan
1740797612.8245811,-0.12397110961586581,-0.02107271674135124,-0.13537675955311196,-0.042858499638370386,nan
1740797612.8284872,-0.1668294802034702,0.3717071968687125,0.02126619025055835,0.051774562853963875,nan
1740797612.8323932,-0.09594893330319951,0.5604182910799925,0.20056355192859815,0.16657302840199645,nan
1740797612.8362992,0.0017023185182547806,0.3112155749079385,0.40616932842018644,0.20586100370342938,nan
1740797612.8402052,0.024923563094417685,-0.19398751864801875,0.4834451875463736,0.12122605924712093,nan
1740797612.844111,-0.0016779748246030309,-0.5224983129468389,0.2649491860476771,-0.01142293566910157,nan
1740797612.848017,0.033978431087181266,-0.4105536569947746,-0.17495730596242923,-0.06664987931115227,nan
1740797612.851923,0.1616482819015493,0.00608203236911611,-0.5037403236278569,-0.01489975460783396,nan
1740797612.855829,0.2570282584998075,0.35250969229721024,-0.44260686316484854,0.0408462596046991,nan
1740797612.859735,0.17806050590690292,0.3566067531617465,-0.07630374682010663,-0.009307836963324425,nan
1740797612.863641,-0.05150307241564665,0.04109298415459167,0.21837962665971425,-0.1410648896558833,nan
1740797612.867547,-0.24446196809852525,-0.34499603735331175,0.17850869111093476,-0.21260597592512667,nan
1740797612.8714566,-0.24772843564177496,-0.5229837587506302,-0.05977287618446538,-0.12597006222534987,nan
1740797612.8753626,-0.10323947527535428,-0.34971757271707044,-0.13577004722723074,0.05559445328463427,nan
1740797612.8792686,0.01642117406609932,0.10512567112888849,0.0934098539410778,0.1735726388048044,nan
1740797612.8831747,0.013655508583544798,0.5801677525703299,0.3609672244438865,0.14605873966980354,nan
1740797612.8870807,-0.03588661324583513,0.7631314354633433,0.2906068682137541,0.045249687530682835,nan
1740797612.8909867,-0.0008223997637954501,0.5094061200364833,-0.14263359458461167,-0.0030141168739457017,nan
1740797612.8948927,0.12810952411354004,-0.026030111084392873,-0.528005814562844,0.030616043697496858,nan
1740797612.8987985,0.21932572159985994,-0.49758410138215187,-0.43734142581181096,0.0587607167535693,nan
1740797612.9027045,0.15794087220284703,-0.6526494302814057,0.09762758778807228,0.0017176109005971186,nan
1740797612.9066105,-0.01495518436132971,-0.5161380865778672,0.5785495642321258,-0.10362399418325502,nan
1740797612.9105165,-0.14467910070338272,-0.2878926335632829,0.5335573250058817,-0.14464986457971785,nan
1740797612.9144225,-0.13013980843857484,-0.08777045799864044,-0.0008984522118979082,-0.07060319325594243,nan
1740797612.9183319,-0.021611822530529668,0.13812212293367324,-0.5149501026928853,0.042588361380791306,nan
1740797612.9222379,0.04933469240937679,0.4433465912306617,-0.5403185923378385,0.07776371657769761,nan
1740797612.926144,0.012266540172138537,0.6868280924692951,-0.10993569568410137,0.00857529175032512,nan
1740797612.93005,-0.08452910493293184,0.6148099623451553,0.3068721725882574,-0.07583382705816814,nan
1740797612.933956,-0.14105018388984683,0.1673276149923026,0.31056996956778576,-0.07485052165720907,nan
1740797612.937862,-0.10258606312650105,-0.3653561453545833,-0.019623149359269242,0.01703114413696114,nan
1740797612.941768,0.009876394629057409,-0.5794744931086055,-0.23970198602257994,0.11670765014197115,nan
1740797612.945674,0.13518296410641703,-0.3657573383469824,-0.04595950638996001,0.14733209289895186,nan
1740797612.94958,0.2132820291052602,-0.02688424969499756,0.3761080171830023,0.1043258361367646,nan
1740797612.953486,0.20360639981915918,0.05321218953336364,0.5397984427882401,0.03123216441558667,nan
1740797612.957392,0.0992395171956684,-0.1683119374571971,0.1852592837798287,-0.040169014925369055,nan
1740797612.961298,-0.055803691173933044,-0.35322031990386343,-0.4225038356251445,-0.10416216561823688,nan
1740797612.965207,-0.17702347593512105,-0.16980186055533075,-0.753115104027954,-0.1488548901932851,nan
1740797612.969113,-0.1958033113931195,0.32688988195226254,-0.5478284828467223,-0.14358429473892614,nan
1740797612.9730191,-0.11839567489038942,0.7369829102335431,-0.04917907089095015,-0.07577433153516139,nan
1740797612.9769251,-0.020725291942303232,0.7146818990699337,0.31159087896409193,0.015399198550725617,nan
1740797612.9808311,0.02524487261568307,0.2834467713432959,0.38468049297759754,0.06859678139252116,nan
1740797612.9847372,0.017544414390263444,-0.23622350171186188,0.3737157746737863,0.06853686658440722,nan
1740797612.9886432,0.011175734731188054,-0.5469782429842605,0.4504604246931597,0.06501783743232445,nan
1740797612.9925492,0.04508332999645576,-0.5811464975271188,0.4371008366280523,0.10683298766125163,nan
1740797612.9964552,0.09629673981162154,-0.43761552344152993,0.02174222218120325,0.16534252659259585,nan
1740797613.0003612,0.11166811034549216,-0.215766855629771,-0.7115602710938346,0.14938403991643182,nan
1740797613.0042672,0.0729813088009394,0.03752780824364454,-1.1444783280583277,0.009911416841919839,nan
1740797613.0081732,0.015108921148977019,0.2687960036927266,-0.7034668847089138,-0.18247300747486758,nan
1740797613.0120823,-0.02037519347318135,0.39834221489226923,0.40909735389259455,-0.28663086901601936,nan
1740797613.0159883,-0.03408814154813433,0.3897749568184075,1.22957648284413,-0.22550775120325167,nan
1740797613.0198944,-0.05934343719590727,0.29080234781166037,0.9460134504480467,-0.06196324198031039,nan
1740797613.0238004,-0.10893730812784978,0.1595745771537444,-0.20250850453848274,0.06930461825189854,nan
1740797613.0277064,-0.14686189934575944,-0.020907512018627002,-1.0762110162294976,0.09958192201113228,nan
1740797613.0316122,-0.12209484909909889,-0.28627801685358045,-0.7843763605417114,0.08161995842006108,nan
1740797613.0355182,-0.026666311997778146,-0.5387188891136048,0.35876009992758695,0.10497381988441531,nan
1740797613.0394242,0.08818916932488267,-0.5364742993211794,1.1357949072855436,0.17350893339656476,nan
1740797613.0433302,0.15622663224325767,-0.1361874987180702,0.7065658168968943,0.1905568944384598,nan
1740797613.0472362,0.1536065130773895,0.44721661442281063,-0.5003367349477352,0.07330038007751544,nan
1740797613.0511422,0.11111902900992279,0.7230674488428603,-1.2478061624636365,-0.13295697160445716,nan
1740797613.0550482,0.07265866791643366,0.375481507696162,-0.7944112574246577,-0.2761371765356071,nan
1740797613.058957,0.046145896040405254,-0.35413724146796105,0.3663745484273427,-0.24165541393436768,nan
1740797613.062863,-0.0014163934535492849,-0.8120097437213072,1.0844595252796485,-0.06833360300532848,nan
1740797613.0667691,-0.09843937441145038,-0.5378901662793558,0.7579580158907376,0.08939068743260996,nan
1740797613.0706751,-0.21824881583566194,0.2625824320011018,-0.14005736051672857,0.11443855879778674,nan
1740797613.0745811,-0.2792661279156425,0.8878483595292129,-0.684314998343917,0.034017120078414294,nan
1740797613.0784872,-0.20775333200096172,0.8049977370379693,-0.48076969664393626,-0.028200331798556248,nan
1740797613.0823932,-0.012244048543630362,0.1357664260891637,0.05677419654578798,0.005546550088128252,nan
1740797613.0862992,0.20366217612334622,-0.5183615769869463,0.30517613310807257,0.08903828421386657,nan
1740797613.0902052,0.31401814824666835,-0.6904888573783955,0.1196254042691243,0.11840031405607543,nan
1740797613.0941112,0.2690226749234458,-0.4390613910397474,-0.13544789455432799,0.058011513050817566,nan
1740797613.0980172,0.12645235206238728,-0.14644549785576377,-0.1130875560952213,-0.022487652831352612,nan
1740797613.1019232,-0.013982188428537217,-0.029470758920508062,0.12235475519282633,-0.03988278308934111,nan
1740797613.1058319,-0.10222601541695778,0.0509232579273774,0.246774602811792,-0.003743651968066959,nan
1740797613.1097379,-0.1571760358282212,0.29747788450764706,0.09824892179289932,-0.005171856347927506,nan
1740797613.113644,-0.20128160912051485,0.6096433221357808,-0.1567307256410651,-0.09674990281166204,nan
1740797613.11755,-0.20203570235402413,0.6297008329929235,-0.2512271975197895,-0.207834504703056,nan
1740797613.121456,-0.10566977542217006,0.17476774555736144,-0.11421923200496238,-0.20543451310572716,nan
1740797613.125362,0.07089238143811184,-0.4639500446022387,0.09352232196361887,-0.04145135085975505,nan
1740797613.129268,0.2128648772808004,-0.7502782533243679,0.17711290942436675,0.18012490084101992,nan
1740797613.133174,0.20494415594403323,-0.448802296328331,0.08291248875717638,0.2969533729990631,nan
1740797613.13708,0.058153387512747096,0.11367888005689751,-0.09421221263872298,0.24177347127195892,nan
1740797613.140986,-0.08595645267375379,0.380830833707397,-0.20714675560106366,0.08907678571208563,nan
1740797613.144892,-0.09729532783568826,0.1478806671576465,-0.1509088319745526,-0.043459349798109746,nan
1740797613.148798,0.0061841354756553306,-0.23753145498782788,0.06917917436393473,-0.1112848765537828,nan
1740797613.1527066,0.08604495761980567,-0.27176587543836533,0.30904653438732754,-0.1450976358908989,nan
1740797613.1566124,0.047753256372020984,0.14482694536090485,0.3614145552518685,-0.16249214692341607,nan
1740797613.1605184,-0.05059850794171002,0.5904254693432949,0.13877481064343505,-0.1271081430358165,nan
1740797613.1644244,-0.07711241279648902,0.567015863706017,-0.20100566913984114,-0.018164221002974313,nan
1740797613.1683304,0.0010927188198886421,0.026734700270871846,-0.37263017307519525,0.09267739773011956,nan
1740797613.1722364,0.06574196256925131,-0.5719293474910254,-0.2552661635794402,0.09106577897981452,nan
1740797613.1761425,-0.00833543924364607,-0.7177078869003093,-0.032259950250071466,-0.03346497806705194,nan
1740797613.1800485,-0.17889489971156317,-0.32769674737455146,0.025090985887275933,-0.12979533635322815,nan
1740797613.1839545,-0.2506950573000727,0.21657526210926045,-0.09773713377524551,-0.02951961980031567,nan
1740797613.1878605,-0.08464290343696865,0.4667398584491541,-0.12173311078682346,0.239287884430902,nan
1740797613.1917665,0.22707569648426526,0.3088306924259002,0.16177381394334442,0.42498223161571846,nan
1740797613.1956725,0.4257271114768189,-0.004675772904915203,0.55782919971651,0.2878532145245218,nan
1740797613.1995823,0.33378869974006625,-0.1566839605918729,0.6212704440421235,-0.1306933729570828,nan
1740797613.2034883,0.025329421023334648,-0.06201088933247628,0.17410705334853585,-0.5067412302085199,nan
1740797613.2073944,-0.2551356769898383,0.10757929200657237,-0.42945596942430336,-0.5298494872398433,nan
1740797613.2113004,-0.3269721079762583,0.13392098249244405,-0.6560794192417526,-0.19904714802531193,nan
1740797613.2152064,-0.21299450996338665,-0.03612128912220802,-0.3828489864308002,0.18873477060939178,nan
1740797613.2191122,-0.063390011626765,-0.25771698254012354,-0.016056430410294812,0.3379844849760431,nan
1740797613.2230182,0.018084404830112963,-0.3257149535743725,0.021646678405879114,0.22052094604282246,nan
1740797613.2269242,0.04895679329993161,-0.14875004567185063,-0.1843965025906297,0.04365212366853634,nan
1740797613.2308302,0.09173496790048968,0.17177246991345935,-0.16246655536181046,-0.00714781748094159,nan
1740797613.2347362,0.1492168582402398,0.4094299694790924,0.3108634313345296,0.050114097103840516,nan
1740797613.2386422,0.1606403490328978,0.3822062978863265,0.8506214054933342,0.06750386357237415,nan
1740797613.2425482,0.08675196854672308,0.1019749651856912,0.8535989026436945,-0.028093369075667455,nan
1740797613.2464578,-0.03160918217907847,-0.2234549467692356,0.19659582165313252,-0.15043188608620423,nan
1740797613.2503638,-0.11026255295047092,-0.3576588642741538,-0.5915953825424453,-0.16935358272774878,nan
1740797613.2542698,-0.10424314127163122,-0.2362353657211896,-0.8909221603896398,-0.06663482147492436,nan
1740797613.2581758,-0.043249073221525644,-0.01117987115454286,-0.6146424063444789,0.05197995015658984,nan
1740797613.2620819,0.007189229538420657,0.11002717955430545,-0.18421431914747213,0.0825187261225732,nan
1740797613.2659879,0.006718239417901541,0.06755051292347544,0.03995847648255972,0.025123035873194668,nan
1740797613.2698936,-0.034074573706803404,-0.017174587024267596,0.1258583695891678,-0.04295504554587116,nan
1740797613.2737997,-0.07052832586240718,-0.00227912806787669,0.31567997177405593,-0.06245468534347145,nan
1740797613.2777057,-0.057742095655600637,0.11107306759148179,0.5660199499209313,-0.032574856594723714,nan
1740797613.2816117,0.017967233385188807,0.19579781372374333,0.5473794538089513,0.026546916992982235,nan
1740797613.2855177,0.1204037364415266,0.1563216974612403,0.11939519596507739,0.10689452300290733,nan
1740797613.2894237,0.17559065117472328,0.02441483403402158,-0.37732563089732857,0.1873743027569974,nan
1740797613.293333,0.12487587428531935,-0.10905667334403503,-0.4636078614347279,0.20352766895460606,nan
1740797613.297239,-0.013993012492929545,-0.20642249897455975,-0.10787658917989158,0.08855364962606947,nan
1740797613.301145,-0.14314105864028004,-0.27500408688755906,0.20409740099045073,-0.13822634211817184,nan
1740797613.305051,-0.16307235840160716,-0.2690726754384861,0.053425853901925224,-0.3457130895395205,nan
1740797613.308957,-0.06762803184360448,-0.09080691640756647,-0.3810167346523472,-0.3837893878541144,nan
1740797613.312863,0.04618959088485272,0.24866730904102094,-0.5238505386961791,-0.21228927771770592,nan
1740797613.3167691,0.07471806459502803,0.5160522842114229,-0.11152277040813056,0.06530556867542239,nan
1740797613.3206751,0.012517702883491036,0.420489808516859,0.46640686174864054,0.2921679806558738,nan
1740797613.3245811,-0.04966175749195281,-0.046053698391952676,0.6248573714602451,0.37193730312697887,nan
1740797613.3284872,-0.03244205570015915,-0.4932990495964811,0.27625209841737236,0.3017119742549583,nan
1740797613.3323932,0.041863911509206805,-0.4715488063532921,-0.10030281517514571,0.1294524899033724,nan
1740797613.3362992,0.08029037682010132,0.03360048308980698,-0.08818979645748236,-0.08409098760711682,nan
1740797613.3402083,0.03380984118395133,0.5155362487374975,0.14445767329723255,-0.26347583020939064,nan
1740797613.3441143,-0.041588854803101365,0.44364702543925877,0.09577167946983346,-0.3235705696408686,nan
1740797613.3480203,-0.05161358728591834,-0.15241003426370037,-0.3663310757532392,-0.2228000619288244,nan
1740797613.3519263,0.01999286078662549,-0.6704883641300655,-0.7574093424637399,-0.01949681702636003,nan
1740797613.3558323,0.08512753804372077,-0.5564155295487461,-0.5342394961875347,0.15196019330388788,nan
1740797613.3597383,0.05086034703587896,0.10065565625076617,0.21118000180099972,0.18803110530856512,nan
1740797613.3636444,-0.06764497265156913,0.6569345976162064,0.7870465222315358,0.1028873122267897,nan
1740797613.3675504,-0.1527487634819471,0.5939637386695912,0.6557665964577225,0.001305411913033828,nan
1740797613.3714564,-0.10772016119060566,0.0409288582491472,0.02344491219380312,-0.03203938372386728,nan
1740797613.3753624,0.03609993722534504,-0.41616605308042354,-0.41981682510702134,-0.004842335899258991,nan
1740797613.3792684,0.14615450648456474,-0.38259725094493197,-0.2813820279711349,0.019236467108365695,nan
1740797613.3831744,0.12209772757585274,-0.02053913013808746,0.14772159942208057,0.007008464193340505,nan
1740797613.3870833,-0.0045758627832240654,0.22666093652262842,0.3041185102781136,-0.014650897819795863,nan
1740797613.3909893,-0.10620403167453453,0.15694523657331105,0.016458724836721627,-0.010025023480112898,nan
1740797613.3948953,-0.08877944149426217,-0.04147595437448135,-0.35565677981299976,0.010596754848783887,nan
1740797613.3988013,0.01848254147883266,-0.11458928131849744,-0.3958125330790408,0.00403947472030832,nan
1740797613.4027073,0.10050619464668936,-0.06374170014214907,-0.09390035122425663,-0.04655449679731439,nan
1740797613.4066133,0.07625070621612076,-0.06105339755744135,0.2194099053703536,-0.10391755502916496,nan
1740797613.4105194,-0.022144308538648544,-0.1336532891926064,0.2906828521782802,-0.11146652593695308,nan
1740797613.4144254,-0.0875466744699208,-0.09464084350670933,0.16616579360124967,-0.04530361859075717,nan
1740797613.4183314,-0.05101367675945488,0.16230653400974926,0.020565366764188416,0.07023515117008641,nan
1740797613.4222374,0.045136375844956333,0.4196235429094874,-0.08149755062268611,0.18209074026228902,nan
1740797613.4261434,0.0882640322540402,0.33437381099146546,-0.16190963796564534,0.2300122227847133,nan
1740797613.4300494,0.011538280071657837,-0.11279095517389999,-0.16136686145061216,0.16485150986104866,nan
1740797613.4339583,-0.12896318940498588,-0.49719280583070447,0.03242690587314651,-0.01649737211397795,nan
1740797613.4378643,-0.19574201472104463,-0.3859645441949449,0.34482639569793866,-0.23377667394821403,nan
1740797613.4417703,-0.09649977912519145,0.1399377503715266,0.44115033757982314,-0.34356799831328155,nan
1740797613.4456763,0.12135079436011141,0.5171582644451111,0.05522664017062402,-0.24265861456857557,nan
1740797613.4495823,0.2986620312191911,0.3048295270004768,-0.6034036263707699,0.023548762639107105,nan
1740797613.4534883,0.2927278943576016,-0.3081541672685833,-0.9146880308249088,0.2698494350602136,nan
1740797613.4573941,0.09300317407654596,-0.6849061884545297,-0.4475218177260073,0.31856398189951196,nan
1740797613.4613001,-0.17223827057860389,-0.4209149031609631,0.5165725532155457,0.15372475672416908,nan
1740797613.4652061,-0.33469448043456546,0.23617048352697753,1.1597813591969532,-0.07308637899737253,nan
1740797613.4691122,-0.3022566819483959,0.6769866629504908,0.8932836948488677,-0.1900206221715186,nan
1740797613.4730182,-0.10766034632069184,0.5709827033625813,-0.0649782403091707,-0.15056906589028557,nan
1740797613.4769242,0.12724083739036401,0.1384873062025089,-0.8996690272302037,-0.03760847684337474,nan
1740797613.480833,0.27003656333605847,-0.18745114706041158,-0.9662167658379124,0.047863191477390155,nan
1740797613.484739,0.24942464457555558,-0.24773814873121922,-0.33369675264405213,0.07208214533705853,nan
1740797613.488645,0.0903440256415785,-0.22854593506102622,0.38576137402445276,0.05154792325837112,nan
1740797613.492551,-0.10126957299885223,-0.3116727761357504,0.6521771790140146,-0.0005343213440538524,nan
1740797613.496457,-0.20294956742777467,-0.39626225151852246,0.41227569331093833,-0.0710666015131722,nan
1740797613.5003629,-0.15740136191295426,-0.23890751900006368,-0.004665788394033805,-0.10639572004075286,nan
1740797613.504269,-0.012249868182769746,0.19186736351171632,-0.2665410925249927,-0.033863489979299284,nan
1740797613.508175,0.12063723231579086,0.6060703314288552,-0.27502054037867596,0.1376282840895578,nan
1740797613.512081,0.15526847933000598,0.665269412004984,-0.12268366566217416,0.26437128893103434,nan
1740797613.515987,0.08999153966410846,0.31541697105175676,0.055426374189080446,0.17793309189521528,nan
1740797613.519893,-0.014304516290484048,-0.18262753460787204,0.15719012548204567,-0.118812681959502,nan
1740797613.523799,-0.09937352005856566,-0.5104375036966964,0.1238923982159788,-0.39445141536841766,nan
1740797613.5277076,-0.14244157806895916,-0.5278555460984604,-0.030831052325655202,-0.382071446066907,nan
1740797613.5316136,-0.13552139249152054,-0.28865129130850736,-0.19112809879355624,-0.05261194952038898,nan
1740797613.5355196,-0.06518681015181527,0.06660371178730527,-0.19853726326246293,0.3261515422863435,nan
1740797613.5394256,0.06081876020902653,0.36770812410495757,0.003297473995576901,0.4335333764424308,nan
1740797613.5433316,0.1769531368390313,0.4336163810217335,0.2804794166025554,0.2033102262080201,nan
1740797613.5472376,0.18967241904844032,0.17500267397897337,0.396166435589994,-0.12462577156978966,nan
1740797613.5511436,0.0728434863279375,-0.2559446322119696,0.2138100310933206,-0.25783459532144704,nan
1740797613.5550497,-0.07824887443175925,-0.4928484733112498,-0.17111077835789154,-0.13624560499315003,nan
1740797613.5589557,-0.12438844764071257,-0.2607461263022776,-0.49244716595370885,0.04533713129738786,nan
1740797613.5628617,-0.03119696714587542,0.29814255231656106,-0.5120323370489422,0.07540384024502085,nan
1740797613.5667677,0.07950141979326525,0.67196081148439,-0.19432148048209114,-0.05059352126036278,nan
1740797613.5706737,0.05618075187954562,0.44723793656396155,0.2651564245112603,-0.1535732889783088,nan
1740797613.574582,-0.1043980364273925,-0.24515400925513786,0.567844957310691,-0.0877459785632724,nan
1740797613.578488,-0.2344371533265376,-0.7981428752519523,0.5126743361939714,0.10054037026065105,nan
1740797613.5823941,-0.17079363936515127,-0.6918419899256464,0.14004594852608906,0.23225019012642042,nan
1740797613.5863001,0.05957098952332433,0.001367108860527502,-0.29023455191099984,0.1856730786155044,nan
1740797613.5902061,0.25676001480592187,0.6827055275901609,-0.49127600259468535,0.0077478172365446915,nan
