timestamps,TP9,AF7,AF8,TP10,Right AUX
1740797255.4517162,0.0254499009128589,-0.5676765104166523,0.005069111774929966,-0.03810313580785273,nan
1740797255.455622,0.006068126283998994,-0.6859198304361533,-0.05209517440046898,0.030027690331091306,nan
1740797255.459528,0.06648864258230398,-0.258867171013917,-0.10573692551375286,0.025876212070172478,nan
1740797255.463434,0.13336178872238108,0.4071091795934604,-0.18009069515989226,-0.05457866311302302,nan
1740797255.4673398,0.118674513782555,0.7391255631840632,-0.19229832098338168,-0.09497706708410564,nan
1740797255.4712458,0.015815816690928155,0.4831764036341035,-0.04713941068843681,-0.007849712421183172,nan
1740797255.4751518,-0.09716937846992593,-0.04246953978978237,0.18787513058216804,0.14860213208157216,nan
1740797255.4790578,-0.1346107689088316,-0.3151640709151428,0.2847998402855339,0.22474911789155472,nan
1740797255.4829636,-0.07769913317818292,-0.17734041661056713,0.09687354707551378,0.13539098536446048,nan
1740797255.4868696,0.015674252738446186,0.04504434616807952,-0.23038218555633486,-0.058059254485265686,nan
1740797255.4907756,0.06217342697318388,-0.006348124668689844,-0.3693792129377618,-0.21334852271168206,nan
1740797255.4946814,0.01897170337704562,-0.26080732682683117,-0.16186268488355343,-0.23379372293606263,nan
1740797255.4985898,-0.08170871998410313,-0.31409986017919217,0.18985331485667756,-0.13051810905438563,nan
1740797255.5024955,-0.1514253810350279,0.03422185632103233,0.33710378973741967,0.011323161708307564,nan
1740797255.5064015,-0.10904494546460992,0.46973143435802006,0.1711409146788856,0.10498781732566055,nan
1740797255.5103076,0.05017274547396247,0.48909138558177007,-0.07073549735611775,0.11374071561797611,nan
1740797255.5142136,0.2336883900660429,0.0010057530417717227,-0.10291003311641278,0.06367458795005682,nan
1740797255.5181193,0.30810069510515553,-0.5170479203803127,0.06917222935317921,0.019540796566808086,nan
1740797255.5220253,0.2011844375296069,-0.5211096074184032,0.1756465869232714,0.03107519338173787,nan
1740797255.5259314,-0.03145977175979657,-0.0006161767011838493,0.029604202005778048,0.08316934864072188,nan
1740797255.5298371,-0.23951810560724346,0.5094042827389184,-0.23958389789035278,0.10262862963427549,nan
1740797255.5337431,-0.29312829988990763,0.5118999192591286,-0.3478812862078963,0.03178507825713166,nan
1740797255.5376492,-0.18452172128424915,0.05936106279786767,-0.19877927348765506,-0.1011061650077809,nan
1740797255.5415552,-0.024901881218910116,-0.36207933034531237,0.021555723651123977,-0.19918104961801,nan
1740797255.545463,0.062262739781015215,-0.3919217867066577,0.09838190392106494,-0.1923641810568293,nan
1740797255.549369,0.05204013814344437,-0.1350436247478209,0.05394118513800992,-0.10315942068539034,nan
1740797255.5532749,0.026319020288106475,0.062363184407887844,0.08757239341331764,-0.005685626055680669,nan
1740797255.557181,0.07179899300142303,0.059849291867300786,0.2794453544934562,0.06543050397096904,nan
1740797255.561087,0.17281851621899796,0.03390413345324801,0.4473150956391847,0.1345118636367205,nan
1740797255.564993,0.21545093772733595,0.1631907834407385,0.34542589208004004,0.20945354678104794,nan
1740797255.5688987,0.10780887978970478,0.335042666094561,-0.03851167067129192,0.22631920576321962,nan
1740797255.5728047,-0.10550541645442284,0.2666809425574448,-0.4484606627503064,0.1130823091074672,nan
1740797255.5767107,-0.2632958733286865,-0.11044128052044003,-0.6169354627900429,-0.09379797828843513,nan
1740797255.5806165,-0.23649984950849734,-0.4958397029053191,-0.499461823873026,-0.24331836183326633,nan
1740797255.5845225,-0.0586059150060206,-0.510588425178695,-0.23771007974333197,-0.2160722471966471,nan
1740797255.5884285,0.10273466063101327,-0.10951096308341644,0.04176787833732715,-0.061306847879369915,nan
1740797255.5923378,0.11198633206300711,0.35520244275970414,0.31239319575024593,0.05160312274908714,nan
1740797255.5962439,-0.0009117112347657564,0.48610741632143406,0.5432616823668304,0.025682985234597815,nan
1740797255.6001499,-0.08189719876825852,0.21828494280701907,0.6118444765630255,-0.0557936270585878,nan
1740797255.6040556,-0.02455610034599325,-0.16088493510043314,0.4061760801356584,-0.04213541681975223,nan
1740797255.6079617,0.11465623178083849,-0.32079412343496955,-0.0002643576835047468,0.08809080532514516,nan
1740797255.6118677,0.18272005952994091,-0.17679488189743192,-0.3554452493625546,0.1939653574566433,nan
1740797255.6157734,0.10110334139014761,0.09642065663752382,-0.45590436585274324,0.14780087793753358,nan
1740797255.6196795,-0.05075946942536152,0.2631415685369114,-0.33998965767136435,-0.0019319179033718931,nan
1740797255.6235855,-0.12960640867572149,0.20873939906019623,-0.21370492710350378,-0.09002769955163016,nan
1740797255.6274915,-0.08725918913927948,-0.018109662576607493,-0.19602417529760288,-0.04312264601001467,nan
1740797255.6313972,-0.011612395009139936,-0.26395734762022754,-0.18870918919615506,0.030359911221189098,nan
1740797255.6353033,-0.009020583081411444,-0.3596929761232229,-0.01973064498805735,-0.012104888470627757,nan
1740797255.6392124,-0.07288821073909531,-0.2187015704253487,0.32019833487355176,-0.15008504017277222,nan
1740797255.6431184,-0.09496833429663788,0.08693160131453195,0.6265597850086709,-0.21180884596400518,nan
1740797255.6470244,-0.0034473663328093923,0.3505302313011911,0.6626173048392408,-0.08816695193393836,nan
1740797255.6509304,0.1385257545587947,0.38421565353699627,0.36467160372543617,0.12028045912576303,nan
1740797255.6548362,0.1924467598879379,0.18361253938972674,-0.12335348878149169,0.213832425580409,nan
1740797255.6587422,0.09524382707300352,-0.07063966627544753,-0.5657560573619851,0.12729700023486137,nan
1740797255.6626482,-0.0695782587310325,-0.19398961720268568,-0.7591828586732816,-0.00408333384819315,nan
1740797255.666554,-0.15711059611314526,-0.17019514735392666,-0.6022018394587415,-0.024026136518701693,nan
1740797255.67046,-0.10421880570988798,-0.123893244445253,-0.1471995742525714,0.05227928391829745,nan
1740797255.674366,0.021616130475175646,-0.13841101466966682,0.3732831087302286,0.07471002991304736,nan
1740797255.678272,0.10446671580269061,-0.15052593704103073,0.6394341832279961,-0.03267030836898283,nan
1740797255.6821778,0.09052224252487032,-0.05144460967014746,0.47348787175639356,-0.1657079100181464,nan
1740797255.686087,0.015581486190531053,0.14425618126055245,0.02263758179369497,-0.17269508111439966,nan
1740797255.6899927,-0.053623721014871055,0.28879269612671643,-0.33035869758387243,-0.048414051195693905,nan
1740797255.6938987,-0.08208524019641618,0.2687555619301538,-0.3031571824411324,0.06333510812695793,nan
1740797255.6978047,-0.07479039089824756,0.13288074028800048,0.02270907902153794,0.057104725677177275,nan
1740797255.7017107,-0.04892741525480881,0.013351976600815538,0.2944037619679301,-0.006121917037878989,nan
1740797255.7056165,-0.015880702563289408,-0.050428015162677496,0.2484908811032824,0.004139763696209235,nan
1740797255.7095225,0.017321250468606164,-0.14200115349092063,-0.042165760981354376,0.10061481079513072,nan
1740797255.7134285,0.04759631737628635,-0.3043774320778528,-0.28523312336649603,0.15415168240678648,nan
1740797255.7173343,0.07992729094043734,-0.4106949872965867,-0.29124466793736664,0.06720986708187451,nan
1740797255.7212403,0.11688540864052539,-0.27603157147914503,-0.13504517667884225,-0.08614779317281285,nan
1740797255.7251463,0.13536971754716456,0.09729955629500307,-0.00909725794360844,-0.1439893630651758,nan
1740797255.7290523,0.08885377899271053,0.45440710703602705,0.016824646345848477,-0.059247874309217664,nan
1740797255.732961,-0.042832658523889025,0.5224992654067826,0.040992548639081756,0.04292192706499495,nan
1740797255.736867,-0.20182782857852297,0.291645644294201,0.15920897958386268,0.029343381840202874,nan
1740797255.740773,-0.27366816234366476,0.007346429657790178,0.3135031494691318,-0.06932050134236858,nan
1740797255.744679,-0.1869139321108561,-0.12096869243164926,0.3419584825172042,-0.1032998776032123,nan
1740797255.7485847,0.005182808146227319,-0.14186933821843548,0.15549584816677092,-0.005377994187061697,nan
1740797255.7524908,0.15997823001651595,-0.2428780416038866,-0.16318778750036653,0.11596820083528538,nan
1740797255.7563968,0.17643607733610725,-0.4455650920890767,-0.42447457894086404,0.11501316896779702,nan
1740797255.7603025,0.08797509818481146,-0.513277161959966,-0.4693128228689679,-0.0016537754925294026,nan
1740797255.7642086,0.016423063174131336,-0.21632105670166277,-0.26159376491469893,-0.08192095407356,nan
1740797255.7681146,0.03712095523126998,0.3494491042297165,0.09256610907507318,-0.0228286544396366,nan
1740797255.7720206,0.10262162313053132,0.7847216671055145,0.3840183594480872,0.09837426347713218,nan
1740797255.7759264,0.10381950102891985,0.754094373952382,0.4103948640493652,0.12301728010156047,nan
1740797255.779835,-0.006115107762034279,0.30048608635130314,0.13756177634131386,0.00861778509774519,nan
1740797255.783741,-0.16127013753504074,-0.2265842243916567,-0.21853547270164103,-0.12592425411326746,nan
1740797255.787647,-0.2502328150270602,-0.5184915636472894,-0.3348330045928421,-0.15309443003280873,nan
1740797255.7915528,-0.21719518262893409,-0.5353364752515939,-0.0860844374683178,-0.08056547850694924,nan
1740797255.7954588,-0.09421381708431276,-0.4111548215550081,0.28847333043463624,-0.009017639740746076,nan
1740797255.7993648,0.04591886347192262,-0.231148132959239,0.38914768599505756,0.01561058222781148,nan
1740797255.8032706,0.14741662353434198,0.018170209410979812,0.07266846551643165,0.04358001550006489,nan
1740797255.8071766,0.18847327934998692,0.3067232644500127,-0.3645275135162068,0.10997845157401964,nan
1740797255.8110826,0.17116859888659677,0.4800711684829944,-0.4777528803501715,0.14791892662373504,nan
1740797255.8149886,0.11618795402621061,0.3981823338953039,-0.1524192114785163,0.07024924590952858,nan
1740797255.8188944,0.05779341828202238,0.12763767474870283,0.2642663956154141,-0.08420483406084127,nan
1740797255.8228004,0.018249485475447098,-0.08820926084245667,0.3445373860205515,-0.15811910693795686,nan
1740797255.8267088,-0.020543696262616082,-0.08851701193012836,0.05271458801704591,-0.060255585624201996,nan
1740797255.8306148,-0.10041945400439599,0.017720309109643385,-0.23014378267820249,0.10230295160276884,nan
1740797255.8345206,-0.2222122701354484,-0.0196995875213632,-0.15684612729244837,0.1332869402013111,nan
1740797255.8384266,-0.30608594175694215,-0.2786112507346201,0.18407446583579817,-0.017722345798921454,nan
1740797255.8423326,-0.24688976248347733,-0.5338745688133857,0.3786765906909464,-0.1857713046986657,nan
1740797255.8462386,-0.028257291321393672,-0.478036313719287,0.1725241687240974,-0.181947364931408,nan
1740797255.8501444,0.22961149065776126,-0.05624745184381875,-0.23728745148824673,-0.013192346065249572,nan
1740797255.8540504,0.360511474480521,0.45371447027236617,-0.4305567214307618,0.13892912991520612,nan
1740797255.8579564,0.30011201503650614,0.6967638106947617,-0.23205995368195603,0.14371979775493343,nan
1740797255.8618622,0.13505612949826948,0.5497600067866519,0.11789076000291145,0.05994589654929676,nan
1740797255.8657682,0.0005424741087892927,0.17804885102865325,0.2571934665006931,0.02242082316884191,nan
1740797255.8696742,-0.0567484299028017,-0.16444182261000762,0.09658371988612671,0.04724118289289516,nan
1740797255.8735824,-0.09761897981711964,-0.34161641383104324,-0.12358743104604676,0.02564419890296134,nan
1740797255.8774884,-0.18116872410353535,-0.36188278856885936,-0.13420346899928076,-0.09088555264534984,nan
1740797255.8813944,-0.2685931793719328,-0.28227708672780794,0.07271215781884234,-0.1833076633146006,nan
1740797255.8853002,-0.2596295004016678,-0.15070456033015897,0.266736191305796,-0.10681975653832898,nan
1740797255.8892062,-0.11584096617405884,-0.023509340209298006,0.23873000075362769,0.09325904482273256,nan
1740797255.8931122,0.0816534614680835,0.03741093558750988,-0.003136525772232016,0.19428145168358088,nan
1740797255.897018,0.21162810880685473,0.031779614057863316,-0.26925114768712677,0.05743554429433241,nan
1740797255.900924,0.23416862753434678,0.053467926176207124,-0.363929474931474,-0.18070196669732735,nan
1740797255.90483,0.20999631914135375,0.19201440607922854,-0.22205184137414535,-0.2447885780133984,nan
1740797255.908736,0.20005737066822762,0.3861191850266414,0.06595181174774965,-0.03993331023512975,nan
1740797255.9126418,0.1739075611613737,0.4275129493438318,0.3124207910883338,0.23147055378026374,nan
1740797255.9165478,0.045014657781811115,0.1700711157202249,0.34161208005225435,0.30012993004215993,nan
1740797255.920456,-0.20220458506679903,-0.264767960639249,0.11808726052457401,0.12774169203578364,nan
1740797255.9243617,-0.44325868002192315,-0.5460990732952119,-0.19334489265434116,-0.08154707286196952,nan
1740797255.9282677,-0.4951959201497214,-0.4440096655534645,-0.3322606549627696,-0.14515378952470245,nan
1740797255.9321737,-0.2793083871415012,-0.07667104124600331,-0.1693284627581895,-0.09643176087438149,nan
1740797255.9360795,0.09377932726072397,0.1918160302946704,0.15333806747514267,-0.08103821156489939,nan
1740797255.9399855,0.4007458891623433,0.12235029829250074,0.3380090970872741,-0.12605654321156712,nan
1740797255.9438915,0.47457014779939954,-0.14616376297001094,0.2136512885795036,-0.10650881972353479,nan
1740797255.9477975,0.3178731389290765,-0.241205426010849,-0.10206747908266797,0.05052721605207073,nan
1740797255.9517033,0.072960639737804,0.042202188642482166,-0.33029503707151026,0.2176931875308455,nan
1740797255.9556093,-0.109534977432446,0.503349432061528,-0.3024278430262271,0.20054330839324655,nan
1740797255.9595153,-0.18158212141977953,0.713995192692692,-0.0855877015769801,-0.005193030586851902,nan
1740797255.963421,-0.19719811493848866,0.4333098436950058,0.13743920364228895,-0.17567970817680756,nan
1740797255.9673307,-0.2164472051830118,-0.15835135008007933,0.25425966318364085,-0.11425700658763717,nan
1740797255.9712365,-0.21944926566360573,-0.6287232426176573,0.2653967068208666,0.1083506999332343,nan
1740797255.9751425,-0.12625244324825768,-0.6804721225512509,0.1948145446973514,0.23166186037286873,nan
1740797255.9790485,0.0903293779512271,-0.3765800580663987,0.039214889739524646,0.10925661346877281,nan
1740797255.9829543,0.32173331993654136,-0.019000837140065254,-0.17337912005284292,-0.13215057198003183,nan
1740797255.9868603,0.38389737671642243,0.15546127334407703,-0.333923153015978,-0.25904806826076565,nan
1740797255.9907663,0.1902434940989526,0.1532495094179506,-0.3255181763138867,-0.19647831715359498,nan
1740797255.9946723,-0.13358342430367012,0.13865618997516116,-0.1456306810816344,-0.06577205985545521,nan
1740797255.998578,-0.33482350511502385,0.22049971804509463,0.08672169513116872,0.014412247161232803,nan
1740797256.002484,-0.26087177940209355,0.3408748320814121,0.25290518466065276,0.0709759920589363,nan
1740797256.00639,-0.004928162519314437,0.35309443527560513,0.3214120129686206,0.17796236739182433,nan
1740797256.0102959,0.18819811526003172,0.17884100386219492,0.2953428573862461,0.2835983520437092,nan
1740797256.0142052,0.1647587783223348,-0.11663208947477048,0.13750227790568612,0.23635243248661603,nan
1740797256.0181112,-0.0012986241570127443,-0.3814053275780047,-0.16365484679574785,-0.0024829385206061004,nan
1740797256.0220172,-0.11587759115450913,-0.48796885016032815,-0.4558432652050185,-0.2548942002045727,nan
1740797256.025923,-0.08237125848249448,-0.40052024275791787,-0.4651699279348635,-0.30365552434236665,nan
1740797256.029829,0.019276509285846063,-0.1723703426031562,-0.08336666076374653,-0.14440796337532893,nan
1740797256.033735,0.06348167062600735,0.09203216401384774,0.41127626284899593,0.016987227920995045,nan
1740797256.037641,0.03776451979977909,0.2807741907462065,0.5472395428107572,0.029537565434688207,nan
1740797256.0415468,0.028035106083528636,0.32209293897615116,0.15363674184151915,-0.019546829771776537,nan
1740797256.0454528,0.06542178618578771,0.2267860662993284,-0.3943539877745316,0.04917430453436812,nan
1740797256.0493588,0.058036385885783665,0.08759204760108905,-0.530314704570914,0.22373261631495975,nan
1740797256.0532646,-0.07865845809673154,0.011289301741971578,-0.11228008943286884,0.2741651372173748,nan
1740797256.0571706,-0.25639046895178996,0.02721412951961098,0.4050476446129401,0.05183001230258594,nan
1740797256.0610797,-0.2583263254962338,0.061674107464046245,0.47449626142887696,-0.26537361191907544,nan
1740797256.0649855,0.010632526310204785,0.016428164997061317,0.06982424207520616,-0.33348240132970935,nan
1740797256.0688915,0.35684058457381956,-0.12205061506498101,-0.3127791315677047,-0.05294844140826278,nan
1740797256.0727975,0.4512957197214716,-0.26058401268930703,-0.2626047412928623,0.276167946501234,nan
1740797256.0767033,0.1733633538494565,-0.2933403523599772,0.07032198568497486,0.2791491077673988,nan
1740797256.0806093,-0.2375695825482479,-0.2081318637147078,0.20795205050767662,-0.054236681758213,nan
1740797256.0845153,-0.41564357798376494,-0.08296874109494427,-0.025422682664331543,-0.3464422373672513,nan
1740797256.0884213,-0.24394957220412566,0.019658677037144592,-0.2851759236478065,-0.2659526022076542,nan
1740797256.092327,0.04468218347595131,0.12499131780771558,-0.1804649652619279,0.09315145342148644,nan
1740797256.0962331,0.14950755503747604,0.28472560159192856,0.18071604441092703,0.33296179771853723,nan
1740797256.1001391,0.03578029158540644,0.45310301168828043,0.3091390751597298,0.21805178141562365,nan
1740797256.104045,-0.06270621214407726,0.4711261726145857,-0.004909219600913482,-0.07380345686281395,nan
1740797256.1079538,0.040565913880468936,0.21848738011337268,-0.3494471314634444,-0.19618421004144593,nan
1740797256.1118598,0.23956237883177656,-0.21722077895751565,-0.17367503210150112,-0.05165426764263519,nan
1740797256.1157658,0.25961496019065977,-0.560896535926363,0.45686542946551045,0.12366812275054205,nan
1740797256.1196716,0.002904287997789129,-0.5775330965675164,0.810768496718028,0.08169701362445336,nan
1740797256.1235776,-0.3018856182836643,-0.2885218848524527,0.3117796881249486,-0.12789783718010478,nan
1740797256.1274836,-0.336442251319192,0.050672021258829504,-0.7054930729863603,-0.23202183817447525,nan
1740797256.1313896,-0.05253885191400407,0.19419415553060937,-1.2516323020984335,-0.07638388419892703,nan
1740797256.1352954,0.25811851466054275,0.12175248142243372,-0.7334560908792657,0.19032855081884684,nan
1740797256.1392014,0.2701409188433836,0.015884243201352892,0.38146162370597286,0.29346576029867816,nan
1740797256.1431074,-0.028640150634539473,0.04905476177435272,1.056047453224147,0.1356191981425167,nan
1740797256.1470132,-0.3251398108306122,0.2158762252770296,0.7760882516904778,-0.12287340209895345,nan
1740797256.1509192,-0.3080255016358708,0.36501652625836956,0.01680887559078078,-0.25604447258227997,nan
1740797256.154828,0.019440030559395333,0.3569906550210779,-0.3863111598524088,-0.18555429213452512,nan
1740797256.1587338,0.35650568778670794,0.1682810396196085,-0.17333415496288215,-0.0036858364987925963,nan
1740797256.1626399,0.40853250873408503,-0.12861229042672526,0.16552624131659574,0.14861422294647045,nan
1740797256.1665459,0.15537189944356666,-0.42795581191263327,0.08188168612779219,0.1824458998709676,nan
1740797256.1704516,-0.16398429168865497,-0.6134617717609199,-0.3638870832047475,0.08396642830760272,nan
1740797256.1743577,-0.2964883896411901,-0.571640998988206,-0.6256593882041355,-0.08271829519217228,nan
1740797256.1782637,-0.19267380084411065,-0.2632627824069993,-0.35251367168587155,-0.182723800718967,nan
1740797256.1821697,-0.008751602039227844,0.18899272680958598,0.22123046872579524,-0.09423555269459626,nan
1740797256.1860754,0.0704226020254295,0.5313514513060783,0.5845995704255207,0.14747093096753697,nan
1740797256.1899815,0.002369764743469505,0.5672627590207515,0.509152396410863,0.3147621200736831,nan
1740797256.1938875,-0.09596801385961996,0.3384233303505431,0.1975269356244017,0.1817705675766589,nan
1740797256.1977932,-0.0801208857711728,0.08693702742519237,-0.05143029909494934,-0.20684093228156195,nan
1740797256.2017019,0.0724525282253808,0.0056617789714628,-0.1650372824322731,-0.5116435879287468,nan
1740797256.205608,0.23333055572506145,0.03872703507345384,-0.2410546685924425,-0.41335663589348626,nan
1740797256.2095137,0.24312971136590045,-0.03310948737200401,-0.29900221950632544,0.042866615967866714,nan
1740797256.2134197,0.07145052171808627,-0.30370335848850105,-0.2324953882611231,0.4677306861387586,nan
1740797256.2173257,-0.13980513693305277,-0.581524453253169,-0.006548000160944187,0.5152699325995665,nan
1740797256.2212315,-0.2054864059282907,-0.5649701377735226,0.22247224836771828,0.21465226787623956,nan
1740797256.2251375,-0.08244619283773619,-0.177627845767611,0.26367747345757403,-0.11406791253181658,nan
1740797256.2290435,0.07844736964825627,0.3126501035692773,0.11857337209380849,-0.2319054071056532,nan
1740797256.2329495,0.08197454148332192,0.5399511415522247,-0.0335836223407668,-0.19104391532152692,nan
1740797256.2368553,-0.10181374372558542,0.39386444824256756,-0.06831269090007105,-0.16816179699496406,nan
1740797256.2407613,-0.28743134966815664,0.10103042827149686,-0.046191668232201215,-0.18663605708852438,nan
1740797256.2446673,-0.2487927970702566,-0.04005888437841289,-0.07590800312511016,-0.10651898238048717,nan
1740797256.2485754,0.04956049940523361,0.03420123336226072,-0.12572465252337614,0.12297270297872513,nan
1740797256.2524815,0.3981278680850255,0.13330823150564988,-0.06602442480078406,0.31893250818711627,nan
1740797256.2563872,0.5213746684854531,0.06699777053565249,0.11503121244139256,0.2585197547747896,nan
1740797256.2602932,0.31585123872956633,-0.1407648762909449,0.24453854912761366,-0.02194528840021993,nan
1740797256.2641993,-0.07246707774567901,-0.3101936765014002,0.17077342064990977,-0.22571922223789032,nan
1740797256.2681053,-0.3829906931441859,-0.3286545027242216,-0.028599169539827028,-0.13088995256127825,nan
1740797256.272011,-0.4457804098524202,-0.25077532573169103,-0.13779141228620095,0.1386563269978946,nan
1740797256.275917,-0.2823712225633458,-0.17156091606660723,-0.09061200349187157,0.2493372158345574,nan
1740797256.279823,-0.048333269090793364,-0.06818745878621386,-0.058073179520138,0.04744411416909263,nan
1740797256.2837288,0.10523670416908948,0.1580160922550044,-0.18804330093086938,-0.26357020751354365,nan
1740797256.2876348,0.13751976776403124,0.4805043930095481,-0.337555838907737,-0.3612788511950563,nan
1740797256.2915409,0.12296109082301766,0.6641561106965771,-0.19833852867813004,-0.15999347094163927,nan
1740797256.2954488,0.15918395485597703,0.4643573151286526,0.2844493269310788,0.13006454459008965,nan
1740797256.2993548,0.2503050518165241,-0.07476578440829555,0.7303494956070093,0.26749521000925297,nan
1740797256.3032608,0.2749910980961638,-0.5744384552980887,0.6735680647558694,0.21781239413107928,nan
1740797256.3071666,0.0988450001401939,-0.638476811987585,0.08519048047220074,0.10569665281187761,nan
1740797256.3110726,-0.2506607032751396,-0.2392081608295149,-0.5482950047313332,0.014125679211827433,nan
1740797256.3149786,-0.5366065984238796,0.23548090347024248,-0.7110156878697976,-0.07731969481703511,nan
1740797256.3188846,-0.49749729828579814,0.35019073221314806,-0.3679695722720339,-0.17226775681383524,nan
1740797256.3227904,-0.11917076537756599,0.044805279416806926,0.06258802009769529,-0.18602926212500004,nan
1740797256.3266964,0.3024949373961061,-0.31962117105278415,0.2005965941866114,-0.0611019992833682,nan
1740797256.3306024,0.42838952706582734,-0.3406172677501968,0.07283447226830835,0.10155154679541427,nan
1740797256.3345082,0.22351044611993054,0.012376563880114442,-0.021099845691214557,0.12746789030147285,nan
1740797256.3384142,-0.006838034599752002,0.37817554251816227,0.09259780505905955,-0.0014767019853684086,nan
1740797256.3423238,0.027635715508683836,0.3939384620612967,0.2927880785482784,-0.0900786914581408,nan
1740797256.3462296,0.23782585166862116,0.082560231604093,0.3593439569602408,0.02842743140322251,nan
1740797256.3501356,0.2291138605923199,-0.1744726911037404,0.22180471423659207,0.23917358821771345,nan
1740797256.3540416,-0.21550991892379331,-0.05743655795021425,-0.030094733258201892,0.23879648902945327,nan
1740797256.3579473,-0.7818529407658977,0.31800036867492304,-0.29157085245720527,-0.08797354796574577,nan
1740797256.3618534,-0.8619705041148628,0.48107580431689656,-0.49178642355056945,-0.4657637310399497,nan
1740797256.3657594,-0.19826312991092682,0.08692152539955725,-0.5258717701578799,-0.4898080146973312,nan
1740797256.3696654,0.7558743861132893,-0.6782954041582518,-0.27982996177867275,-0.07804143246960306,nan
1740797256.3735712,1.2017803171198822,-1.1946743186338706,0.19063039417103342,0.41706301915698923,nan
1740797256.3774772,0.7548637758757029,-0.9492326638346339,0.5790881182091692,0.5766649965383287,nan
1740797256.3813832,-0.18441742211194728,-0.018471927439087325,0.5646666313885538,0.33451778919112485,nan
1740797256.385289,-0.8325502157864116,0.9661490227986151,0.167332696332279,-0.024445765831041882,nan
1740797256.3891983,-0.7662759602333277,1.3411360672153978,-0.22172245938034565,-0.23062066086717567,nan
1740797256.3931043,-0.24135759412279684,0.939824145440139,-0.24469422770919613,-0.2834043528126683,nan
1740797256.3970103,0.18169625016788854,0.16175826426094714,0.024586906968670122,-0.31500419030113447,nan
1740797256.4009163,0.22998620029963304,-0.43189342685906756,0.17653820634689468,-0.3183274743275484,nan
1740797256.404822,0.09028728515040664,-0.5830876389163472,-0.036889328669152725,-0.14768040051537173,nan
1740797256.4087281,0.06387708143275336,-0.44764500954886177,-0.3991306898725223,0.20879102630945873,nan
1740797256.4126341,0.18281313300188803,-0.32343416252564916,-0.4881257050589854,0.4922294780253745,nan
1740797256.41654,0.23051264349278588,-0.32576631356257907,-0.17312322734249916,0.4202062060756087,nan
1740797256.420446,0.07453147621600427,-0.32847390390993225,0.25805077900456846,0.040875649833394666,nan
1740797256.424352,-0.14124195060009528,-0.17054264933325355,0.4637861218980499,-0.27138932440001856,nan
1740797256.428258,-0.180020203588439,0.13738505208704108,0.41042694182017647,-0.21948702644964477,nan
1740797256.4321637,-0.022254363305244957,0.4250040249878502,0.28670222169868925,0.08179753648624938,nan
1740797256.4360728,0.09601063605588236,0.5449435964575225,0.15705932846184018,0.24375787551662456,nan
1740797256.4399788,-0.028553921320977185,0.5015080446691055,-0.11246105000443024,0.05061292731507983,nan
1740797256.4438846,-0.2976467248800307,0.3911572941912716,-0.5360692448205815,-0.3102627042471945,nan
1740797256.4477906,-0.38942903749589236,0.2503420763792443,-0.7854029119301061,-0.4781555444746139,nan
1740797256.4516966,-0.11072139059608616,0.009986118415594412,-0.4842996943440236,-0.3035928767836234,nan
1740797256.4556024,0.3622744556120481,-0.3768310533567503,0.2679168603665419,0.051155237751373026,nan
1740797256.4595084,0.6231270045395206,-0.7823581749093781,0.845940684582594,0.33893973493099255,nan
1740797256.4634144,0.4223863855684835,-0.9296926938835668,0.7101164027769086,0.4506123164216574,nan
1740797256.4673204,-0.08190791024528041,-0.6221281167550822,0.01741088290622296,0.40283124242042934,nan
1740797256.4712262,-0.4581459515897317,0.030161968486215468,-0.5187673308208518,0.22030532013758147,nan
1740797256.4751322,-0.3973084575105689,0.6328192033953234,-0.4053993843414789,-0.06312492599963414,nan
1740797256.4790382,-0.002473685367829693,0.8075886093443532,0.10931293555546967,-0.321015832082693,nan
1740797256.4829469,0.30458824055102957,0.5168472664052978,0.3717744322759589,-0.383350355161913,nan
1740797256.486853,0.18953192534707522,0.09803566571677064,0.09244356384014774,-0.23046552203639123,nan
1740797256.490759,-0.2478905485369091,-0.05420686043585482,-0.3688208485592819,-0.060407456797388445,nan
1740797256.494665,-0.5378885308691351,0.12717553770318432,-0.4887364926816795,-0.06391641812005341,nan
1740797256.4985707,-0.2988789745813064,0.31219789568082346,-0.18560276661318761,-0.15714892063933028,nan
1740797256.5024767,0.33613457019811005,0.11568382011466669,0.18348552416517086,-0.059694973581914126,nan
1740797256.5063827,0.7846038339060984,-0.4709739011106062,0.332711758825945,0.312920684872718,nan
1740797256.5102885,0.5738428972433048,-1.0042014884255053,0.3430604501591726,0.6408244327684745,nan
1740797256.5141945,-0.14372964436316862,-0.9821389597072205,0.3913414033150829,0.5173663291996936,nan
1740797256.5181005,-0.6896731794344388,-0.3381586860515002,0.37381954706821,-0.03637119633669845,nan
1740797256.5220065,-0.5360872310516565,0.46742097410743033,0.02225150193868949,-0.5176505964332521,nan
1740797256.5259123,0.1284584113282963,0.8685663062949535,-0.6121654904476745,-0.4874068281061636,nan
1740797256.5298212,0.5789817108490335,0.709168967596697,-1.0132933010298013,-0.08094174240529138,nan
1740797256.533727,0.32898177269445505,0.3283941554286958,-0.7079877853697948,0.16664404629414603,nan
1740797256.537633,-0.33601036795416805,0.14302575925861388,0.14306583890756233,-0.007206793251640966,nan
1740797256.541539,-0.6749771142426373,0.19201735451791907,0.8357057484754404,-0.267390912163271,nan
1740797256.5454447,-0.31984857150813584,0.14394840474019652,0.8466451689029673,-0.14060750759306231,nan
1740797256.5493507,0.322923432269001,-0.250784585322212,0.34597451890297803,0.3153291033194758,nan
1740797256.5532568,0.5612352517880215,-0.7876775577085194,-0.09411711674441058,0.5249782173603937,nan
1740797256.5571628,0.22346278111867088,-0.9633425877803858,-0.18991821069059353,0.1349446348286894,nan
1740797256.5610685,-0.1732853129255121,-0.5153839674463301,-0.16910184750919577,-0.45199921150521843,nan
1740797256.5649745,-0.09287745204537336,0.24659591669253553,-0.3117828258979076,-0.4956618428465923,nan
1740797256.5688806,0.3276655000512217,0.708244154044283,-0.48994601534480847,0.15496061826752008,nan
1740797256.5727863,0.4270809261379478,0.5553843492160082,-0.34583423111621736,0.7838620027039378,nan
1740797256.576695,-0.13839950373435125,0.0751950915736243,0.14912397214736872,0.6016697655284066,nan
1740797256.580601,-0.8785891556830346,-0.17048733023759957,0.5516688899680527,-0.2981362766994537,nan
1740797256.5845068,-0.9518544418655079,0.05200507733448971,0.46156034582976196,-0.9914546255287462,nan
1740797256.5884128,-0.13502226618402288,0.41716547759817213,0.02892074267692708,-0.7629257866371094,nan
1740797256.5923188,0.8486164377108644,0.42197292140294684,-0.23415737131041037,0.09370741461980354,nan
1740797256.5962248,1.0621870579576915,-0.04392087500782587,-0.10724330559393501,0.6583390491227991,nan
1740797256.6001306,0.3466341371517438,-0.563348499456287,0.08612141529940398,0.4600378160324297,nan
1740797256.6040366,-0.5325838167277358,-0.6382464957370303,-0.03071118235970495,-0.05899861682465652,nan
1740797256.6079426,-0.7235111308551873,-0.23064144391014213,-0.32126364853104317,-0.19583644624371332,nan
1740797256.6118484,-0.15847470360219343,0.1934883363620939,-0.2924166344872547,0.12474026140434916,nan
1740797256.6157544,0.46964042573798476,0.17361396008430188,0.19653497525186345,0.33919510485936666,nan
1740797256.6196604,0.5085104780364116,-0.2276177731720833,0.634053088525029,0.05774799708990826,nan
1740797256.6235685,-0.0075016055141438566,-0.46676568670952057,0.4418584498721998,-0.397489367405968,nan
1740797256.6274745,-0.5067530229551875,-0.10376275941434766,-0.2589958618175578,-0.4246321816844486,nan
1740797256.6313806,-0.5300194673143079,0.6757711061497161,-0.7184537342426771,0.046175754834206995,nan
1740797256.6352863,-0.12824672334055345,1.1688513278689494,-0.4437292796054695,0.4382090519607257,nan
1740797256.6391923,0.31180156419127114,0.8263702334832971,0.19743521255582636,0.26079998682625233,nan
1740797256.6430984,0.4749103790786642,-0.17281651856240518,0.4408251836977509,-0.26880703187179245,nan
1740797256.6470041,0.3098037499949128,-1.0368427332419925,0.08387512132031569,-0.5145360789053308,nan
1740797256.6509101,-0.04336031066469922,-1.0785758676423962,-0.28820927817506287,-0.2255293902957142,nan
1740797256.6548162,-0.36651363680032645,-0.3430220485398741,-0.10059091532935865,0.1944123252887907,nan
1740797256.6587222,-0.4332976026118296,0.4625778327727533,0.4330537834372384,0.2684304025442539,nan
1740797256.662628,-0.13750721425299675,0.6477176103733022,0.583966739409447,0.06901523315678604,nan
1740797256.666534,0.3450611382025946,0.1476542367643724,0.08569482237272655,0.04916235666292933,nan
1740797256.6704419,0.6063204219261928,-0.5026123028165441,-0.4828217178784407,0.343623017776006,nan
1740797256.6743479,0.3650881052287381,-0.723745227221019,-0.44780346854232683,0.5268205234026138,nan
1740797256.678254,-0.20023484819802986,-0.37294469651179835,0.048240017020536145,0.18638766319194072,nan
1740797256.68216,-0.584036959019325,0.2727080234562859,0.21338154814808202,-0.4624554548325488,nan
1740797256.6860657,-0.480510017144493,0.862210868153617,-0.3072845009409551,-0.7856947608986431,nan
1740797256.6899717,-0.10008456614529168,1.1847188070395998,-0.850533290580911,-0.5189663866034843,nan
1740797256.6938777,0.1314228818634904,1.0974177615018104,-0.5095138616131752,-0.0792739232288869,nan
1740797256.6977835,0.11787323099125392,0.46167936273946053,0.6458350309472636,0.035620491376608034,nan
1740797256.7016895,0.153425794400771,-0.6541591749997938,1.4876021014988323,-0.05993512523041475,nan
1740797256.7055955,0.39578514557813854,-1.7360744216297597,1.1025190929667807,0.15743056444391945,nan
1740797256.7095015,0.499557410418811,-2.0262626312460923,-0.10615692774882134,0.7575824800817017,nan
1740797256.7134073,0.038247490396379424,-1.1857108059881585,-0.8780163382168598,1.0615668358711392,nan
1740797256.7173166,-0.739605288514642,0.2454878388609442,-0.5891904678736342,0.4653547008807401,nan
1740797256.7212226,-0.9225361813422167,1.2354094766505406,0.05629167815806633,-0.6238937362500043,nan
1740797256.7251287,0.012528488656369977,1.2432741768431381,-0.007649983010435246,-1.0816799739367158,nan
1740797256.7290347,1.2902047501285427,0.7483159862735955,-0.8034174426279779,-0.41524004035342865,nan
1740797256.7329404,1.4018192082960967,0.6410290784621354,-1.237593232631572,0.5063858550253096,nan
1740797256.7368464,-0.17959852224140554,1.0845092522991,-0.4649744056979962,0.42640380016763585,nan
1740797256.7407525,-2.0747091256094294,1.1962752184493457,1.0063435807991312,-0.6792470214501913,nan
1740797256.7446582,-2.2169856887344883,0.07040708866308391,1.8348356662673548,-1.3943577941369114,nan
1740797256.7485642,-0.1322905534975988,-1.9419924838296516,1.3411335268320903,-0.521852720726855,nan
1740797256.7524703,2.2913506782746316,-3.2613837808693438,0.17264401347043473,1.3160712916219028,nan
1740797256.7563763,2.6486004376942405,-2.599655750679789,-0.5687853791227943,2.1924774701010312,nan
1740797256.760282,0.599010475671538,-0.3683856203075635,-0.555639858069177,1.066645895367069,nan
1740797256.7641914,-1.7183845787150163,1.6711431144898905,-0.34884116002935417,-0.9274608274837334,nan
1740797256.7680972,-2.0066165638934255,2.2255274075862266,-0.4673430643264512,-1.7224437385422684,nan
1740797256.7720032,-0.2955886425665268,1.709305655928148,-0.7551869529333349,-0.6832007149016737,nan
1740797256.7759092,1.2347364837019836,1.4422066912317224,-0.7861482645682624,0.7300399576316352,nan
1740797256.7798152,0.8628060910818104,1.7474119723812331,-0.5369599012717691,0.8030528854663473,nan
1740797256.783721,-0.7009382706010596,1.337613701966673,-0.27555758219937443,-0.3472373348789849,nan
1740797256.787627,-1.2857888620794595,-1.0213323196583004,0.09716700630351137,-1.017910116583024,nan
1740797256.791533,0.01594759931853601,-4.38635092822771,1.0578517644454866,-0.18148170748568293,nan
1740797256.7954388,1.6662301067988838,-5.781972074386564,2.514571024086877,1.0966036854603185,nan
1740797256.7993448,1.4957505895962224,-3.011157627898542,3.2036441910565006,0.9459799722555383,nan
1740797256.8032508,-0.6286445294819974,2.6337489844230806,1.6902286431997569,-0.8359442822468084,nan
1740797256.8071566,-2.484361982947339,6.876712829702286,-1.7788993049728101,-2.2353264750774726,nan
1740797256.8110657,-1.9545014199275623,6.134936860418401,-4.821372066645992,-1.2540522075203615,nan
1740797256.8149717,0.5846813348116825,0.9031792788994556,-4.877634348465482,1.631487185082845,nan
1740797256.8188775,2.6964213345536607,-4.554454198063395,-1.7604816842870166,3.7367997107365523,nan
1740797256.8227835,2.5499429698822484,-5.990674791959055,2.029190999803867,2.954382361970673,nan
1740797256.8266895,0.6938054992124858,-2.8067594873181894,3.7251028566063598,-0.0847702636576145,nan
1740797256.8305955,-0.9600416445960188,1.8136802522663116,2.8667427021787124,-2.8322953716400154,nan
1740797256.8345013,-1.4500881604423006,4.0713573764298285,1.2497654004580452,-3.498484916289909,nan
1740797256.8384073,-1.4934646333689463,2.7805674721230322,0.5281907468587488,-2.4763546444671674,nan
1740797256.8423133,-1.9401325192485241,-0.1903321004700265,0.4132402347699703,-1.17720305821115,nan
1740797256.846219,-2.1995731824506297,-2.126297002357784,-0.4691017776268792,-0.10624999495563858,nan
1740797256.850125,-0.8684287575820917,-1.8564169801173722,-2.324449218336335,1.3333007731028628,nan
1740797256.854031,2.133881346610285,-0.2713160799310821,-3.501339183421354,3.290129200181324,nan
1740797256.85794,4.729804092196121,0.9480055324616368,-2.3483794953475674,4.483703002633598,nan
1740797256.861846,4.5250355769896125,0.8488417405028266,0.6061607952520787,3.345497768579342,nan
1740797256.8657517,1.3958624424388701,-0.24631885672605336,2.8764394756850376,0.011386956513374642,nan
1740797256.8696578,-2.2142416133779723,-1.2194317062685445,2.5529975350349736,-3.364842068402595,nan
1740797256.8735638,-3.759530680127316,-1.05359820214309,0.318045793085063,-4.570325348401983,nan
1740797256.8774695,-3.0551745138717794,0.4064026026676575,-1.320007647127588,-3.4064880527991424,nan
1740797256.8813756,-1.961773860738011,2.2052143912087234,-0.7002072830738044,-1.5431840939135908,nan
1740797256.8852816,-1.7889396703958431,2.817550664017733,1.3169781682732762,-0.4309957576730451,nan
1740797256.8891876,-1.606159645506484,1.344344957822846,2.3409139087036914,0.21866493533279346,nan
1740797256.8930933,0.4461099316383552,-1.501862951913262,0.9020627863254492,1.6568931955671165,nan
1740797256.8969994,4.357763855180249,-3.688158524136838,-2.1301584359294625,4.0635555915728165,nan
1740797256.9009054,7.357371239849582,-3.4915086357537204,-4.321567776156297,5.7452160373676335,nan
1740797256.904814,6.265460869880764,-1.0754999722205034,-3.6874333105758277,4.5915951267716695,nan
1740797256.90872,0.77703130093417,1.6118859758163682,-0.23786730670090483,0.2788426237782706,nan
1740797256.9126258,-5.774293756108112,2.6632181534426675,3.912706459149336,-5.039090652474032,nan
1740797256.9165318,-9.033684192568144,1.9424738316016166,5.826929230057646,-8.179929781865843,nan
1740797256.9204378,-7.098445547515909,0.9044518041730786,3.7518228425096862,-7.156231392432247,nan
1740797256.9243438,-1.6952501161278524,0.73965269688051,-1.2952694389233708,-2.424617703987082,nan
1740797256.9282496,3.6132317479015175,0.9705080502049878,-5.737622877557646,3.4703826597041707,nan
1740797256.9321556,6.1587138695368004,0.14597925597521583,-5.930207382199873,7.35955668857251,nan
1740797256.9360616,5.50168851482597,-2.129951384750953,-1.348898531672169,7.1866833356946636,nan
1740797256.9399674,2.873403693091129,-4.22606700360731,4.455747454235442,3.236353644931607,nan
1740797256.9438734,-0.10593269818455463,-3.875327973587133,6.611507067977378,-1.9013611134767219,nan
1740797256.9477794,-2.2589669962445793,-0.5874076390868517,3.2778894308013387,-4.946362766468959,nan
1740797256.951688,-3.060658681149389,3.5083910111949272,-2.5631469875607498,-4.272373849539186,nan
1740797256.9555938,-2.6108989480073173,5.397227644335305,-5.864576743199581,-1.130089457113081,nan
1740797256.9594998,-1.5016345300191594,3.8088716781462044,-4.215455755347658,1.5066323155147272,nan
1740797256.9634058,-0.4399566683723677,0.183218480846241,0.2141638018592529,1.6033195729508094,nan
1740797256.9673116,0.24233755584401992,-2.806211829874725,3.286592587276403,-0.23315917937228556,nan
1740797256.9712176,0.7226769535602234,-3.533092326962198,3.0511496233210416,-1.6456366334114265,nan
1740797256.9751236,1.2663423752332292,-2.3460942406081853,1.0369297718407156,-1.0236955134217114,nan
1740797256.9790297,1.7221837149169623,-0.6444262628527948,-0.22233815730522935,0.9966919848222767,nan
1740797256.9829354,1.5849463621654498,0.5695951889665409,-0.13015580934208323,2.4506613105470567,nan
1740797256.9868414,0.6176468791680921,1.2005411983123917,-0.06214124870140311,2.158102047864127,nan
1740797256.9907475,-0.6986783678028083,1.5138146313457534,-0.9642908509131568,0.689361673560999,nan
1740797256.9946532,-1.4852300002902912,1.512398415738682,-1.8894253517208999,-0.6219580700571049,nan
1740797256.9985616,-1.2693943519331636,0.978064347723007,-1.3452360268662487,-1.178442581070857,nan
1740797257.0024674,-0.40928743825537456,-0.062228832479650775,0.46664590278842094,-1.3662411714308225,nan
1740797257.0063734,0.30170752934857575,-1.1401900022754043,1.6229004933548272,-1.5552676379009744,nan
1740797257.0102794,0.3872999805488954,-1.6628300727846874,0.8519993966997895,-1.390030413800188,nan
1740797257.0141852,0.012504667386973797,-1.3581403141536301,-0.7304066276711092,-0.35067362379085054,nan
1740797257.0180912,-0.3394632287465642,-0.417909123798992,-0.8989497616962607,1.2283227929266363,nan
1740797257.0219972,-0.3563379658671605,0.676822385744015,0.8321948032008682,2.160993281800278,nan
1740797257.0259032,-0.04397937544341593,1.4017844049559154,2.3740596382902983,1.6117192108591611,nan
1740797257.029809,0.4400628607567054,1.3883208309691082,1.4745462399178073,0.08821283629732385,nan
1740797257.033715,0.9073993835620828,0.6140880178524182,-1.4309683089161715,-1.0217145125174398,nan
1740797257.037621,1.1003411333348445,-0.4856258619807794,-3.4414487219445054,-0.891899066871669,nan
1740797257.0415268,0.7422963683939744,-1.2039630016155727,-2.3805445232376643,-0.03724624282468885,nan
1740797257.045435,-0.17985591329381415,-1.0666168769524662,0.7322194465871871,0.40739973659776374,nan
1740797257.049341,-1.1981720284108577,-0.25593155518972655,2.8086121840618476,-0.006245244114588989,nan
1740797257.0532467,-1.6098519476492565,0.5181722676307615,2.070156440421707,-0.6554849332644119,nan
1740797257.0571527,-1.0878124859171059,0.6616750170517144,-0.22479684087164284,-0.7051181065142518,nan
1740797257.0610588,-0.0360011712512655,0.2319360670358237,-1.5140543615769055,-0.08668051227583161,nan
1740797257.0649648,0.7572873186963538,-0.19616927481397212,-0.854539434434394,0.5240981216707928,nan
1740797257.0688705,0.85605665010803,-0.18182763108444194,0.38874545754149137,0.564221202433009,nan
1740797257.0727766,0.5237559822511876,0.13631719442109735,0.5755137818258016,0.17635177806610208,nan
1740797257.0766826,0.31735434054695116,0.2798305492523517,-0.20732888071363442,-0.09322456270902231,nan
1740797257.0805883,0.41317151076155517,0.04065309426810577,-0.57440857131272,0.008594748744670071,nan
1740797257.0844944,0.4428127238818627,-0.2711341012143164,0.12291688344824722,0.22262974504956104,nan
1740797257.0884004,0.009293047744286357,-0.22916058651060486,0.9111135768653574,0.19696810642077342,nan
1740797257.0923097,-0.7433092440511242,0.15112443627440594,0.5531630255041207,-0.07318279977189568,nan
1740797257.0962157,-1.1909021207902437,0.3843924012909462,-0.7103230731452038,-0.30732409012505657,nan
1740797257.1001217,-0.8710057896322352,0.08047090653741906,-1.3536667289407536,-0.3197744204756426,nan
1740797257.1040275,0.009675095525330383,-0.5451277289461248,-0.4780946575661809,-0.18999148609737973,nan
1740797257.1079335,0.7586983558318985,-0.8303282990665733,0.9912086965376824,-0.07287733169292221,nan
1740797257.1118395,0.8607840871622718,-0.3626317511218767,1.3635864239823952,0.011123490784690538,nan
1740797257.1157455,0.4127352149508882,0.5382131277810441,0.21070077928355163,0.12013205811410502,nan
1740797257.1196513,-0.0786817629938023,1.092758948738021,-1.1187990654628548,0.2180907670133077,nan
1740797257.1235573,-0.2442399671662317,0.8233131449857498,-1.102805186000705,0.19100396580794862,nan
1740797257.1274633,-0.14265736839243842,0.013240318962033268,0.1919216575801624,0.03798904095174222,nan
1740797257.131369,-0.05511330837602249,-0.6056737643567659,1.2632033767738906,-0.07187564310630024,nan
1740797257.1352751,-0.10570429948581674,-0.5943475761913882,0.9570744979781072,-0.006662862700349243,nan
1740797257.1391845,-0.15738779526846502,-0.19618773981536516,-0.2843529371270775,0.1286222982257867,nan
1740797257.1430905,-0.05027403347884061,0.011452628703347479,-1.0822995549494014,0.10360557220927148,nan
1740797257.1469963,0.15370210272233797,-0.20187449049007933,-0.7381460303885098,-0.12667389893329542,nan
1740797257.1509023,0.22683500693073574,-0.46121336126256723,0.12963293151763855,-0.323819855591057,nan
1740797257.1548083,0.05695126549620287,-0.23887885672415696,0.5028470057411033,-0.2408473164089222,nan
1740797257.158714,-0.19266107071356556,0.4792067704285687,0.1571754529044603,0.06310536427672236,nan
1740797257.16262,-0.24743699710726358,1.0715061613149162,-0.26407984014627933,0.2749763622473844,nan
1740797257.166526,-0.03292671980091604,0.8913340660882504,-0.17501822930698985,0.19241744611936826,nan
1740797257.170432,0.2233224914965558,-0.015005812629306602,0.28173181235503286,-0.052710260714456066,nan
1740797257.1743379,0.2316931124501181,-0.8767839016348301,0.5424952651211421,-0.17955352259065685,nan
1740797257.1782439,-0.029966559018090862,-0.9440836312613657,0.3472334588469962,-0.09645848303215963,nan
1740797257.18215,-0.2685605098802855,-0.24761954087961324,-0.052830491483925095,0.03726819096874717,nan
1740797257.1860588,-0.1879959440701426,0.446749369359236,-0.3144356512287507,0.06727715652691067,nan
1740797257.1899648,0.1638090282105836,0.45843650492293814,-0.3768804626405584,0.043302726071778534,nan
1740797257.1938708,0.4081175650567831,-0.09700236376026572,-0.3536162821436606,0.09665953821458197,nan
1740797257.1977766,0.23241672012174155,-0.485731512108921,-0.2521645856794583,0.19666348859181193,nan
1740797257.2016826,-0.2398259404094947,-0.21527890437153407,-0.0003187591586715373,0.15815446875567377,nan
1740797257.2055886,-0.5307588567170245,0.4040992783879262,0.3050599401198917,-0.08806737772294686,nan
1740797257.2094944,-0.29906752330782105,0.6395481915147888,0.39581479767173083,-0.3415514690726464,nan
1740797257.2134004,0.2670223309230963,0.2116097407283104,0.1691739289674776,-0.3422023794552838,nan
1740797257.2173064,0.6002761769051308,-0.36742774936316425,-0.11265538050938248,-0.09447423683158696,nan
1740797257.2212124,0.3287101004079539,-0.4055061821719996,-0.11631885523775866,0.12734040014306028,nan
1740797257.2251182,-0.3200455236856783,0.1224007956910248,0.1170893639565501,0.12133173007269057,nan
1740797257.2290242,-0.7249431221195755,0.5127752554097169,0.20212110611070805,0.007110623621769353,nan
1740797257.232933,-0.4875232436009166,0.1666426392148139,-0.06179866689873297,0.046026092176523925,nan
1740797257.2368388,0.18107762746541436,-0.648096942334915,-0.35879651771824234,0.2617330541442641,nan
1740797257.2407448,0.6918618617128752,-1.0270861561454399,-0.2322948693235135,0.3719380952400618,nan
1740797257.2446508,0.6580803301865917,-0.43158640460179815,0.2591375729347403,0.14674789387521545,nan
1740797257.2485566,0.21182217219919253,0.6716812222436991,0.49349280743502105,-0.2617295743027886,nan
1740797257.2524626,-0.2222242547027896,1.2697400513636183,0.023063356467105802,-0.4627125625581465,nan
1740797257.2563686,-0.37838228358380244,0.8493046402443206,-0.7680837419893878,-0.2847317158052447,nan
1740797257.2602746,-0.3259986959827932,-0.12730275436269978,-0.9699985452328137,0.027496854085318743,nan
1740797257.2641804,-0.2555907000343228,-0.785486864058036,-0.1660386169855486,0.1298612547178618,nan
1740797257.2680864,-0.21135350001902609,-0.7353419784952745,1.0056439783532878,0.0033452617426795,nan
1740797257.2719924,-0.09519960041042229,-0.30868989135901587,1.4535941599425246,-0.05877255427124225,nan
1740797257.2758982,0.12668280230704293,-0.0038392266391670546,0.7607974196103409,0.1235847758879409,nan
1740797257.2798069,0.3296891201089648,0.0855919864174402,-0.4134973829961864,0.3456242504945271,nan
1740797257.2837129,0.37215253057090636,0.19627313513529634,-1.0669094487146877,0.27030519448466905,nan
1740797257.2876189,0.26137343456778694,0.4065144245413289,-0.8522698167657091,-0.11178313267983939,nan
1740797257.291525,0.11456884885501177,0.4614000271013686,-0.25904753389897955,-0.41827412282854887,nan
1740797257.2954307,-0.012340541869971479,0.14848103329885956,0.08341001952346078,-0.31357697987679645,nan
1740797257.2993367,-0.16657405933775193,-0.3183892332346788,0.07369552687465675,0.08807069333759594,nan
1740797257.3032427,-0.34691319198548115,-0.4765588119201415,0.0585195791792773,0.3566117656079368,nan
1740797257.3071485,-0.4025367975170804,-0.17034008336772022,0.26338240794910167,0.24630451367320413,nan
1740797257.3110545,-0.18975596880699652,0.22925991485884234,0.5068984371695028,-0.0558668621542872,nan
1740797257.3149605,0.17870340527450482,0.25243099685377407,0.487849923051297,-0.2111120862711955,nan
1740797257.3188665,0.3601759382587546,-0.10984206845020435,0.18630361590526243,-0.14501880807035022,nan
1740797257.3227723,0.14817015167918265,-0.40987582026231933,-0.14059029837652376,-0.06870161883428273,nan
1740797257.326681,-0.23215401751976894,-0.2961728711915097,-0.29345420835363484,-0.12431378333114415,nan
1740797257.330587,-0.31539600270029733,0.08876585561158126,-0.318502023253576,-0.16725729161270103,nan
1740797257.3344927,0.07039215718635473,0.3488789679785434,-0.34340379009816685,0.012232354330397174,nan
1740797257.3383987,0.5452022860117102,0.3568838872270088,-0.35274829801034546,0.3406718936037299,nan
1740797257.3423047,0.5594353403181176,0.3446750493403492,-0.22763151555040106,0.4860914909354888,nan
1740797257.3462105,0.02943852665816809,0.45014819535348716,0.04264066312921288,0.2584112308823595,nan
1740797257.3501165,-0.5204516021871055,0.3819789348332099,0.30927075984868113,-0.13178338755716928,nan
1740797257.3540225,-0.5267185627207273,-0.24084434274391797,0.44431579756810446,-0.31173613537435463,nan
1740797257.3579285,-0.03857051308629826,-1.225429575736325,0.4702596371705477,-0.1919459691939422,nan
1740797257.3618343,0.3220127989587585,-1.716237039246027,0.43966214175779905,-0.04701911257798206,nan
1740797257.3657403,0.08560092008755953,-0.9850915709433542,0.26569463123831355,-0.12719267576477133,nan
1740797257.3696463,-0.48236188000854163,0.688538763905718,-0.18074593965423486,-0.3100362623379292,nan
1740797257.3735545,-0.6455082233753128,2.08306482451716,-0.7752230308651097,-0.2563227837679387,nan
1740797257.3774605,-0.04251813340080194,2.10036938181453,-1.075395106871671,0.12365836917685509,nan
1740797257.3813663,0.844640839717664,0.7702702579719771,-0.7023889493089932,0.5034834526360178,nan
1740797257.3852723,1.1569852822617663,-0.8255113436388848,0.20180191528520983,0.5083710251140592,nan
1740797257.3891783,0.5613146200420989,-1.5789737596619695,1.0011458956487342,0.16243946154300148,nan
1740797257.393084,-0.403995449719788,-1.2532465389674865,1.1217623201208469,-0.14985501349220154,nan
1740797257.39699,-0.9052824624056327,-0.44168049073188603,0.5599461567892176,-0.15635976926036177,nan
1740797257.400896,-0.6552282652170809,0.16231502074817233,-0.18970829870039407,-0.002321590354094018,nan
1740797257.404802,-0.10918827542700464,0.3297282888881033,-0.6495638475446203,-0.012290510222580795,nan
1740797257.4087079,0.1301107991187405,0.2463272234371598,-0.7139831380914768,-0.23800041671279545,nan
1740797257.4126139,-0.026854930678417203,0.15415122722538477,-0.5262611436123972,-0.3889268813002784,nan
1740797257.4165199,-0.15820934913609805,0.16910963457011316,-0.1827662008427153,-0.22917377008913156,nan
1740797257.4204278,0.08353792799455988,0.3255651765441543,0.2880060334218409,0.09370072995582886,nan
1740797257.4243338,0.527018390392401,0.5778877918773426,0.706457076385293,0.23301763978617598,nan
1740797257.4282398,0.6804315898047918,0.7030987634761977,0.7238078570065315,0.10288688396764653,nan
1740797257.4321456,0.30609220475936777,0.37517109798902876,0.18358771716322606,-0.002869443873483493,nan
1740797257.4360516,-0.30020744096088037,-0.471384781367952,-0.5543324116717655,0.18595043159193425,nan
1740797257.4399576,-0.6188942978268656,-1.3607932205066182,-0.8361440843585065,0.5055252238756756,nan
1740797257.4438634,-0.43256099634935896,-1.5470850910197955,-0.36536261508199247,0.5008075487260236,nan
1740797257.4477694,3.7425213644997806e-05,-0.7203876809462829,0.4275178584484589,-0.011254472597469808,nan
1740797257.4516754,0.2570361871815134,0.5796160532816041,0.7759073614885003,-0.650022864852361,nan
1740797257.4555814,0.17136885655339476,1.3799060593979895,0.35630122286774907,-0.8423727708123193,nan
1740797257.4594872,-0.07227653969679002,1.1674617282180775,-0.38667012669693385,-0.44210207051179196,nan
1740797257.4633932,-0.19025169804646214,0.33423622488803995,-0.7210591272742035,0.12879198150296425,nan
1740797257.4673011,-0.08413086539950292,-0.2922642340729739,-0.37541783990516664,0.37097036180074894,nan
1740797257.471207,0.11694728861537082,-0.3005435351781765,0.2473947060421679,0.23570792484647898,nan
1740797257.475113,0.2285994483771625,-0.0077593654718629895,0.556942480665613,0.08310990352825415,nan
1740797257.479019,0.1803011111845918,0.03404244878901504,0.3703265134003434,0.17674504432004975,nan
1740797257.482925,0.03749680161734366,-0.2997071694308335,-0.007834610814396504,0.36266197881318657,nan
1740797257.4868307,-0.08690338404465019,-0.6241886323128243,-0.2017990076177575,0.30535574990191466,nan
1740797257.4907367,-0.12055876771197249,-0.5503362064309513,-0.14384009253658106,-0.05445324860832538,nan
1740797257.4946427,-0.06343552616463957,-0.12229282320237851,-0.03726225395238577,-0.4046689127536625,nan
1740797257.4985485,0.025526216350713223,0.29423496920230235,-0.053176499896758905,-0.43022318072865273,nan
1740797257.5024545,0.06698581594451863,0.44906427215086664,-0.15414585702302486,-0.1715662817596537,nan
1740797257.5063605,0.014975754271199088,0.408212117341891,-0.19243977862921102,0.05581601982096181,nan
1740797257.5102665,-0.10161562156656302,0.3400116937181019,-0.09275941890015792,0.0475513878030796,nan
1740797257.5141757,-0.1915431450806672,0.25009544579857607,0.09615309944507051,-0.08316703722944582,nan
1740797257.5180817,-0.17201988849364475,0.03257961112006375,0.2754360133187229,-0.09640935765237249,nan
1740797257.5219874,-0.03950199731827643,-0.274548981894571,0.3623631787735168,0.06854177601099153,nan
1740797257.5258934,0.12743685375872807,-0.43315939877616727,0.3028072247021143,0.25118369197973733,nan
1740797257.5297995,0.235095213363909,-0.27272138997633866,0.08848185069389655,0.2941189054076458,nan
1740797257.5337055,0.24415660289548377,0.05454595392010489,-0.20551048127174035,0.2116130331484756,nan
1740797257.5376112,0.17966701343119382,0.19151995140524605,-0.4343079571898373,0.10784418307187427,nan
1740797257.5415173,0.08707411777400309,-0.029220266442568754,-0.4775028472745061,0.007973333440317292,nan
1740797257.5454233,-0.010774127948203364,-0.36973545304960376,-0.3222045980453339,-0.14330027196992437,nan
1740797257.549329,-0.11671571360459262,-0.4161949971182218,-0.04194780860493979,-0.33125662238673975,nan
1740797257.553235,-0.23145949402164737,-0.01287502825218262,0.2788882134511511,-0.415128143656792,nan
1740797257.557141,-0.3277735199592538,0.561854208489329,0.5535473079674963,-0.2792107612103559,nan
1740797257.56105,-0.3491039981157287,0.8452135861700255,0.6421384416704884,0.0015540360454163278,nan
1740797257.564956,-0.23719254892009914,0.5939442429501799,0.39361991882214176,0.21826354921478885,nan
1740797257.568862,0.019864803704711675,-0.03371514685615451,-0.16738694394178322,0.25422446802967746,nan
1740797257.572768,0.3462823230837344,-0.6271142938631711,-0.7176187297182118,0.19499508164094792,nan
1740797257.5766737,0.587124391763789,-0.8235859147213341,-0.82415091565292,0.18268581312371623,nan
1740797257.5805798,0.5888743230384148,-0.5315406604054659,-0.3550518176382938,0.2122498974756622,nan
1740797257.5844858,0.31022011837332586,0.030879401961661397,0.3215429374573979,0.14498534536110436,nan
1740797257.5883915,-0.1270015403234462,0.47987158948697034,0.643094412320758,-0.07727982288163683,nan
1740797257.5922976,-0.5026692677755784,0.5238932816682473,0.40095924059858473,-0.3093382277093955,nan
1740797257.5962036,-0.6358797316413585,0.18230929411976524,-0.059945357394206956,-0.35102876116663345,nan
1740797257.6001096,-0.4873357722698279,-0.22428674270527996,-0.23290273056110775,-0.18741003233902426,nan
1740797257.6040154,-0.1580666812679286,-0.3507400552281673,-0.004516135010187412,-0.0084284336777024,nan
1740797257.6079242,0.18833975413344384,-0.13854013725284817,0.2543867270526194,0.026307897760616282,nan
1740797257.6118302,0.4068158557469792,0.15592183976317206,0.15311587869359458,-0.020657888976284282,nan
1740797257.6157362,0.41906117547693517,0.25693561263320513,-0.2543517835595805,0.034423535596892485,nan
1740797257.6196423,0.24021655488500654,0.159241087786632,-0.5416273343261855,0.22970381708470436,nan
1740797257.623548,-0.015647471464881702,0.07459979018629012,-0.4044695527551979,0.37300076402199916,nan
1740797257.627454,-0.18470362698961476,0.11120485746180467,0.021693139944197512,0.26274895146036054,nan
1740797257.63136,-0.16317386218975452,0.10762604525191576,0.3640041513816256,-0.05199318733144238,nan
1740797257.6352658,0.000277911259219738,-0.1383716225693009,0.43276139731432506,-0.29980323000326076,nan
1740797257.6391718,0.13420499385058243,-0.5250864557201474,0.3395742792722721,-0.28073302289656704,nan
1740797257.6430779,0.09680423893749025,-0.6627062199267741,0.23501711876159367,-0.07791549165065363,nan
1740797257.6469839,-0.0884144368858216,-0.30181064069705027,0.08116139413171061,0.05915738747212676,nan
1740797257.6508896,-0.2571532245094293,0.3222908698798415,-0.22234479455375972,0.008914730938336744,nan
1740797257.6547985,-0.2683582686124214,0.685406572659406,-0.5655619742430917,-0.1032372068749457,nan
1740797257.6587043,-0.13216715676547347,0.5282057678040532,-0.6423167211956458,-0.08574783049406406,nan
1740797257.6626103,0.032125733726382,0.12220511754660775,-0.2962086434310246,0.07608763765090999,nan
1740797257.6665163,0.14312932172373277,-0.07787941723565188,0.2378813014551228,0.20830086062800338,nan
1740797257.6704223,0.22442140810455669,0.024019208601368306,0.5437218869998154,0.16469081117353065,nan
1740797257.674328,0.3148432403094369,0.09496658192997912,0.46014090690183845,-0.0009647013543819834,nan
1740797257.678234,0.35215765994257736,-0.14621515207084712,0.2111223507596549,-0.10577994019401064,nan
1740797257.68214,0.20587275880156575,-0.5184287763483536,0.07665455142825811,-0.05099621017860124,nan
1740797257.686046,-0.1494524941330615,-0.5805891182759011,0.041093183007132286,0.07690071783858941,nan
1740797257.689952,-0.5247123552548449,-0.20427553383982777,-0.1185541925641314,0.11779118214041631,nan
1740797257.693858,-0.6336650321172506,0.2264994903725197,-0.4313762171375589,0.014828717945180314,nan
1740797257.697764,-0.3514125866204589,0.2808750470347142,-0.5840892933318914,-0.14010559056562139,nan
1740797257.7016723,0.14587961667775184,0.0400080700940086,-0.28227873167317263,-0.21624550428635617,nan
1740797257.7055783,0.5132191775856417,0.007520932377475075,0.3079033639504755,-0.16748745384264974,nan
1740797257.7094843,0.519876629889364,0.4271231099431243,0.6375464959460263,-0.04736261560069017,nan
1740797257.71339,0.2184623190823358,0.8585228599326686,0.36045104162814023,0.06652174670977382,nan
1740797257.7172961,-0.13594842553665806,0.6197503677542369,-0.2420983317472325,0.13845457738307096,nan
1740797257.7212021,-0.30910703032539505,-0.35334147143877076,-0.5295964544359386,0.17451996428409733,nan
1740797257.725108,-0.24380573901691052,-1.2696716082384827,-0.19365008330019068,0.18325814598312304,nan
1740797257.729014,-0.048055611410009774,-1.2464709354221444,0.4062130834428976,0.1507100330070827,nan
1740797257.73292,0.12180596684383098,-0.2689291695487989,0.6379342204054494,0.05312528409818292,nan
1740797257.736826,0.16722026127489206,0.7512671853371629,0.2661475493711105,-0.10545680434619972,nan
1740797257.7407317,0.08695204420387648,0.9210243147279917,-0.34189737086583605,-0.2631422630565478,nan
1740797257.7446377,-0.04156608925057747,0.2736175668561518,-0.6447075315827315,-0.3156881040832611,nan
1740797257.748546,-0.11848807205502686,-0.3556080779260713,-0.45923278377469334,-0.19169762638894836,nan
1740797257.752452,-0.09359909888703848,-0.2991435962170002,-0.03892363318780149,0.061209937997209245,nan
1740797257.756358,-0.008476432606983803,0.2485387564685778,0.2744143450946754,0.27446484428417656,nan
1740797257.7602637,0.03977159149361028,0.5561632405923532,0.35502829126159485,0.28332310435536906,nan
1740797257.7641697,-0.0026285776940818866,0.24373377852578032,0.26700459288790684,0.08451347289179874,nan
1740797257.7680757,-0.07995430528269802,-0.322795246513146,0.08557722198589907,-0.13930903712949058,nan
1740797257.7719817,-0.07593523010519322,-0.532150062062188,-0.1377571342277933,-0.1834722662338839,nan
1740797257.7758875,0.0587270930056918,-0.2577045075236334,-0.28127449157362244,-0.023431651904509746,nan
1740797257.7797935,0.2343646875655869,0.05898492726934397,-0.18121180989267374,0.1601391200040833,nan
1740797257.7836995,0.29214732637914836,0.012803864737451235,0.15923119078676895,0.1704372692258597,nan
1740797257.7876053,0.1510830575153629,-0.2544710916045903,0.4565887029663296,-0.0022489895432904338,nan
1740797257.7915113,-0.11541037922114827,-0.2584015587985305,0.3697366957048014,-0.1825378218560449,nan
1740797257.7954195,-0.34189714545061545,0.18578227840209346,-0.12150870739271387,-0.20520671732854803,nan
1740797257.7993252,-0.3971876380432655,0.6832545115087125,-0.6242114175835554,-0.07783760931803116,nan
1740797257.8032312,-0.2564894598730835,0.6875729677980379,-0.6882667005042074,0.06068399020373539,nan
1740797257.8071373,0.011913779478559766,0.13097007463720162,-0.2519166343984583,0.10927179492043758,nan
1740797257.811043,0.289531008728809,-0.47801580311537517,0.3067477777064717,0.08957771335719251,nan
1740797257.814949,0.44083878115303965,-0.5944171900143536,0.5588352733441811,0.06739486269947968,nan
1740797257.818855,0.36246044658564763,-0.1978710887261191,0.4186066366216169,0.04548579795010838,nan
1740797257.822761,0.06425557723429073,0.23173065473498747,0.13988140505933797,-0.01958884318312079,nan
1740797257.8266668,-0.286687686496429,0.2534329898765045,-0.01300921758711414,-0.11304438316218629,nan
1740797257.8305728,-0.45093121603167086,-0.0936405208423028,-0.014742165738770664,-0.13758810997169088,nan
1740797257.8344789,-0.3035057124452306,-0.3917908387797912,-0.011205357960126585,-0.028280539093316463,nan
1740797257.8383846,0.04467969243576558,-0.3152777951540755,-0.09565851418390334,0.13778672446310924,nan
1740797257.8422928,0.3300003717690792,0.05895173791974268,-0.22069720066947543,0.1981510994295408,nan
1740797257.8461986,0.36037761060688656,0.3859737347349384,-0.29953651024850575,0.08180763112296797,nan
1740797257.8501046,0.1615050742960453,0.42272540688185617,-0.3067859525190838,-0.10492874845468836,nan
1740797257.8540106,-0.09104042133379792,0.22671101697507767,-0.24709543684317659,-0.1936634981203167,nan
1740797257.8579164,-0.25448883960188307,0.026094854187862674,-0.08626349309108718,-0.13359170298922401,nan
1740797257.8618224,-0.30615349709547324,-0.04059930618035891,0.20727556152618806,-0.021887903744444076,nan
1740797257.8657284,-0.26870991496972735,-0.032062784280828864,0.5476282990981064,0.03632809120265386,nan
1740797257.8696344,-0.11956908105348615,-0.08749543643213863,0.7236001068380974,0.047478960137347245,nan
1740797257.8735402,0.16225776422512497,-0.24848544153591146,0.5620037483362382,0.08016968868378842,nan
1740797257.8774462,0.469011346354728,-0.40739131315051674,0.09979012639576143,0.1337263892179118,nan
1740797257.8813522,0.5644688621835493,-0.410927657047028,-0.4277841408850338,0.12157457480421806,nan
1740797257.885258,0.28960452297751954,-0.1977839955558314,-0.7665046055082545,0.001917342057023643,nan
1740797257.8891673,-0.2237725382229027,0.15474189649844322,-0.7969557688817032,-0.12878931235793742,nan
1740797257.8930733,-0.6018728632337246,0.4906532930925224,-0.5402765876833436,-0.13135381064915733,nan
1740797257.8969793,-0.5500337491330686,0.6647633882404862,-0.08907960868516933,-0.005437696066573388,nan
1740797257.900885,-0.13711124853031426,0.5930367632807846,0.41440967252969463,0.08533346133835705,nan
1740797257.904791,0.2638469348498615,0.26788969737493634,0.7694303204848265,0.006187543558509166,nan
1740797257.9086971,0.33464474537463207,-0.22202981741493244,0.7873328131921469,-0.16434004439476954,nan
1740797257.912603,0.10515781480194561,-0.6768405478066842,0.4418060885006635,-0.20276686050995169,nan
1740797257.916509,-0.11602504626221068,-0.8446589400190563,-0.06368105323447015,-0.005348461599697634,nan
1740797257.920415,-0.08338946991098171,-0.5837278751343942,-0.4329984700159929,0.26343440154485953,nan
1740797257.924321,0.14087114186481414,-0.018411719895947847,-0.5104954507949606,0.3321165299296703,nan
1740797257.9282267,0.28328449539505984,0.49303389451829654,-0.3722323688693374,0.12069066564950831,nan
1740797257.9321327,0.16585746215680264,0.6241086800265361,-0.1923769195374836,-0.16724315728537265,nan
1740797257.9360416,-0.11463916288265988,0.366588914090362,-0.05780577552778,-0.26533717020926384,nan
1740797257.9399476,-0.30632829696120023,0.03747029866606434,0.05981278206762377,-0.12291720984656239,nan
1740797257.9438536,-0.2643579260806437,-0.04505787860777913,0.18483039896508321,0.07024188901093732,nan
1740797257.9477596,-0.07222264624612529,0.10064964629019547,0.2622977092776546,0.11772372072339816,nan
1740797257.9516654,0.07834037710297002,0.14892829188035372,0.228689633789207,0.02208222263052406,nan
1740797257.9555714,0.08942207258393918,-0.13561763846770117,0.11195720287885481,-0.06225530292843616,nan
