timestamps,TP9,AF7,AF8,TP10,Right AUX
1740794949.7952914,0.5300363904138646,-0.0814556100604742,-0.4527692367593903,0.26819175633343306,nan
1740794949.7991972,0.5990488305791656,-0.08567942922352262,0.7983972369951333,0.35740081715820965,nan
1740794949.8031032,0.33579205301329995,-0.019706998106249155,1.4222115855600557,0.2612451872986662,nan
1740794949.8070092,-0.029537213783029023,0.1316194046746115,1.0118249721278272,0.08885887475558955,nan
1740794949.810915,-0.2407775657803006,0.2632577114677286,0.018000604933748623,-0.058311090105209316,nan
1740794949.814821,-0.24356616307101017,0.2715106040625291,-0.7042392883427796,-0.14795716247357357,nan
1740794949.8187268,-0.1706339240191677,0.1578026159295526,-0.6826991843929894,-0.1792988422526226,nan
1740794949.8226328,-0.14683109255715807,0.01142112363201336,-0.17200678526215266,-0.14631805021806513,nan
1740794949.8265386,-0.16197912283589383,-0.08851819657580133,0.23190292585370184,-0.06340512778907588,nan
1740794949.8304446,-0.13349800891571345,-0.13576497848456753,0.23027976080909854,0.008675708768894149,nan
1740794949.8343506,-0.03576889354507535,-0.16634414303674602,0.028578009565178548,0.011042762995549018,nan
1740794949.8382564,0.07780107813472852,-0.18810193937492456,-0.03155519742781677,-0.03593486275090196,nan
1740794949.842168,0.15927559306799977,-0.16195728699816866,0.08572936954697215,-0.04090271048349067,nan
1740794949.8460739,0.2147666718442602,-0.05623598305386999,0.11610421732181847,0.04950149782251966,nan
1740794949.8499799,0.25080588807747356,0.09547761030212382,-0.10936708988114992,0.17016448358433992,nan
1740794949.853886,0.21848040718718686,0.20707533758263974,-0.4005946257016357,0.19846674234144387,nan
1740794949.8577917,0.06516210677185022,0.2127448236454498,-0.40880537578828297,0.09534047124853974,nan
1740794949.8616977,-0.16064224667049984,0.11982856860640252,-0.042397287213044754,-0.04468773877028421,nan
1740794949.8656034,-0.3086143368811314,-0.009002349564634053,0.4061412606017211,-0.099903703159327,nan
1740794949.8695095,-0.26805872469285563,-0.10912585119601353,0.5667677287404373,-0.056753929722766466,nan
1740794949.8734152,-0.09375103152790987,-0.13960894716969616,0.3625815696730669,-0.01216164627546091,nan
1740794949.8773212,0.046671335773825776,-0.07938604543424037,0.029400915695954304,-0.04767577187164481,nan
1740794949.8812273,0.05463119490518032,0.055987006644662475,-0.18688807473310684,-0.13368746903574366,nan
1740794949.885133,-0.0022669769473294484,0.1765143279848975,-0.2615144907248508,-0.1718716678298351,nan
1740794949.8890445,0.0071308936399909284,0.14295592266657706,-0.3025389800318134,-0.10806946634965778,nan
1740794949.8929505,0.10561043781247681,-0.09670969236560131,-0.3241807859605829,0.02341811509297453,nan
1740794949.8968563,0.1799372001748847,-0.37764897652605756,-0.2145081583544048,0.1541569749842367,nan
1740794949.9007623,0.12721176688052674,-0.39690170053632956,0.06600178373868895,0.24026991446505055,nan
1740794949.904668,-0.01202379022213973,-0.01686976214131826,0.34834378817713874,0.2569279943749278,nan
1740794949.908574,-0.09928930677440741,0.4983194563216372,0.39837112924217455,0.1764325438152364,nan
1740794949.9124799,-0.06151318305770561,0.6455450555646506,0.180960331113837,0.0001640325448715183,nan
1740794949.916386,0.02984155299697119,0.18658875771703512,-0.08854798589268068,-0.19156490571722326,nan
1740794949.920292,0.05209418554748312,-0.5124497597489615,-0.17946140879465314,-0.27328668929948075,nan
1740794949.9241977,-0.027191115195720813,-0.7536691323244611,-0.08329481314788334,-0.19459318118125105,nan
1740794949.9281037,-0.1280621781589003,-0.21398289075050492,0.024653757535210794,-0.04819116139923747,nan
1740794949.9320095,-0.160673616861856,0.6408775527516349,0.023534631472791282,0.022284426606373538,nan
1740794949.9359207,-0.11261015660783992,0.9508268731351873,-0.02997788867593262,-0.014825298119712397,nan
1740794949.9398265,-0.029064236131416687,0.3320306180070743,-0.03016765351425373,-0.0463204454214554,nan
1740794949.9437325,0.05540326678106808,-0.6841132919833793,0.004846157562418438,0.03495804630822506,nan
1740794949.9476383,0.13185851847535704,-1.1510672241765676,-0.03134109817365517,0.180040647763797,nan
1740794949.9515443,0.18092646314520458,-0.6506178466748292,-0.1432972411178096,0.23396465649000797,nan
1740794949.95545,0.16934862385268937,0.31426280421560215,-0.1762471825228129,0.13329281477673513,nan
1740794949.959356,0.09981361773098422,0.8766427936989926,-0.007145072693810308,-0.004769086025571762,nan
1740794949.963262,0.029784608959406562,0.6773654363029301,0.2554444505130227,-0.03165212630670095,nan
1740794949.9671679,0.0025871869479888922,0.11247343294779921,0.3524392065503981,0.028591635126612943,nan
1740794949.9710739,-0.026792368227123407,-0.22666406424149774,0.17197228378161594,-0.0019569852466186422,nan
1740794949.9749796,-0.1449036211329691,-0.19559798233310746,-0.10532601662833777,-0.21021473084145617,nan
1740794949.9788857,-0.3360563277610381,-0.09519501369939694,-0.2156303787280743,-0.4266192800016024,nan
1740794949.9827988,-0.42823123200547497,-0.14900767246761476,-0.1251512686222094,-0.37873176732319364,nan
1740794949.9867048,-0.24706712741469455,-0.20292997362024717,-0.044576081718620826,-0.013658294274283528,nan
1740794949.9906106,0.16212078109693157,-0.026866172104110377,-0.11734846062576826,0.39597253264836735,nan
1740794949.9945166,0.5141414733546371,0.24494403677097207,-0.1938853812877854,0.5140978051699087,nan
1740794949.9984226,0.5357808426779899,0.20566165979123638,-0.021810363477651206,0.2859293690673412,nan
1740794950.0023284,0.23757234756288115,-0.25020032574562145,0.35866292001217454,-0.026765221053806753,nan
1740794950.0062344,-0.09873575847177558,-0.6358885505342527,0.5446709179898294,-0.14954333044506435,nan
1740794950.0101402,-0.21256178458989328,-0.35900823129682063,0.20186274000740567,-0.07527944041551757,nan
1740794950.0140462,-0.11447473634780764,0.5120928827979084,-0.46915492640678574,-0.008401769865552012,nan
1740794950.0179522,-0.02454136076246155,1.163904605765138,-0.8271221269702239,-0.07938049743996557,nan
1740794950.021858,-0.09319078226405794,0.8610874190329653,-0.43426252302729756,-0.1964888532003383,nan
1740794950.025764,-0.2383471565239461,-0.20916936096469763,0.4281799477284,-0.19705688507218294,nan
1740794950.0296745,-0.2703063427555674,-1.0731246829604613,0.9756656697400413,-0.07237398090692546,nan
1740794950.0335803,-0.12553841515638828,-0.9863122802933384,0.688365438719627,0.03343982361268745,nan
1740794950.0374863,0.07736289436667565,-0.19122596816544898,-0.16623722042733188,0.0337646148633744,nan
1740794950.041392,0.20030464896253258,0.4335678255261862,-0.8057647231834433,0.022090253253704135,nan
1740794950.045298,0.23667964306120165,0.3873109313651373,-0.7067878150000493,0.1322820447362319,nan
1740794950.0492039,0.2631064507797561,0.02239144528637552,-0.07646901161646469,0.3199322265080415,nan
1740794950.05311,0.28328768775906843,-0.02997685605415945,0.4265861034654352,0.3676846819722195,nan
1740794950.057016,0.19622292057979515,0.29009238909416646,0.37784981064565065,0.13607557309924703,nan
1740794950.0609217,-0.05548413057134379,0.42389162628708255,-0.0384554425793305,-0.2412393003617408,nan
1740794950.0648277,-0.3545822835344219,-0.00946172316527894,-0.2961382468853257,-0.4671450800259028,nan
1740794950.0687335,-0.48541943719555297,-0.6142575119709919,-0.0974228544535803,-0.3794657261134406,nan
1740794950.0726395,-0.3469692386289537,-0.6286945904413958,0.34277206519103787,-0.09848018789673835,nan
1740794950.0765498,-0.05517118687055348,0.11423098720570127,0.5402265822930981,0.1278670553444682,nan
1740794950.0804558,0.1806067621543525,0.8698766642069049,0.22979988723231246,0.17867358572268074,nan
1740794950.0843616,0.25367763258782833,0.7672185128447838,-0.37402544407936056,0.12666489227929112,nan
1740794950.0882676,0.20945118917472677,-0.18264161233826323,-0.7633584933486149,0.08725852139465828,nan
1740794950.0921733,0.13177931970964255,-1.044272643212083,-0.5826321838902255,0.07502407431297045,nan
1740794950.0960793,0.04434409758321548,-0.9598395231236716,0.05844595218749394,0.03583282035329963,nan
1740794950.0999851,-0.054148833963287395,-0.05930605818735022,0.6677573062044819,-0.03179501025581545,nan
1740794950.1038911,-0.1116188847578924,0.7355123359857388,0.776972791448236,-0.05637329321531308,nan
1740794950.1077971,-0.05303350127629648,0.7394150077620818,0.32498023699775175,3.0487658930780314e-06,nan
1740794950.111703,0.09895650100980653,0.17314741681995494,-0.31176699924481704,0.0690276428111731,nan
1740794950.115609,0.19097775841284825,-0.22408844195318747,-0.6602582327801316,0.05063865276093464,nan
1740794950.1195147,0.08274847920836748,-0.08815916435531544,-0.5406611668899344,-0.058799504851072194,nan
1740794950.1234272,-0.1797794310643905,0.23185603322664222,-0.14743564864229836,-0.1553838422895555,nan
1740794950.127333,-0.3792611198140356,0.20076407712110086,0.21022776971550594,-0.14955276110642107,nan
1740794950.131239,-0.3371912523846476,-0.2273224460345005,0.39298192251278613,-0.06338910532962215,nan
1740794950.1351447,-0.08952310081833997,-0.5870270785131598,0.4432439509054501,0.014607492611243025,nan
1740794950.1390507,0.16673964494485838,-0.48132994092200665,0.3872433935926436,0.044380249045098165,nan
1740794950.1429565,0.28128080336199146,-0.0212635144412805,0.1492454378115456,0.06436726013344704,nan
1740794950.1468625,0.268119358252499,0.35541810112826344,-0.27723748271267956,0.11087758821313998,nan
1740794950.1507685,0.22101804174467007,0.3853736068579153,-0.6508712000615369,0.15249821096976834,nan
1740794950.1546743,0.16813768751897834,0.1867098311719868,-0.6236188013374292,0.1323539271532394,nan
1740794950.1585803,0.05966203988731282,0.0129961476864352,-0.13016603289435888,0.05079256269703678,nan
1740794950.162486,-0.11635922671836263,-0.048643513065630174,0.4376287349924809,-0.034455496674666006,nan
1740794950.166392,-0.2693177258156876,-0.0708290682100484,0.5679563980377448,-0.0882152233523672,nan
1740794950.170304,-0.2938837550350942,-0.08283632499940226,0.17065451851988822,-0.13480661121639792,nan
1740794950.17421,-0.19576848587871734,-0.018090602858568585,-0.2974743114495134,-0.19287364457248896,nan
1740794950.1781158,-0.082853363235598,0.12443735303157806,-0.31728888426440316,-0.20898138939927688,nan
1740794950.1820219,-0.02834579174868605,0.18943269198104823,0.11970081682971145,-0.10878152560503457,nan
1740794950.1859276,0.012814592770227918,0.03377694014913749,0.5088739170349741,0.08354385243266445,nan
1740794950.1898336,0.1207720659994867,-0.25254291239986254,0.40822210909579704,0.2288934237704681,nan
1740794950.1937397,0.2711939844800933,-0.3997764087964508,-0.07978400888270751,0.21502183421348411,nan
1740794950.1976454,0.3319122659307636,-0.26113537221677197,-0.4707042363179489,0.09173314833776318,nan
1740794950.2015514,0.21427707273212018,0.013470255193228697,-0.47229712666326756,0.015012628055447398,nan
1740794950.2054572,-0.00832321730238167,0.16839745732449837,-0.2569291327788124,0.052258331059635184,nan
1740794950.2093632,-0.16932862024860998,0.15879917612159902,-0.13409136725998988,0.09497512357686232,nan
1740794950.213269,-0.18604214442776776,0.17589852380185614,-0.10118364798120442,0.004171829393834525,nan
1740794950.2171807,-0.13070774289501588,0.34030919682922256,0.10968326299262726,-0.18883548060311475,nan
1740794950.2210867,-0.11731342530945114,0.4735637784770679,0.5522382359340546,-0.29344585944888013,nan
1740794950.2249925,-0.15529982197033268,0.2817492328140629,0.8322365774980521,-0.18802875904637242,nan
1740794950.2288985,-0.15185722866653562,-0.2456859460150917,0.516639309657751,0.01878884064172208,nan
1740794950.2328043,-0.04608310264755902,-0.7277960071329497,-0.271866701209774,0.11080041332644296,nan
1740794950.2367103,0.10597679840966687,-0.7524622367786373,-0.8566912492072175,0.029283991792699204,nan
1740794950.2406163,0.19944522742587611,-0.30981792911775824,-0.7029273358801759,-0.055179547970871275,nan
1740794950.244522,0.20159378916944345,0.20155223195488164,-0.023370097039434923,0.03476682232586153,nan
1740794950.248428,0.1664082035453336,0.3978111347454068,0.4452971378996493,0.24254759993197408,nan
1740794950.2523339,0.1379249122738162,0.2735062197104547,0.2662754779701035,0.32959999082090663,nan
1740794950.25624,0.08765365942388953,0.11883814814942381,-0.23186024738391703,0.16503851675519904,nan
1740794950.2601457,-0.025727528354789017,0.14333012707354795,-0.3858780439288154,-0.10804991431717692,nan
1740794950.2640572,-0.16559959755076084,0.26588336861516537,0.007850685327203823,-0.24142174378005635,nan
1740794950.2679632,-0.23599017125654165,0.27069514796287864,0.48468757628850623,-0.1750918619354789,nan
1740794950.271869,-0.19690445558535402,0.07846012054829962,0.5028865908436703,-0.08661307632103547,nan
1740794950.275775,-0.11877884748884811,-0.19657165324444806,0.08285812083692479,-0.13830281504952152,nan
1740794950.2796807,-0.08934776503161172,-0.4067478637249388,-0.2716222719725951,-0.2501206980257617,nan
1740794950.2835867,-0.08870180218537443,-0.4927844706450972,-0.22014580378774531,-0.19419013562070742,nan
1740794950.2874928,-0.007892596846370508,-0.4381366290318787,0.03134306492131675,0.10261230176127774,nan
1740794950.2913985,0.19344803939702482,-0.2044213709384688,0.061228987289564864,0.4287877786505077,nan
1740794950.2953045,0.3891950776031188,0.19217747615975786,-0.191929913272048,0.5001180224454806,nan
1740794950.2992103,0.3935571538819401,0.5649226689289585,-0.358653835744768,0.2627135917025746,nan
1740794950.3031163,0.166205280549857,0.6339946652007459,-0.14368623730881233,-0.06606193535232127,nan
1740794950.307022,-0.1263629326641408,0.2998119409982854,0.26342978791961186,-0.24465574585282066,nan
1740794950.3109334,-0.27490355856746856,-0.19059271403866476,0.4043805526456387,-0.23441830495558946,nan
1740794950.3148391,-0.2323225934770188,-0.43066541674653464,0.116528544227981,-0.16302170281150455,nan
1740794950.3187451,-0.1292963583282446,-0.2413960435114084,-0.26543123749487363,-0.12525114751821176,nan
1740794950.322651,-0.09940308874680052,0.153796465494316,-0.308454235611039,-0.09367205365906325,nan
1740794950.326557,-0.13157092973116827,0.3584783458486568,0.02597795417873124,-0.019351923143722655,nan
1740794950.330463,-0.11453182557616577,0.18354448983716526,0.3779328727805261,0.060818381137458945,nan
1740794950.3343687,0.005166395541202006,-0.21581557311243452,0.4206381379770579,0.07386532753727883,nan
1740794950.3382747,0.15515012131172096,-0.5344423689612305,0.17271523112507353,0.03351596988076295,nan
1740794950.3421805,0.22933963087076759,-0.5778033978474809,-0.12911089750699484,0.03932867721335303,nan
1740794950.3460865,0.20715828370927253,-0.33521266038605213,-0.33227008640136735,0.1355775761963059,nan
1740794950.3499923,0.15164137754791504,0.09943644872173422,-0.43460644327834747,0.22621117949362904,nan
1740794950.3538983,0.10944761157110834,0.5751946973720597,-0.42082181982565764,0.17980831430608207,nan
1740794950.357809,0.05662739559884921,0.8702062897884699,-0.21034607501747715,-0.0017820615463102975,nan
1740794950.3617148,-0.04498072967721261,0.7618748562145556,0.16418716379618592,-0.17522550603280226,nan
1740794950.3656209,-0.17154021306930986,0.22415692634786563,0.4501785220757444,-0.22346091454464043,nan
1740794950.3695269,-0.2512120135943335,-0.4531933993724614,0.4022758743091628,-0.17923832356187402,nan
1740794950.3734326,-0.24609079615071472,-0.8364069056280272,0.11048431073824275,-0.14577624763296457,nan
1740794950.3773386,-0.18636961301220142,-0.7070095488836076,-0.04508845591486705,-0.13483242937554113,nan
1740794950.3812444,-0.11346208541165685,-0.24616032222973216,0.1478584828503145,-0.05556055113905705,nan
1740794950.3851504,-0.019989896067561005,0.1600463763528726,0.4125737330189524,0.12664611584812946,nan
1740794950.3890562,0.12210288041884275,0.2821533893301871,0.2654572375886077,0.29113069523265855,nan
1740794950.3929622,0.28382111156178264,0.19279385915351407,-0.3731651567818896,0.2836941208492094,nan
1740794950.3968682,0.37009166848017855,0.0913666138185031,-0.987512021024357,0.11318419726215653,nan
1740794950.400774,0.3105306670066294,0.07074588195526856,-0.9828305164656911,-0.04622303436359771,nan
1740794950.4046845,0.14118341845583512,0.09282932487864573,-0.32939639227308337,-0.06750788683284698,nan
1740794950.4085903,-0.031075694132425825,0.12036801777283493,0.4269088050320655,-0.021462010475625022,nan
1740794950.4124963,-0.14172621040580063,0.16442496516060817,0.7799992580697545,-0.05773176248802859,nan
1740794950.4164023,-0.21828020967853945,0.1899997251116352,0.7388543405592778,-0.17323863967902206,nan
1740794950.420308,-0.3075355724431007,0.08074005831574671,0.6150539842499693,-0.19551756408862883,nan
1740794950.4242141,-0.3809474802901624,-0.2064124067234135,0.48457117276101636,-0.028836167797397564,nan
1740794950.42812,-0.34599200349960424,-0.4857905082131833,0.09624046566198032,0.16512805935191,nan
1740794950.432026,-0.15248170602211136,-0.46682912592233344,-0.6348299861894107,0.13217912769760404,nan
1740794950.4359317,0.1378009718437821,-0.096215828663838,-1.2537973903845963,-0.13483692390611732,nan
1740794950.4398377,0.397466518304383,0.2967707463730965,-1.1270621314349365,-0.3250039285267557,nan
1740794950.4437437,0.5289815602816006,0.31077889956965515,-0.19368303094960068,-0.14946789081721576,nan
1740794950.4476495,0.4999079810148922,-0.058661109091099485,0.8272380889643464,0.2927430809051887,nan
1740794950.4515598,0.3139749993282868,-0.35705518737319925,1.1140809492799808,0.5837649250826024,nan
1740794950.4554656,0.0035439694579585666,-0.1552809075003193,0.5672405414642528,0.4388352098560748,nan
1740794950.4593716,-0.3307223197382103,0.44025721984261357,-0.16257872925935027,0.01267238197791823,nan
1740794950.4632776,-0.522697719268263,0.8534728308245249,-0.43765131579049904,-0.3004489063225585,nan
1740794950.4671834,-0.45523692428888873,0.636806717698073,-0.259046622147563,-0.31716771619206635,nan
1740794950.4710894,-0.19352663897687755,-0.06273733580196576,-0.06590810345492867,-0.21578471802080906,nan
1740794950.4749951,0.038450880068255804,-0.6803891905755886,-0.07949395691552005,-0.2325586992383568,nan
1740794950.4789011,0.0646691645083723,-0.818316787610571,-0.07821966655814633,-0.3245636508354909,nan
1740794950.482807,-0.05749891726035074,-0.5651892142594537,0.16026902981032792,-0.24073736002488488,nan
1740794950.486713,-0.09321815098950073,-0.2514679891973763,0.4276307264544779,0.10606185825564049,nan
1740794950.490619,0.11022345121320112,-0.027038694027796014,0.305906111593782,0.4704949573626062,nan
1740794950.4945247,0.4396650970103063,0.20653590721496964,-0.23202094975872928,0.5438734612329755,nan
1740794950.498437,0.6155289146592728,0.5016283848145936,-0.6702849486411905,0.31706919335802797,nan
1740794950.502343,0.4665415943916868,0.677193256067305,-0.512760543858272,0.06850649311248323,nan
1740794950.506249,0.08177952761569396,0.523631492941923,0.11701098237247161,-0.00018040197274348167,nan
1740794950.5101547,-0.3031681841239393,0.11824925961367032,0.5948745609094336,0.0006520200455941281,nan
1740794950.5140607,-0.5263223806072307,-0.20507841728378057,0.4919991586368988,-0.15392087470216767,nan
1740794950.5179665,-0.5786619094554163,-0.23281138064472284,-0.00022043181491966565,-0.4475086922106837,nan
1740794950.5218725,-0.5043068678196453,-0.11886335184357039,-0.3779919850491596,-0.5938090782552486,nan
1740794950.5257783,-0.303279575675647,-0.17110042393337915,-0.3950570360381724,-0.3857579043786628,nan
1740794950.5296843,0.023743529451513642,-0.43730848660931837,-0.17961439899552661,0.031900407958577966,nan
1740794950.5335903,0.373533019268202,-0.6172477214709987,0.11067582484184246,0.32457063692341764,nan
1740794950.537496,0.5611253086284338,-0.4178453390605976,0.4772899907971699,0.352414381162651,nan
1740794950.541402,0.4814862278382708,0.08961867655366841,0.8243193179986744,0.2803019839824767,nan
1740794950.545314,0.22849671357358584,0.5432003177434301,0.7496318742654039,0.29258303808047365,nan
1740794950.5492198,0.015849137807360997,0.6795494885679692,-0.08088149593249529,0.32195704840843686,nan
1740794950.5531259,-0.026930863405215767,0.5521507163827096,-1.307625599812218,0.1691497013776383,nan
1740794950.5570316,0.034766994193324866,0.3561865751304899,-1.912637249879127,-0.1608517172484369,nan
1740794950.5609376,0.030533269049876705,0.1538210832950498,-1.1612115298173056,-0.3958095118850689,nan
1740794950.5648437,-0.13656923462787512,-0.12533330670387066,0.5129281937186867,-0.3297797398795228,nan
1740794950.5687494,-0.403806557316308,-0.45909958965820014,1.7901480997788384,-0.11201377205098709,nan
1740794950.5726554,-0.6068596635611,-0.6532456793662903,1.738901704460068,-0.07029161439336276,nan
1740794950.5765612,-0.5945987624350838,-0.5524817707789363,0.6893308206333473,-0.2654568214927302,nan
1740794950.5804672,-0.3117512790250404,-0.2493911389237697,-0.26719304834413443,-0.371876125707019,nan
1740794950.584373,0.16511039874608988,0.019047069234219238,-0.5104304720584527,-0.08662217738029382,nan
1740794950.588279,0.6369832431433179,0.15790264091233727,-0.3856968327376127,0.43589878576905455,nan
1740794950.5921907,0.8675821951589567,0.28054981943054247,-0.48354861712286523,0.7085450786520501,nan
1740794950.5960968,0.7363164493768817,0.4567220263091616,-0.7638493073622595,0.48080045109994723,nan
1740794950.6000028,0.3431737392261721,0.5201228328345128,-0.690629248044738,0.04384368680103613,nan
1740794950.6039085,-0.06423778242452921,0.26641403192968416,-0.11820893397044806,-0.13096779772807404,nan
1740794950.6078146,-0.3032108702721217,-0.1878863012318941,0.3735224299140453,0.025525786493388436,nan
1740794950.6117203,-0.39324410787663705,-0.41967552180743584,0.23904932942382576,0.11969939702769368,nan
1740794950.6156263,-0.4652565427583494,-0.17639353537343827,-0.19336483008597516,-0.16321226615547446,nan
1740794950.619532,-0.5573993172144388,0.25648956301720044,-0.043163665568226615,-0.6158257432383092,nan
1740794950.6234381,-0.5574415443677773,0.3289220309016485,0.9198195709458724,-0.7443615143565819,nan
1740794950.6273441,-0.3644849830139617,-0.12102544043974421,1.759776424213404,-0.38379544092413737,nan
1740794950.63125,-0.0458957933666763,-0.6408946408118537,1.3651949585187195,0.10395079269519997,nan
1740794950.635156,0.23853929186575507,-0.6880144537644276,-0.18207302557447191,0.2998091482131299,nan
1740794950.6390674,0.4482760523879163,-0.26826481534280655,-1.595130611447763,0.23847816662125798,nan
1740794950.6429734,0.6912648066071473,0.12882043262324447,-1.8191525588514725,0.28609858919468195,nan
1740794950.6468792,0.9807583327778977,0.21185999821663667,-1.1494487732707843,0.5672470389165516,nan
1740794950.6507852,1.0493985810945532,0.2575914060579582,-0.6365791648148366,0.7430834223978823,nan
1740794950.654691,0.5682670856718925,0.6274329868937134,-0.5991904205843062,0.4714356207930619,nan
1740794950.658597,-0.39332980777158666,1.0777270076925025,-0.2536927119002522,-0.07507869755168299,nan
1740794950.662503,-1.253455501097606,0.9058506538763462,1.005830834383641,-0.39003489811060477,nan
1740794950.6664088,-1.429265979985005,-0.09421322849541469,2.4220220823198964,-0.33283812770652477,nan
1740794950.6703148,-0.9698101217426383,-1.1144933296573412,2.5432406381428563,-0.38240003576692905,nan
1740794950.6742206,-0.5146056247743591,-1.146192040883343,1.064117606105592,-0.9762656887862212,nan
1740794950.6781266,-0.5000967887213158,-0.29528057172532707,-0.5939785594582987,-1.7093909567293095,nan
1740794950.6820323,-0.5177841725999516,0.14594278523635626,-0.9577055730162581,-1.5285720546366666,nan
1740794950.6859436,0.2759896872827714,-0.7147858269829227,-0.4274700335629852,0.08338370779020539,nan
1740794950.6898494,1.9868217076277788,-1.9163235404659547,-0.8191271297113342,2.2611830754194453,nan
1740794950.6937554,3.403744962076355,-1.3695657360149938,-2.7834183938122847,3.3664075102924724,nan
1740794950.6976612,2.9361435404424685,1.6214461472873474,-4.323273297943717,2.531526338831967,nan
1740794950.7015672,0.31184230546356034,4.870739683443385,-2.6907667923288754,0.47382781720952605,nan
1740794950.7054732,-2.786152662654121,4.998286599565605,2.1554779311812817,-1.30469750219015,nan
1740794950.709379,-4.053044955777832,0.9534665486812264,6.668110272213545,-1.9895852837476622,nan
1740794950.713285,-2.6887168878820797,-4.389967736217808,6.906318091427616,-1.9554019941168646,nan
1740794950.7171907,-0.15195114849895763,-6.6303917548971185,2.5456104512212367,-1.8905581510859426,nan
1740794950.7210968,1.3022321337302722,-4.016879437874024,-2.757472427109954,-1.7742390024302448,nan
1740794950.7250025,0.8352709489220643,0.9136047921280682,-5.083972761094665,-0.9874989564705985,nan
1740794950.7289085,-0.2892674172989601,3.970460120675259,-3.891264461120704,0.6703126111224036,nan
1740794950.7328193,-0.21714303696328144,3.3830150659520815,-1.6798960902143725,2.4283054107713506,nan
1740794950.7367253,1.429688882201912,1.0219211122375071,-0.5669561919789181,3.195669533916278,nan
1740794950.740631,3.112239147572315,-0.2518633312766439,-0.11998154707710451,2.6271990517533323,nan
1740794950.744537,2.9718024344709675,0.14451574781175067,1.1451949641068926,1.3293542333302077,nan
1740794950.748443,0.7421174246639163,0.3377558977705358,2.9809413081176555,0.054086504328900865,nan
1740794950.752349,-1.992355473791349,-1.1476551317426256,3.2756187463873734,-1.0383182400281878,nan
1740794950.7562547,-3.360606963631958,-3.115282223475888,0.9140581317309335,-2.1747654501869014,nan
1740794950.7601607,-2.9033620952947072,-2.8605049597684498,-2.150049764590291,-3.239572479627869,nan
1740794950.7640667,-1.7121662780611075,0.48651333848984313,-2.6689877676547176,-3.580289489671583,nan
1740794950.7679725,-1.0240713816916913,4.368753514582248,0.06044352462845538,-2.6218823709542525,nan
1740794950.7718785,-0.8451094007685983,5.027530837959583,2.9859526096546913,-0.47813911619373284,nan
1740794950.7757843,-0.042641697916026844,1.3364946183550248,2.528899429253927,2.1625386008762963,nan
1740794950.7796948,2.2087286911781083,-3.829793753606956,-1.2942542844891554,4.543227028395361,nan
1740794950.7836008,5.110645488603592,-6.184568277131746,-4.697519180044383,5.94349073965898,nan
1740794950.7875068,6.443269263461878,-3.940340313532986,-4.223027772586808,5.428712215447401,nan
1740794950.7914126,4.29223031553646,0.8154761055168017,-0.44196015763755603,2.1710097264982617,nan
1740794950.7953186,-1.0941455095386463,4.361039540253727,2.910460896663292,-3.337230375995059,nan
1740794950.7992244,-6.945775957473199,4.671287810254284,3.1696881107948913,-8.454326995984067,nan
1740794950.8031304,-9.621360910590273,2.6153193266204084,1.3520640045141123,-9.589835663385909,nan
1740794950.8070364,-7.174323714160093,0.348274331815703,0.33655598660513575,-5.1394187047210504,nan
1740794950.8109422,-0.8955943014540964,-0.9692826131765686,1.1521919973414563,2.4952946191827996,nan
1740794950.8148482,5.452202071644067,-1.767524101848776,1.9241877550927775,8.247373137722542,nan
1740794950.818754,8.236924664217094,-2.783124145407919,0.5245533008869429,8.394290961284185,nan
1740794950.82266,6.423989321144603,-3.6814042771829207,-2.5474962563436376,3.6260475495562634,nan
1740794950.82657,2.0016284828074613,-3.2040784779481615,-4.585213387433561,-1.8006270455091165,nan
1740794950.830476,-1.8611588713601754,-0.6363541920462237,-3.7285673152288203,-3.9939923895934633,nan
1740794950.834382,-3.269972966660273,3.0356399054817733,-0.8796329870565563,-2.6007862682517064,nan
1740794950.8382878,-2.6273805806259087,5.562780729635742,1.6288539943109932,-0.33477648638924645,nan
1740794950.8421938,-1.6077387545371353,5.159171024824477,2.6506113918604686,0.21156303941601168,nan
1740794950.8460996,-1.3306225709582689,1.9816700577863076,2.8578203070318513,-1.001697934800041,nan
1740794950.8500056,-1.5038970386908648,-1.9435179866250958,2.9811151790522716,-2.01581055056165,nan
1740794950.8539114,-1.1240940835124429,-4.273101582798641,2.38965152801851,-1.3071764155586185,nan
1740794950.8578174,0.24305102546153656,-4.0425356187334165,0.10309662127351572,0.6965313291014555,nan
1740794950.8617234,1.9583161720495628,-2.114136714735564,-3.1404790351578074,2.3513323307267506,nan
1740794950.8656292,2.9375965028590967,-0.14005438232244175,-4.81036640649868,2.55614919099171,nan
1740794950.8695352,2.6104097893056455,0.8914307289657605,-3.1311017226718034,1.5521322147612522,nan
1740794950.8734474,1.2679777716300409,1.1932914334409974,0.6316424305003866,0.26146489270946754,nan
1740794950.8773534,-0.3344107122002379,1.4687507053400015,3.1049455283500467,-0.7004179809397536,nan
1740794950.8812592,-1.5439758718384522,1.8778515812137602,2.2363541980505515,-1.2423229672654674,nan
1740794950.8851652,-2.046667902088077,1.8429005394165754,-0.5620940620178577,-1.389594783218064,nan
1740794950.8890712,-1.8108418145176253,0.8453492827418851,-2.0085151548048357,-1.0785138019807705,nan
1740794950.892977,-1.0234146244061129,-0.7679839846234745,-0.5230788062358908,-0.40458442907963155,nan
1740794950.896883,-0.07189057508905682,-1.9483642900792255,2.1758954308793648,0.22051050054396543,nan
1740794950.9007888,0.6024122674172132,-1.9313559110687697,3.0900052705891174,0.4095419371607227,nan
1740794950.9046948,0.7932760030982869,-0.952295411208721,1.1785436168835464,0.2457993623392905,nan
1740794950.9086006,0.6755954714018364,0.07784068784635854,-1.7200425889255595,0.18666709281132274,nan
1740794950.9125066,0.5855720022978225,0.5119589046537139,-3.0167319329206737,0.471354517091633,nan
1740794950.9164126,0.6362651134813451,0.45352850125487326,-1.974740634788319,0.7818688781734326,nan
1740794950.9203246,0.6108812427468104,0.35456594608937236,-0.056152649312286064,0.628545342064576,nan
1740794950.9242303,0.27052286072028753,0.3688685997201813,0.9485039935660486,-0.002633677602497951,nan
1740794950.9281363,-0.29574856838239116,0.2943176601672269,0.6805363819687508,-0.5710050836001866,nan
1740794950.9320421,-0.7176293443345675,0.06308738058211108,0.11055758454782223,-0.597281036082158,nan
1740794950.9359481,-0.7413841867334651,-0.016430957821953085,0.13149196073573574,-0.21780701705321692,nan
1740794950.939854,-0.49373285358710645,0.30887103759878953,0.6338639297989405,0.01048661500319578,nan
1740794950.94376,-0.2912403868134048,0.7104671145391794,0.900904797311012,-0.19396989369334372,nan
1740794950.947666,-0.24314585521908244,0.4958889944434146,0.5485239993680048,-0.5044433615284413,nan
1740794950.9515717,-0.15082846969688332,-0.5215301765029023,-0.13341304568947238,-0.4111347282647521,nan
1740794950.9554777,0.17644020699046084,-1.5624080193993177,-0.6226222045518383,0.14046770264223835,nan
1740794950.9593835,0.6059001828898647,-1.5646716430649361,-0.6950933078762215,0.6768211928394946,nan
1740794950.9632895,0.7864707456573944,-0.3724843861152589,-0.4928364072995253,0.7429172759938465,nan
1740794950.9672015,0.5574537580591903,0.9597530154891782,-0.25532035979843026,0.3808674441982947,nan
1740794950.9711072,0.146863048076251,1.2278652252220126,-0.11475933038269123,-0.0020490402585665477,nan
1740794950.9750133,-0.09921285411107807,0.380078291003773,-0.07676830959711693,-0.13803062102337735,nan
1740794950.978919,-0.12259281024856408,-0.43601679725358916,-0.05392271826325948,-0.1312956130561411,nan
1740794950.982825,-0.18146369658106754,-0.18591937554434634,0.09137723345271664,-0.19751257001767908,nan
1740794950.9867308,-0.45970750207399075,0.85465762991871,0.4164341313999176,-0.3281184451106063,nan
1740794950.9906368,-0.7540429831277116,1.391492575573092,0.7481617180273236,-0.3291180344180532,nan
1740794950.9945428,-0.6612970682879888,0.5703826772204121,0.7523481359481646,-0.13452960806868286,nan
1740794950.9984486,-0.07505332345056608,-1.0437940817954432,0.2702659690198811,0.06825064000338779,nan
1740794951.0023546,0.6032531977808662,-2.0429872912860176,-0.42290726555365604,0.07925762269746948,nan
1740794951.0062604,0.825177346256977,-1.6184254376627747,-0.8063288461964587,-0.04057080895855765,nan
1740794951.0101664,0.45046236157133884,-0.27701112135633865,-0.6183373657731757,-0.04109563539086075,nan
1740794951.014078,-0.11518886930404817,0.8371533608442783,-0.12118147767108373,0.18673040964903811,nan
1740794951.0179837,-0.3452232557619692,1.1134459947148778,0.1936720163319928,0.45034399448888635,nan
1740794951.0218897,-0.10915388102944587,0.8410884478430353,0.12250441971778085,0.46895446240040317,nan
1740794951.0257955,0.2569711990945408,0.5687684163458002,-0.10314383323095436,0.18876205602232063,nan
1740794951.0297015,0.34635146867876715,0.4060692893694064,-0.15751016577369412,-0.17803163265978156,nan
1740794951.0336075,0.07977920080576774,0.08945045413055636,0.01571724341617764,-0.3983034018917811,nan
1740794951.0375133,-0.2871974502983365,-0.4421589657011296,0.2360331442321449,-0.4199431502850767,nan
1740794951.0414193,-0.47214814768612273,-0.8230903559671694,0.3686768438445452,-0.3212332414956477,nan
1740794951.045325,-0.41165235277912754,-0.6922191065614236,0.42067976736787305,-0.15691028866457754,nan
1740794951.049231,-0.22632532495820185,-0.18152886905094,0.36996876664314193,0.05646123193779447,nan
1740794951.0531368,-0.03537163950993046,0.20376002882589705,0.09096161347403069,0.23849613146383639,nan
1740794951.0570428,0.13398585999381987,0.1728486454914231,-0.41057447181317025,0.2532549822442771,nan
1740794951.0609539,0.28562049195761785,-0.03981800659561061,-0.7890045120792655,0.08303240618244509,nan
1740794951.0648599,0.38269277302060273,-0.020518478302413802,-0.6167116485212624,-0.07560037499639155,nan
1740794951.0687656,0.3738019121069315,0.27747983400945886,0.06596015283224711,0.0018153461353721317,nan
1740794951.0726717,0.2611995034702362,0.4790600382726255,0.6224444783930718,0.27340909129373386,nan
1740794951.0765774,0.10144866016724235,0.27661237171251934,0.4444474486003147,0.4146273293908707,nan
1740794951.0804834,-0.06019263649368501,-0.1643226340380071,-0.30410671990205657,0.16816945560613164,nan
1740794951.0843894,-0.222180536132462,-0.387167349873777,-0.7619651900162147,-0.32460758919482846,nan
1740794951.0882952,-0.3800010055869167,-0.1799651833403655,-0.3078574393537032,-0.6280115033377455,nan
1740794951.0922012,-0.4745072842651339,0.1876278101937463,0.6843815303671349,-0.4690959195976946,nan
1740794951.096107,-0.42186074084182557,0.28905313292299445,1.2045112695272142,-0.029178389446253884,nan
1740794951.100013,-0.20025344387046756,0.017173737015674578,0.7178910780703567,0.2684137614070011,nan
1740794951.1039188,0.11088354989018719,-0.33404887588499504,-0.25981589477483275,0.22105548191683655,nan
1740794951.1078296,0.3846594222928662,-0.423085635627984,-0.7980438849013974,0.02318817637025926,nan
1740794951.1117356,0.5271969125072564,-0.20523438536057445,-0.6132916756894785,-0.018046440573128576,nan
1740794951.1156414,0.504094110619118,0.08866873703250593,-0.27086619693047603,0.14620857377216956,nan
1740794951.1195474,0.32129036912086484,0.23256222238233143,-0.3297749692946317,0.28818706328248234,nan
1740794951.1234534,0.023875747968102663,0.19632920329612163,-0.5629371979237823,0.213672224465507,nan
1740794951.1273592,-0.2813154783842799,0.09821834820770632,-0.2761184270104423,-0.011817926991565914,nan
1740794951.1312652,-0.44893043728776544,0.060802325096305204,0.6725464293157852,-0.17980761606914292,nan
1740794951.135171,-0.39548930167748775,0.1331456651743587,1.4871601449545286,-0.20361829763060801,nan
1740794951.139077,-0.18820165342544526,0.27267958738005454,1.2589081752290883,-0.17830534242683235,nan
1740794951.1429827,-0.0019380548702196815,0.3339142625623065,0.05003196831922277,-0.19256119271706285,nan
1740794951.1468887,0.04256706177730331,0.12565960132742826,-1.0904048223172187,-0.18375747929205852,nan
1740794951.1507947,-0.005983264773961087,-0.3964672173869296,-1.2352947293800058,-0.043600882012812835,nan
1740794951.1547053,0.0035080638350475195,-0.9497390082966141,-0.5158321558420821,0.18315417808336715,nan
1740794951.158611,0.14107921665894366,-1.0391733241004435,0.17754972317506038,0.30294862533454914,nan
1740794951.162517,0.3035191105901982,-0.39951644176029344,0.28301431065512284,0.2005670045672603,nan
1740794951.1664228,0.3237547820429233,0.6397088845565283,0.09512352473868978,-0.004467466008059997,nan
1740794951.1703289,0.1593242027066248,1.326906098760711,0.17214220832156743,-0.08907655629493383,nan
1740794951.1742346,-0.057140475579325785,1.137608058708375,0.4928498095868807,0.009479246033505518,nan
1740794951.1781406,-0.1632324448786516,0.2719376645245653,0.4909038790984088,0.12804786412290556,nan
1740794951.1820467,-0.13850659508831195,-0.5414390193436242,-0.10185699239788035,0.08893549729851874,nan
1740794951.1859524,-0.10551895522086902,-0.7521966970106051,-0.7537252771438855,-0.08411502787060736,nan
1740794951.1898584,-0.16523914772638976,-0.4598496256181844,-0.6963615449362986,-0.21208988862966702,nan
1740794951.1937642,-0.2641308906244741,-0.16915390139438896,0.10879437059726485,-0.19095680336922935,nan
1740794951.1976702,-0.2494209536438241,-0.15845222841561118,0.828832339642662,-0.1002579470678443,nan
1740794951.2015805,-0.048813641938755294,-0.20718037628275648,0.6799824935871959,-0.0632724969920629,nan
1740794951.2054863,0.23064722182242206,0.030172051921611386,-0.16846631411940308,-0.06666908543717091,nan
1740794951.2093923,0.395319647526148,0.4983245029568061,-0.7878514946574001,0.008983680982148384,nan
1740794951.213298,0.34663251666342376,0.7310241956667936,-0.548450821170359,0.19318647360718968,nan
1740794951.217204,0.15945364357843547,0.38956896080612996,0.20540470329487912,0.34107774881805186,nan
1740794951.2211099,-0.012222772141182645,-0.29102216804113334,0.6150028748706186,0.2916033866413683,nan
1740794951.2250159,-0.08693577906665802,-0.6969003841329358,0.29886338402893325,0.07071023258262071,nan
1740794951.228922,-0.10546561116921477,-0.473688176011073,-0.29073587999913614,-0.12845680142493981,nan
1740794951.2328277,-0.14622335786708435,0.10694294250937846,-0.4786765908733991,-0.17034044379102722,nan
1740794951.2367337,-0.21739213573948707,0.45676378598106027,-0.13755820937067043,-0.1213804411302621,nan
1740794951.2406394,-0.2451727059392165,0.2971225082262599,0.27246947180130354,-0.1327973633918153,nan
1740794951.2445455,-0.16068170255661812,-0.09179599012604239,0.3258054088598469,-0.22103581171077422,nan
1740794951.2484577,0.01600341987847311,-0.2396449129754683,0.09339676181926754,-0.2369929106960667,nan
1740794951.2523637,0.18315368337241097,-0.0222665682467935,-0.061508140390898684,-0.06680206478684733,nan
1740794951.2562695,0.24421069846399976,0.2336451155607036,0.009343111968622813,0.19700872598499,nan
1740794951.2601755,0.18619286956546977,0.15855804627691786,0.09766245138352068,0.3399436897949196,nan
1740794951.2640812,0.07950456578983327,-0.2246573433420822,-0.020179006880626828,0.26477935344412135,nan
1740794951.2679873,0.008896108264892927,-0.5181769877562867,-0.26086224428999066,0.0893207099477296,nan
1740794951.2718933,0.0038533902218716243,-0.3774494470363588,-0.3444681540312525,-0.010679386247690588,nan
1740794951.275799,0.025811315342131016,0.1253567572935995,-0.15533272109536272,-0.006987155028476801,nan
1740794951.279705,0.012571176665593771,0.5747263706000569,0.12466254061340416,-0.018392857183825335,nan
1740794951.2836108,-0.06486181730335754,0.6164749111735871,0.2502023928542395,-0.12333241217748905,nan
1740794951.2875168,-0.17730288617437728,0.26756264512750616,0.1841047918262564,-0.23947274156912102,nan
1740794951.2914226,-0.2557149762778682,-0.15360261673144393,0.07981344470177494,-0.2249132886772079,nan
1740794951.2953346,-0.23445022729975856,-0.35694434565466837,0.054197568873418034,-0.06436649929344744,nan
1740794951.2992406,-0.09328643037651102,-0.31814548215054644,0.06869347193291014,0.10097234316604435,nan
1740794951.3031464,0.12148252734208896,-0.2146268418510985,0.03421793851690632,0.13561078217197087,nan
1740794951.3070524,0.30966885061410343,-0.17937914363600801,-0.05329294479588456,0.058779253754046586,nan
1740794951.3109584,0.366444766381176,-0.15819025462532232,-0.13234491997238096,0.0023487912809051084,nan
1740794951.3148642,0.2489695945952738,-0.01280234531940282,-0.17770379133716072,0.04382601067040979,nan
1740794951.3187702,0.016277398637162283,0.26605453995609984,-0.20538234042579834,0.1239636712038962,nan
1740794951.322676,-0.1982268667515376,0.4896731550722658,-0.18574698572228734,0.13466264530355665,nan
1740794951.326582,-0.27497792662807824,0.439871928503693,-0.04009339080613956,0.05054452070460361,nan
1740794951.3304877,-0.1928413522381734,0.10364485723915724,0.2248100169416127,-0.05497814687511638,nan
1740794951.3343937,-0.038216448604304204,-0.281875641975755,0.43174442866092033,-0.106189713491746,nan
1740794951.3382998,0.07073997321906855,-0.43690858466134636,0.3714203598525903,-0.10056446309109454,nan
1740794951.3422112,0.07691625109502268,-0.2923652092814699,0.04340361119614933,-0.08377693491758892,nan
1740794951.3461173,0.013386251481073606,-0.02978636079208389,-0.29997906538398406,-0.08209326190269416,nan
1740794951.350023,-0.0457083637722448,0.12347270107536719,-0.3936605326937566,-0.08312680426941728,nan
1740794951.353929,-0.05319716763506289,0.11441291851528057,-0.21799881661005735,-0.06708793870955136,nan
1740794951.357835,-0.012214900276314774,0.06726229910590605,0.02035066368208548,-0.026359931783408737,nan
1740794951.3617408,0.04839572402488368,0.09182640307284246,0.1382380106846321,0.045046389070956164,nan
1740794951.3656468,0.10196818506105013,0.13848802382007766,0.139912909129574,0.1483040813910131,nan
1740794951.3695526,0.12718714039731732,0.07135168098568642,0.12481170854894151,0.24723189054359848,nan
1740794951.3734586,0.10475407697635715,-0.13720269300685953,0.11542877093004274,0.2638239995557541,nan
1740794951.3773646,0.032327237381338324,-0.33192396472454594,0.05427330553413041,0.14551145633260343,nan
1740794951.3812704,-0.057440143609762,-0.31538231740108,-0.05926465378504918,-0.05839276306976182,nan
1740794951.3851764,-0.11282692866713934,-0.047178416973219985,-0.13313563016938015,-0.21960766176305088,nan
1740794951.3890877,-0.11091830717801185,0.31175847683905744,-0.12135505040534847,-0.25296891413588823,nan
1740794951.3929937,-0.08282889509338952,0.5357514591304005,-0.113614276790327,-0.19911546593762874,nan
1740794951.3968995,-0.07564259476438448,0.49190838372382856,-0.19119367715544489,-0.15805023348107924,nan
1740794951.4008055,-0.08854685175240203,0.18739540879349195,-0.22947028306027578,-0.14949397355732058,nan
1740794951.4047115,-0.06506008383901078,-0.26373644324269396,0.011394844445539615,-0.0828158597434852,nan
1740794951.4086173,0.036350325817286276,-0.6684657870756725,0.522175901685545,0.11066730100667628,nan
1740794951.4125233,0.17280628091780054,-0.7936198091622653,0.8732557687952387,0.3469480378082632,nan
1740794951.416429,0.2416255441740782,-0.4928775050459832,0.5837046204343231,0.4421421378776826,nan
1740794951.420335,0.18468745687621188,0.12502776955885742,-0.2884956529350735,0.3062885080167466,nan
1740794951.4242408,0.05419285467887487,0.6867179388493272,-1.0522787435133003,0.04681423841972627,nan
1740794951.4281468,-0.043895939592409255,0.8147212394474171,-1.0237776974346702,-0.1503622910940529,nan
1740794951.4320529,-0.06818302015879138,0.46244527686544784,-0.25617147998886847,-0.2191212514609103,nan
1740794951.4359639,-0.08051530448308718,-0.0320717096493653,0.49004550783722,-0.2468809479660499,nan
1740794951.4398696,-0.15367686643594747,-0.2763039290669308,0.561587771453927,-0.31050064671958216,nan
1740794951.4437757,-0.2574016031217607,-0.20728397503836044,0.10658275010689638,-0.33837740420272727,nan
1740794951.4476817,-0.26730982307925727,-0.10422414437620488,-0.15503147049703223,-0.19170100786051886,nan
1740794951.4515874,-0.10022529317981207,-0.2123269258389527,0.18223646530300527,0.12963819408952706,nan
1740794951.4554935,0.17413309732561766,-0.42153960023975773,0.7139845736421866,0.4261295746517932,nan
1740794951.4593992,0.37620801911141105,-0.3946040612401231,0.7075744304516142,0.4819181384367747,nan
1740794951.4633052,0.373969711139376,-0.003645303090952786,-0.016941495171570158,0.28510621288474053,nan
1740794951.467211,0.190769135853457,0.45545715317328084,-0.8526307698280815,0.025362544059048614,nan
1740794951.471117,-0.03649848092609878,0.5568524001432844,-1.0785265999580382,-0.12025574140970352,nan
1740794951.475023,-0.18406732041452328,0.2233355697294214,-0.6240066200332092,-0.1507385983456048,nan
1740794951.4789288,-0.21695872463953889,-0.17442217161643836,-0.04175656108039099,-0.17304190102690892,nan
1740794951.4828398,-0.16567384963712511,-0.22740839660078627,0.20656168494328422,-0.22159814026687577,nan
1740794951.4867456,-0.0729647688456173,0.06369213633742563,0.2398399398434825,-0.21314823657460236,nan
1740794951.4906516,0.01843291300474722,0.31563978056151226,0.4522684316412316,-0.08564965107218435,nan
1740794951.4945574,0.056270948769605554,0.21425943889517504,0.864099229345768,0.0830527691602916,nan
1740794951.4984634,0.006442397036257602,-0.14893185520625624,0.9934871550370314,0.15134700401128937,nan
1740794951.5023694,-0.0922487410201275,-0.4264362864142527,0.4334368661877209,0.0906683954630473,nan
1740794951.5062752,-0.12902484918673537,-0.4252232504150647,-0.578202820883627,0.024205563947659107,nan
1740794951.5101812,-0.016465814669036512,-0.2670690409240395,-1.3062895622469024,0.06599426018408147,nan
1740794951.514087,0.20340240534076373,-0.14397068478523894,-1.2273832835968346,0.16632225964841293,nan
1740794951.517993,0.36719112934934556,-0.035224545858020644,-0.49734904095093313,0.16996644109275721,nan
1740794951.5218987,0.3262207219714302,0.2241375501835663,0.2941038768580827,0.019219373196424958,nan
1740794951.5258048,0.0815812255999617,0.6213554080980378,0.7146465970216278,-0.15927830107641505,nan
1740794951.5297153,-0.21554849277363244,0.845434462901744,0.7493833392925568,-0.20047777065036015,nan
1740794951.5336213,-0.3910345469012319,0.5819321696358705,0.5685580654219425,-0.09764129085309972,nan
1740794951.5375273,-0.3720670510267057,-0.10102353329709772,0.24615956838836492,-0.001457495206874858,nan
1740794951.541433,-0.20558459154230185,-0.7484094617218245,-0.19012631561714824,-0.025568533603387948,nan
1740794951.545339,0.008017300788927165,-0.9304807881564563,-0.5507573754015762,-0.10773028364710792,nan
1740794951.5492449,0.17879365892226892,-0.6193220552971999,-0.5373784284726936,-0.0993571562084014,nan
1740794951.553151,0.2499714834655295,-0.13524264884645396,-0.08625510548200419,0.03838062475173511,nan
1740794951.5570567,0.2078859955580212,0.21918902527241857,0.44053136003452537,0.18427285404235932,nan
1740794951.5609627,0.09675614604898866,0.39206723178362113,0.5425360212645101,0.209021887746048,nan
1740794951.5648687,0.0037791608781709628,0.4688193913368368,0.08662850617022146,0.12583347919046559,nan
1740794951.5687745,-0.009085444408816123,0.4522687305575672,-0.5349974797768297,0.04929510656520912,nan
1740794951.5726805,0.029167566552367696,0.2633418609238718,-0.7813851745673434,0.031321167154371776,nan
1740794951.5765908,0.022570373117247168,-0.064106863492392,-0.46048316894732255,0.0009400541437926149,nan
1740794951.5804965,-0.08110897412400356,-0.3134397492252848,0.1619721989192349,-0.11343007051661408,nan
1740794951.5844026,-0.21234922470747275,-0.29195742634512833,0.6715147197102922,-0.2515677616446357,nan
1740794951.5883083,-0.23827644308708287,-0.0691074364721869,0.8291282395289772,-0.2686815283303745,nan
1740794951.5922143,-0.1071664074956456,0.07981454563932312,0.6168418556200922,-0.11272268496728845,nan
1740794951.5961204,0.08383919847232256,-0.012812895618203752,0.12294612426115045,0.09603922928477346,nan
1740794951.6000261,0.18284676953966086,-0.21350425337557177,-0.4817802740076098,0.19136327417984086,nan
1740794951.6039321,0.1371690899585024,-0.25589897818152957,-0.8963365010072885,0.1397073658311937,nan
1740794951.607838,0.03399534450459415,-0.06263761172175308,-0.8041046037321574,0.05426127126123654,nan
1740794951.611744,-0.01066674153952664,0.17592337160588845,-0.1766329598145166,0.040405310925892994,nan
1740794951.61565,0.023515572548254808,0.24873375433080389,0.5664788792369602,0.07665016269773162,nan
1740794951.6195557,0.06465322908488377,0.16905313185556356,0.8389637963637817,0.07214243451308014,nan
1740794951.623468,0.05464375170010075,0.11088892289317474,0.421580022962223,0.003370558063118941,nan
1740794951.627374,0.011757602853197893,0.1453273669029661,-0.3001998922939576,-0.06094575409894693,nan
1740794951.63128,-0.021303170316802365,0.14377648841376575,-0.6843366339847036,-0.07049858513302348,nan
1740794951.6351857,-0.05313491631418256,-0.021270805924970125,-0.4309831430792836,-0.07133094913908213,nan
1740794951.6390917,-0.12373754930480324,-0.2592388614043858,0.17513944911178772,-0.13066721816507443,nan
1740794951.6429975,-0.2126664642916273,-0.34121257100398517,0.5904976780194836,-0.21024017878581347,nan
1740794951.6469035,-0.2166714747132257,-0.1893332924549104,0.5237706057454565,-0.17848847806404694,nan
1740794951.6508093,-0.0595757510377041,0.010547303981201848,0.12179185622167861,0.025384015172103272,nan
1740794951.6547153,0.18708995028737269,0.0424350640528879,-0.2639471490488067,0.277778367446214,nan
1740794951.6586213,0.33807238446774335,-0.055450790959801446,-0.4028530657109591,0.3704261522292949,nan
1740794951.662527,0.27337573844549706,-0.04300893653606885,-0.2954563750628492,0.22648199223230986,nan
1740794951.666433,0.06608686757799588,0.17827975218520245,-0.07921280964734821,-0.01733189364096109,nan
1740794951.670345,-0.09452708463109026,0.38374461934565623,0.08730795951674554,-0.15956986425827757,nan
1740794951.674251,-0.10319921294020977,0.2831906193320739,0.09104466632430148,-0.13841364098788034,nan
1740794951.6781569,-0.03473517770362193,-0.0783876771780656,-0.06506349735707216,-0.06081878640281824,nan
1740794951.6820629,-0.03211606535610064,-0.3088886754600258,-0.2112382354445919,-0.046961362422591864,nan
1740794951.6859689,-0.12777231294267724,-0.12468770742001278,-0.11033204557048419,-0.09417504447879674,nan
1740794951.6898746,-0.20989497454637332,0.2598092209697175,0.288205577809205,-0.11306722847855147,nan
1740794951.6937807,-0.1628011753544496,0.3265900859168018,0.6945256959975218,-0.059944587417765545,nan
1740794951.6976864,-0.0037109648072342215,-0.13543327145318992,0.6799682849470057,0.015970010845728883,nan
1740794951.7015924,0.14347212197311773,-0.7149939240546815,0.11291066042143406,0.056325378440948065,nan
1740794951.7054985,0.19017443488750302,-0.7756926074094634,-0.6303682542001796,0.07599064375378377,nan
1740794951.7094042,0.16166428116043663,-0.15619738365715696,-0.9684410452646829,0.1267777113819964,nan
1740794951.7133102,0.1295986160088227,0.6200913007590015,-0.6605727637534007,0.19855860604798606,nan
1740794951.717222,0.10447829945525307,0.8803117843318146,-0.021673444233361955,0.2030681956586636,nan
1740794951.721128,0.03296558115635523,0.4898555260294302,0.4215235495739757,0.07417391004275738,nan
1740794951.7250338,-0.10327647406326868,-0.06519207349306845,0.4443059827093619,-0.1384239086863383,nan
1740794951.7289398,-0.2266326559578799,-0.2562284918242396,0.2540598357846157,-0.2994478200296474,nan
1740794951.7328455,-0.23077270173416267,-0.06767831082817977,0.15424088735733568,-0.30709676719586537,nan
1740794951.7367516,-0.10115091913926551,0.07870571051052673,0.18767557572637047,-0.16914545248684912,nan
1740794951.7406576,0.05643058189805656,-0.11960947888966601,0.16497861461316507,0.025438138222522236,nan
1740794951.7445633,0.11675548289666879,-0.4879698923896805,-0.0272583281826878,0.17857385045629265,nan
1740794951.7484694,0.05537578192953565,-0.6035614869285855,-0.264684978501375,0.2244792556998487,nan
1740794951.7523751,-0.03640907197800216,-0.2919082637796796,-0.3527161170055627,0.1453954001296046,nan
1740794951.7562811,-0.04616952245586076,0.19907854030618746,-0.26285697911986566,-0.005729915090881044,nan
1740794951.760187,0.05630626795633431,0.5013977274284939,-0.12253897876077707,-0.10722190968435828,nan
1740794951.7640984,0.1950734598868264,0.4997446898344922,-0.01310798994846084,-0.05351990384974419,nan
1740794951.7680044,0.2472674734836394,0.3529233053435277,0.10862154929271903,0.12069713798707758,nan
1740794951.7719104,0.1338086709819652,0.21999209028702038,0.25787627103255695,0.2279467209800672,nan
1740794951.7758162,-0.11226187998777015,0.08393691096812202,0.29991854925963946,0.10023734085713057,nan
1740794951.7797222,-0.3426544906686181,-0.12975121925980276,0.10256090479932471,-0.2059549151556529,nan
1740794951.783628,-0.38111376844209954,-0.35953115477327346,-0.20713687270973327,-0.4191309605004996,nan
1740794951.787534,-0.16673233371607796,-0.43888695721308774,-0.2834933160020778,-0.3155823012101154,nan
1740794951.7914398,0.16140634501508694,-0.31525353779009724,0.03891233366712499,0.031253336796625515,nan
1740794951.7953458,0.3483860328455238,-0.14135998290207064,0.45044179534410106,0.3070197302744131,nan
1740794951.7992518,0.2418170379196315,-0.08499281515439218,0.4234506436319911,0.2805446426470888,nan
1740794951.8031576,-0.05267677335072061,-0.09324321102746125,-0.17339292380532528,0.04155018463939795,nan
1740794951.8070636,-0.254574751893251,0.058019637563137084,-0.8129041068257057,-0.11712724929130394,nan
1740794951.8109746,-0.1744484174980938,0.44842230235416924,-0.7949885827709996,-0.03519524195990949,nan
1740794951.8148806,0.10038232591834918,0.813528854489096,-0.015348804609556906,0.14935924453853394,nan
1740794951.8187864,0.2979254569844961,0.7494572933430056,0.8452818274825133,0.1847915455703738,nan
1740794951.8226924,0.23645887739163385,0.1429980825705403,0.9785332306749319,0.006165361589325218,nan
1740794951.8265982,-0.009314357283293245,-0.6405478945989898,0.2713471046043636,-0.20419589612220854,nan
1740794951.8305042,-0.21503937975474416,-1.0411867827060088,-0.5916871988895784,-0.246201229628896,nan
1740794951.83441,-0.24483142244404096,-0.7893876541033272,-0.8420796968479605,-0.12485252019024702,nan
1740794951.838316,-0.15137890663853815,-0.11948216105501262,-0.36953346821584315,-0.004693524708351528,nan
1740794951.842222,-0.05752901000628521,0.4661771055306038,0.27437212776505165,0.01598794198486932,nan
1740794951.8461277,-0.00023279495441032205,0.618457816280242,0.5226860961402321,0.009851165311146156,nan
1740794951.8500338,0.06800529322180716,0.3611911563846139,0.3253378713907642,0.08355213821092661,nan
1740794951.8539395,0.15511154632349286,-0.019015841377678054,0.03997725497744,0.2011843139300059,nan
1740794951.8578503,0.18100587387470043,-0.2350882914533101,-0.06391271618324443,0.21371129276817344,nan
1740794951.8617563,0.08649964445284629,-0.17922246608644662,-0.05744828099405253,0.058770191432292555,nan
1740794951.865662,-0.05256759020373636,0.06000250845772507,-0.13351429226448236,-0.13532679481021032,nan
1740794951.869568,-0.08644484741835798,0.2860816725987658,-0.28751595797325924,-0.1866883399304192,nan
1740794951.8734741,0.02206039055784737,0.317920854236068,-0.32406993606706624,-0.07163230842397492,nan
1740794951.87738,0.12515482802122005,0.10293894402073522,-0.1371678206570237,0.05295767059751367,nan
1740794951.881286,0.05253062801210184,-0.23809740668225057,0.13794968100623203,0.04188081429481923,nan
1740794951.8851917,-0.16922715083378612,-0.487934381423886,0.2944420434587171,-0.07187374998492796,nan
1740794951.8890977,-0.31662501083124805,-0.4941111029975818,0.2955517334425331,-0.1339947577888947,nan
1740794951.8930037,-0.21419735178331628,-0.2764732725508077,0.26143397825834336,-0.06271952466425686,nan
1740794951.8969095,0.05597173735300092,0.022234296582968813,0.2427348471268827,0.0650469514237251,nan
1740794951.9008155,0.2365993346492077,0.2793089159877963,0.1215100599641483,0.12502826426677965,nan
1740794951.9047258,0.18289815622280176,0.4611488307012878,-0.19802102228791957,0.09365198805337029,nan
1740794951.9086318,0.01827668653110272,0.5536130844234792,-0.5618360414964376,0.04803679984342859,nan
1740794951.9125378,-0.026571676586490674,0.4804377907886458,-0.6435994061658697,0.043133106779033654,nan
1740794951.9164436,0.10238395506861615,0.16303393496038363,-0.29186987916195734,0.04409096951972227,nan
1740794951.9203496,0.21623316883786542,-0.3208795322702155,0.2564255833450453,-0.004241293647021889,nan
1740794951.9242554,0.11328634967143152,-0.6970166527093967,0.5760441047893107,-0.08335692021987794,nan
1740794951.9281614,-0.16936908742820514,-0.6925370415664921,0.4650166207680873,-0.11926815957377547,nan
1740794951.9320672,-0.38003636703441285,-0.3039636389562122,0.11365840695921345,-0.08276574895016497,nan
1740794951.9359732,-0.3216504047354487,0.16436008163857166,-0.13854963838641443,-0.026135286674465526,nan
1740794951.9398792,-0.05538741032792982,0.3714003942020318,-0.1567251668811931,-0.005893235424831016,nan
1740794951.943785,0.1805960392222782,0.2563018272849541,-0.07951800855892406,-0.006195154390905846,nan
1740794951.947691,0.22308827122370284,0.0679135399602822,-0.07647630151876104,0.024904588047942152,nan
1740794951.9516013,0.11856437514605397,0.07679443348930347,-0.12790444062944734,0.08138451340327807,nan
1740794951.9555073,0.020696632302351005,0.28067158695781297,-0.08857201301837044,0.09318527158610285,nan
1740794951.959413,0.007964092377389346,0.41277896774692874,0.08079576427868776,0.029862653690957308,nan
1740794951.963319,0.03432597353717911,0.22989888318516985,0.22816702625807192,-0.03388859319589636,nan
1740794951.9672248,0.030384303391695178,-0.2292160792959638,0.1791882037269257,-0.004273717471883183,nan
1740794951.9711308,-0.004148748266650633,-0.6656340132799778,-0.05426184289665099,0.09205014130747874,nan
1740794951.9750369,-0.02665881843913727,-0.772059873164495,-0.2774239654872345,0.11263740361750801,nan
1740794951.9789426,-0.03091844199296383,-0.4641371968255416,-0.3113477117670134,-0.026981804838415425,nan
1740794951.9828486,-0.05443156314161021,0.08457913914206423,-0.1497281876313045,-0.2212515903352309,nan
1740794951.9867544,-0.10736618794009486,0.5762592046986701,0.08027220706252508,-0.27088784786347425,nan
1740794951.9906604,-0.13453995366636434,0.7617411460049226,0.261663466417728,-0.11223550052678852,nan
1740794951.9945662,-0.07631266999452482,0.5635360635841544,0.35370483870509767,0.1005986156268753,nan
1740794951.9984787,0.046807459668758745,0.11538105918315092,0.3439706540668086,0.1734544373789569,nan
1740794952.0023844,0.14157439719612436,-0.3083336370184493,0.20618067068529725,0.09658825607980315,nan
1740794952.0062904,0.14066258152920744,-0.46818472263847205,-0.05454267400615175,0.03550048522616186,nan
1740794952.0101964,0.07288765364257077,-0.33417586484778805,-0.34085348084061423,0.09945862419790141,nan
1740794952.0141022,0.02027128741198704,-0.09716624581194805,-0.4996541725140978,0.1861448944646965,nan
1740794952.0180082,0.019119560472259028,0.022102239414747992,-0.44092746689795714,0.11043227794391722,nan
1740794952.021914,0.02766174038230452,-0.012299216903643884,-0.20871711907782284,-0.138694844803637,nan
1740794952.02582,-0.0073770233062718975,-0.04565158060466629,0.070227089320809,-0.34437289141181154,nan
1740794952.0297258,-0.07699331913676848,0.05345226262171744,0.28798565536778264,-0.296633088842386,nan
1740794952.0336318,-0.1214193343789968,0.21281899114095898,0.39572014896232477,-0.03729228098962479,nan
1740794952.0375378,-0.10511845686215882,0.2387247242405221,0.37794326641155235,0.18449038317626387,nan
1740794952.0414436,-0.05609164916544927,0.07115081545662487,0.24299066638575847,0.19251984112264958,nan
1740794952.0453556,-0.023587625742384745,-0.11031156657431818,0.05352264739505807,0.06098288128672013,nan
1740794952.0492616,-0.014277236596607483,-0.08919740935067316,-0.08265100865395061,-0.012689154334480836,nan
1740794952.0531673,0.01126998854393634,0.10621448718144219,-0.10969029787042431,0.03838635320405333,nan
1740794952.0570734,0.08131868904403135,0.20364267733543465,-0.10812859347858819,0.09036229331412594,nan
1740794952.0609791,0.1682212800361065,0.0063624584197572165,-0.22103461127306057,0.019520025108502235,nan
1740794952.0648851,0.2074862567615202,-0.33974025642720884,-0.453474179729767,-0.11892505635597908,nan
1740794952.0687912,0.15428769948209248,-0.47648691999702486,-0.5806645907025626,-0.15788085293922885,nan
1740794952.072697,0.017892306537086053,-0.23774106719423183,-0.33677225602933997,-0.03793928078839915,nan
1740794952.076603,-0.14719546830758104,0.14885216412093608,0.2650646749346067,0.10929241659703454,nan
1740794952.0805087,-0.26959213148434585,0.32122441086466663,0.8425225270952365,0.12068145632068576,nan
1740794952.0844147,-0.2875266472896096,0.20498588218786284,0.9465680242189568,-0.002694824838828527,nan
1740794952.0883205,-0.17635103297418797,0.08167607392581358,0.4854845939243312,-0.10883796048980314,nan
1740794952.0922325,0.024925441284031753,0.20365049442447955,-0.17477131697145917,-0.08820089253940652,nan
1740794952.0961385,0.2161019471347524,0.4250332172964646,-0.5565919750980398,0.005043572495196298,nan
1740794952.1000443,0.2888259892160843,0.3332295490023165,-0.5052412801754427,0.04638125507022688,nan
1740794952.1039503,0.2016632539424166,-0.2303713420880052,-0.26197423105217943,0.008475627694071366,nan
1740794952.107856,0.0138671907389995,-0.8767223955404988,-0.13425297403326844,-0.019651367566381875,nan
1740794952.111762,-0.15435898878982918,-1.0000071421046288,-0.1614232889756601,0.028214926555349223,nan
1740794952.115668,-0.20146176974982458,-0.4096680506224395,-0.1422323644830583,0.09861570800105703,nan
1740794952.1195738,-0.10352588103455668,0.43864320432182297,0.05652819783783697,0.09455593298798669,nan
1740794952.1234798,0.07643576764383454,0.885593057381227,0.31113077561726316,0.012097606565098791,nan
1740794952.1273856,0.2203950405157256,0.7028841203368708,0.3943616377749084,-0.05542086611167084,nan
1740794952.1312916,0.2154918646479194,0.2359126056594933,0.2576006656494523,-0.04980214661661692,nan
1740794952.1351974,0.030123683469855514,-0.05348818958408523,0.07822759768116254,-0.027864025294629724,nan
1740794952.1391091,-0.2362689060525204,-0.0810681535970693,0.021131564627820006,-0.07112407090949976,nan
1740794952.143015,-0.394151705448777,-0.11904637670936014,0.03270056421634541,-0.14888961766452014,nan
1740794952.146921,-0.30359148634877736,-0.3526490022312091,-0.05921795604822452,-0.1353542386522096,nan
1740794952.1508267,-0.007374358688596046,-0.5955062007785836,-0.27002778822026546,0.02264231319493655,nan
1740794952.1547327,0.2840892643855794,-0.5105672680644182,-0.3839175559882274,0.20650292503159368,nan
1740794952.1586385,0.37095694496180864,-0.04636179022305384,-0.21362496435282166,0.2432055605956114,nan
1740794952.1625445,0.24006898703648305,0.4555573854307012,0.11554722333299161,0.10677891522418981,nan
1740794952.1664505,0.05419423894236918,0.6110518974818586,0.24597487005574228,-0.05022590120107973,nan
1740794952.1703563,-0.035038006507694064,0.3800923297026872,-0.002810979554380948,-0.08134552965248484,nan
1740794952.1742623,-0.03914014368997579,0.05076655241675615,-0.3635947362168757,-0.016304379572857155,nan
1740794952.178168,-0.0772983867353952,-0.11467411563793194,-0.35458059638587935,-0.0020781291146395077,nan
1740794952.182074,-0.19048632596898876,-0.12419634982388747,0.1853526257080082,-0.09513380418219718,nan
1740794952.185985,-0.26525045318805074,-0.13365178242113607,0.8457567967855276,-0.17845963959257768,nan
1740794952.189891,-0.17360827800487738,-0.18209507575530298,0.9970283883896411,-0.11503994949561183,nan
1740794952.1937969,0.042167055744452606,-0.15706435169526348,0.413019673372269,0.060903201758405065,nan
1740794952.197703,0.18517573849055924,-0.012109006404106922,-0.4829100896037197,0.16862009375447704,nan
1740794952.201609,0.1255662248665591,0.10286673244798224,-1.011034904752805,0.09929118776378142,nan
1740794952.2055147,-0.033931993535677586,0.021420153596629292,-0.862413682588539,-0.04666779561654442,nan
1740794952.2094207,-0.06496532836700397,-0.17122695239222432,-0.3260388107659633,-0.0804646953131444,nan
1740794952.2133265,0.11477453555985533,-0.17575631496975402,0.07724860524042464,0.04432181984987208,nan
1740794952.2172325,0.3251860473539482,0.15116582236170398,0.13173913503303042,0.17700047534133492,nan
1740794952.2211382,0.31230852716368446,0.5335220199764472,0.07528474982281518,0.15406801709812035,nan
1740794952.2250443,0.032002813490978624,0.5056091222493846,0.24854889509059674,-0.010234646280401853,nan
1740794952.2289503,-0.2966504800871297,-0.05163456387018556,0.6588924213587155,-0.15566821818998292,nan
1740794952.232861,-0.4235878204812599,-0.6776232327977517,0.9292190193144295,-0.17215805156482217,nan
1740794952.2367668,-0.3117349768860036,-0.7380807429491852,0.6755603405547511,-0.10704475279018993,nan
1740794952.2406728,-0.12425414697011518,-0.09331360312197667,-0.08086976647430182,-0.06565180168716245,nan
1740794952.2445786,-0.005479882562872943,0.691182282016856,-0.8790590878062285,-0.06017941264465693,nan
1740794952.2484846,0.061514090847341614,0.8622691878415502,-1.192940686308005,-0.012836891971740186,nan
1740794952.2523906,0.1661040938618337,0.22104199876079067,-0.8638696183111517,0.1045504919865068,nan
1740794952.2562964,0.3001709403052614,-0.6680610555589866,-0.20282499258346295,0.20071503785968345,nan
1740794952.2602024,0.345189163914517,-1.0124503530252777,0.3119758968648228,0.17218687145048314,nan
1740794952.2641082,0.22829153772175187,-0.5273987792060787,0.4523065428557247,0.04654330923786953,nan
1740794952.2680142,0.02869206482205316,0.34297575386269863,0.38760909872641214,-0.038862608781735704,nan
1740794952.27192,-0.11469134135522226,0.8841148278823846,0.43329128779661785,-0.008700382220430888,nan
1740794952.275826,-0.17169159685501603,0.7509460410705245,0.6532997093313002,0.04828264628202927,nan
1740794952.2797365,-0.23456662453255606,0.18530763381887516,0.732873948256999,-0.01150977383535619,nan
1740794952.2836425,-0.351664919312441,-0.30987605806034296,0.29584166503791476,-0.19352601579913659,nan
1740794952.2875485,-0.4073761160472424,-0.4418728368203667,-0.6162568316697064,-0.3301401474820434,nan
1740794952.2914543,-0.23328398606382533,-0.29613914541254416,-1.4142434768912833,-0.25642496847951013,nan
1740794952.2953603,0.1616755467104737,-0.1300401569074713,-1.405248140243825,0.006334788314014363,nan
