timestamps,TP9,AF7,AF8,TP10,Right AUX
1740797052.8636887,-0.23792553108326137,0.03828675789221647,0.27411757609295667,0.3323686500610253,nan
1740797052.8675947,-0.5031953493598452,1.2841275909856393,-0.41138964285063706,0.24041403676034684,nan
1740797052.8715005,-0.4860268630004862,1.8016714583221876,-0.8323939031853762,0.09008698835919714,nan
1740797052.8754065,-0.21635173107857664,1.3401869913738185,-0.7808887240109295,0.046291857428082256,nan
1740797052.8793123,0.09509252004605262,0.27808699956012495,-0.40076769252746597,0.06900688241680941,nan
1740797052.8832183,0.26509390177848463,-0.6979024261029276,0.0017107528513641437,-0.0033200026495991118,nan
1740797052.8871243,0.2814921026378139,-1.0906401814595195,0.2523583741116481,-0.20478956855361233,nan
1740797052.89103,0.23930297970923095,-0.8652254261803687,0.39934102268083455,-0.3556107759250226,nan
1740797052.894936,0.18449117384025035,-0.34734695871324767,0.5358244734680087,-0.2642307019379569,nan
1740797052.8988419,0.07672077049541778,0.08456628724174842,0.6015133378914913,0.026094643163966712,nan
1740797052.9027479,-0.09771568098124918,0.24607351559083743,0.42433328846402885,0.25928098615895967,nan
1740797052.9066536,-0.2436761018727554,0.19465026395775795,-0.0377325122131836,0.2433388552524222,nan
1740797052.9105618,-0.24464104685921323,0.11453721582525112,-0.5553651584134011,0.05322191161166787,nan
1740797052.9144678,-0.11562029675915779,0.15154459586823943,-0.7892263695185263,-0.07802974933213079,nan
1740797052.9183736,-0.00396700311858917,0.300344274530802,-0.6028126851078797,-0.03566955862895846,nan
1740797052.9222796,-0.00894834035580595,0.40815540150314655,-0.18462030989042247,0.07025206525654687,nan
1740797052.9261856,-0.04636003683008947,0.30023835393802906,0.156992496986508,0.07700291975242914,nan
1740797052.9300914,0.044144349606308274,-0.05425419579106166,0.29418201312923603,-0.020058281103231365,nan
1740797052.9339974,0.26029768379914126,-0.4760137072088146,0.3426902676508898,-0.08487093296334415,nan
1740797052.9379032,0.3788804673461494,-0.6910022007967174,0.43971384298440874,-0.04101538781976757,nan
1740797052.9418092,0.19510905910677143,-0.547806445499875,0.5215868581442322,0.024886782616942976,nan
1740797052.945715,-0.20219233438949946,-0.14263502286013147,0.3777288709960087,-0.006951230375596337,nan
1740797052.949621,-0.4680414582594549,0.2692727928699272,-0.07590193071668601,-0.11036765420099967,nan
1740797052.953527,-0.3499637409152591,0.4881526520569133,-0.623962385669317,-0.1363867676754676,nan
1740797052.957435,0.03544721004236015,0.49633362885799087,-0.8918599647151237,-0.015567141412575728,nan
1740797052.961341,0.3210468203287104,0.38714357150727946,-0.6675819293446885,0.13238021158921504,nan
1740797052.9652467,0.274277528996854,0.21154748117705907,-0.08623120830994901,0.14018132939000766,nan
1740797052.9691527,0.01406751662748418,-0.05536189885114138,0.48545309513739776,0.011061689369400806,nan
1740797052.9730585,-0.16731118662734695,-0.38847673688102635,0.7301864679049577,-0.0747248191427816,nan
1740797052.9769645,-0.1381086922429975,-0.6120078690532169,0.5748817532441294,0.012758117102405488,nan
1740797052.9808705,-0.020481543692162027,-0.5103185101092884,0.18187713038728415,0.17639581001606458,nan
1740797052.9847763,0.025631064276528583,-0.07966243509781433,-0.1931595662694521,0.1976100420814299,nan
1740797052.9886823,0.013427907085980914,0.37367706862683103,-0.35376022131715806,0.0024303478598791395,nan
1740797052.992588,0.06181305142427713,0.4732795187030725,-0.2599206854577723,-0.23943106032030848,nan
1740797052.996494,0.16942073356698806,0.15805773107896917,-0.04398434712016453,-0.3047062965508799,nan
1740797053.0003998,0.1690959037930243,-0.20686373419656384,0.07967742723344196,-0.16212977511965476,nan
1740797053.0043075,-0.045088237778182494,-0.18029749854397553,-0.012744653614790115,0.01885625171397088,nan
1740797053.0082135,-0.3151492651238285,0.26119848063404927,-0.2263765735383566,0.08565354429956161,nan
1740797053.0121195,-0.3448255679524537,0.6272817087518667,-0.3097821136702415,0.06379185969245998,nan
1740797053.0160253,-0.045887107654094844,0.3908723658522034,-0.0933262441194066,0.07569153359646115,nan
1740797053.0199313,0.3143616474717074,-0.4107286882132317,0.3149231765498944,0.151314448988455,nan
1740797053.023837,0.37715724493146385,-1.1039429026435497,0.5942231515991218,0.18903640845425781,nan
1740797053.027743,0.08524318868741462,-0.988024770331485,0.5006303223247118,0.1061855407666816,nan
1740797053.0316489,-0.2518002492731102,-0.050482774149649405,0.09626452558595079,-0.03759558517371625,nan
1740797053.035555,-0.3000624447242188,0.9547740815541057,-0.31669179499023414,-0.11460537301706583,nan
1740797053.039461,-0.054860312228120184,1.1903740646261258,-0.48152584544692567,-0.0959334402197345,nan
1740797053.0433667,0.1925383248571903,0.516338830631354,-0.3897473749622538,-0.07903670125260227,nan
1740797053.0472727,0.20598448017940604,-0.41021436584311594,-0.21097117982199098,-0.1368547215151273,nan
1740797053.0511801,0.04399749987672335,-0.7990678304613634,-0.07151652069731282,-0.19818823413447967,nan
1740797053.055086,-0.07065603783590528,-0.461166758693828,0.05062935761408317,-0.1330621319169296,nan
1740797053.058992,-0.04668303009274672,0.11452555827682055,0.2199356378203251,0.0617529955229342,nan
1740797053.0628977,-0.005647743292243374,0.3476548903562544,0.3943419870856192,0.22891413804133848,nan
1740797053.0668037,-0.07435518928267391,0.14396106731489847,0.43466744772416555,0.22939545112738416,nan
1740797053.0707095,-0.18605683322552552,-0.12508491824583443,0.2594524148461433,0.11067422678158656,nan
1740797053.0746155,-0.1577445660647891,-0.1273611585685437,-0.049288502923420525,0.04190795479601567,nan
1740797053.0785215,0.060312969273955554,0.062203693303485276,-0.31464878091340626,0.09121101534710628,nan
1740797053.0824273,0.28996711765599215,0.12578566307022065,-0.41896779467881423,0.1312756069369763,nan
1740797053.0863333,0.3115095858174576,-0.0558435934265239,-0.36896793442581266,0.0036944533356110744,nan
1740797053.090239,0.10394920343465418,-0.24104571804882502,-0.22871669999119656,-0.2585656336810125,nan
1740797053.094145,-0.14379591342348483,-0.13323780724809559,-0.037774225260953385,-0.43379979400485824,nan
1740797053.0980523,-0.2430033965545342,0.22717405377320113,0.18104461914616096,-0.3473468299315362,nan
1740797053.101958,-0.17561784987467363,0.4657629840795927,0.3654606028899698,-0.061469347023484534,nan
1740797053.105864,-0.052192888695153705,0.2826779478443575,0.41986115778419525,0.20001374710450748,nan
1740797053.1097698,0.038183849182376606,-0.19688929137559927,0.2991305764630451,0.28831886462259243,nan
1740797053.1136758,0.08485976264898579,-0.5285069500592509,0.06576325064163879,0.2449626865501766,nan
1740797053.1175818,0.09332569832189361,-0.3978477996873166,-0.15950258412042848,0.18816663858041896,nan
1740797053.1214876,0.04657226950986396,0.06677997664815441,-0.29753440528685937,0.14833211139074737,nan
1740797053.1253936,-0.03935936762875203,0.432224333708197,-0.34347432028142194,0.06364516586336033,nan
1740797053.1292994,-0.0770925024580319,0.3812253708424354,-0.3098101831993848,-0.08838802334850362,nan
1740797053.1332054,0.003406568916259515,-0.013421260664716265,-0.1787180361729159,-0.2243468142085108,nan
1740797053.1371112,0.132561803007767,-0.39500244089255776,0.05608374477660268,-0.24740371404509576,nan
1740797053.1410172,0.14093872097577734,-0.4544552327591628,0.3127282369030051,-0.16661146808078106,nan
1740797053.144926,-0.033853212745445255,-0.16310803700532592,0.43329801862926753,-0.07719899531701356,nan
1740797053.1488318,-0.22411473615409067,0.2569958649356207,0.31077113561211017,-0.03257150176292998,nan
1740797053.1527379,-0.1935675868853539,0.5317070332570782,0.009049076787483436,0.01230417482394169,nan
1740797053.1566436,0.06727036586802797,0.5123363236699044,-0.26078028958527943,0.10994059545284655,nan
1740797053.1605496,0.27878439282388423,0.22921746863634312,-0.30419327842889904,0.21524791255725081,nan
1740797053.1644557,0.16967230234870742,-0.16134423486566007,-0.10410773427272986,0.22292068715082172,nan
1740797053.1683614,-0.18589338128758565,-0.4734758502156177,0.159835709382843,0.10561717919301084,nan
1740797053.1722674,-0.4067420248340875,-0.5796922194305831,0.24809929656954197,-0.03571860857792497,nan
1740797053.1761732,-0.21534295873133297,-0.45608534447367594,0.050914726569807514,-0.08668705795956887,nan
1740797053.1800792,0.2362926584519662,-0.1704799164452613,-0.3045179699210209,-0.05315642471553314,nan
1740797053.183985,0.5106712261132642,0.16639124843079395,-0.5175844450228991,-0.0372037062472935,nan
1740797053.187891,0.3477420755567998,0.44471366246962035,-0.335995182717775,-0.08892866532465298,nan
1740797053.1917996,-0.07329155878571245,0.5749175710384252,0.20520000199872218,-0.13662632080650902,nan
1740797053.1957054,-0.35416177721179704,0.5032995410576369,0.7388124887609545,-0.0921385733490339,nan
1740797053.1996114,-0.30395190071182177,0.2426772418441152,0.8200097452268192,0.014033622272210987,nan
1740797053.2035174,-0.0858614791414926,-0.1089148649180744,0.31585551050821176,0.06137064296381031,nan
1740797053.2074232,0.037580816181353935,-0.405182602544942,-0.42655117708397455,0.00415023050777892,nan
1740797053.2113292,0.012167362582031306,-0.5333971879916783,-0.8449990996228774,-0.05140396129731549,nan
1740797053.215235,-0.008916774541995876,-0.4698039616076801,-0.6544624476395579,0.021672332972586927,nan
1740797053.219141,0.08114136481903536,-0.2621885238596818,-0.0917560428988169,0.19047764111423138,nan
1740797053.2230468,0.19214525543613534,0.018801415116578457,0.3429214838280608,0.2750176384969489,nan
1740797053.2269528,0.17146274218277782,0.29007811185473453,0.37865742220071175,0.15771672335770082,nan
1740797053.2308588,0.019764168816485062,0.44029290003136606,0.17769152127090107,-0.06749189306510446,nan
1740797053.2347646,-0.10617306844675833,0.3718001128751808,0.05789486264462613,-0.19959619261181083,nan
1740797053.238673,-0.09773081875244542,0.11307941276268803,0.09466102551023475,-0.1632629263498498,nan
1740797053.242579,-0.025064751794634205,-0.13275147882067387,0.08576029746872764,-0.07993231598780884,nan
1740797053.246485,-0.02344686818842814,-0.1363920238503003,-0.10399494650722971,-0.09294040946475976,nan
1740797053.2503908,-0.0982385338450926,0.10266690326710474,-0.2915838900859841,-0.17601178540813076,nan
1740797053.2542968,-0.11748270715999154,0.28511984002253626,-0.18261959774447903,-0.1710258220788622,nan
1740797053.2582026,-0.0027322534780964028,0.08740759513649281,0.19837913802092286,-0.0008967163907092697,nan
1740797053.2621086,0.14331171585708238,-0.44815661970216375,0.4290432534057885,0.2211095427968196,nan
1740797053.2660143,0.15388847175950077,-0.8542563166688452,0.1457270204252406,0.32311236340725324,nan
1740797053.2699203,0.014584048239080239,-0.6618262816240339,-0.46616398722062047,0.2692663742347016,nan
1740797053.2738264,-0.1062501208510331,0.08902487608288254,-0.7739710466813984,0.166409183236225,nan
1740797053.2777321,-0.062404332741255675,0.816689586770654,-0.3608928767525247,0.0922517579234282,nan
1740797053.2816381,0.08700404956652955,0.9384028813664227,0.47130440516686595,-0.005890335793498807,nan
1740797053.285546,0.15033277966109898,0.4390209373212946,0.9595881731420763,-0.19806335809055184,nan
1740797053.289452,0.041847145995372634,-0.14580791812394006,0.6546145685395417,-0.40752049272356566,nan
1740797053.293358,-0.11404566749987383,-0.3187735579960266,-0.1254893086724218,-0.4459027941926665,nan
1740797053.2972639,-0.14073104991541238,-0.12953312121113103,-0.6497010255348591,-0.23417205043392755,nan
1740797053.3011699,-0.027494587437999936,-0.038553943541977255,-0.5271273709918417,0.07258328260323949,nan
1740797053.3050756,0.06376120192969557,-0.30967558133279655,-0.03845581299562531,0.23978132132547889,nan
1740797053.3089817,0.004969435525685686,-0.6512617956534748,0.255659513022667,0.21365333146369714,nan
1740797053.3128874,-0.13791007527499932,-0.5413772285794047,0.12573167010375844,0.1618106245824484,nan
1740797053.3167934,-0.18204570077681392,0.12587084089131623,-0.16719386005046233,0.2361655406044686,nan
1740797053.3206995,-0.03895858346025231,0.8274908740346069,-0.2483604375444496,0.3558042446021461,nan
1740797053.3246052,0.19132878616786717,0.9121225948486984,-0.038597648343134255,0.29183889486176656,nan
1740797053.3285112,0.3331002229758465,0.28700506207135285,0.23834061604585324,-0.040786075087578484,nan
1740797053.3324192,0.3011941745933236,-0.46013651304665915,0.35089049873202593,-0.44300050852737455,nan
1740797053.3363252,0.13939245283581672,-0.6475463099055431,0.25968477587124605,-0.6177645821906318,nan
1740797053.340231,-0.06635785757518249,-0.17734558619421192,0.05722171913117385,-0.46187179716901966,nan
1740797053.344137,-0.2604827522760957,0.39604790073235974,-0.16192804745390735,-0.13125693709021571,nan
1740797053.3480427,-0.402333050524909,0.4531294144484245,-0.31092309687641967,0.1576242730859315,nan
1740797053.3519487,-0.4301236864643998,-0.06987944628538491,-0.282548543483558,0.32025499455894196,nan
1740797053.3558547,-0.28807673143304474,-0.6427648540663103,-0.04410864378108457,0.3820049200237388,nan
1740797053.3597605,0.00724833294216298,-0.6840160316717948,0.23046063459502708,0.3450668950442933,nan
1740797053.3636665,0.34855302284382544,-0.12221405103205558,0.2489628864710397,0.17458362275636902,nan
1740797053.3675723,0.5913669884039643,0.5549908497284028,-0.07463923991303377,-0.08038512992374568,nan
1740797053.3714783,0.6214629486067279,0.7717702711660566,-0.4283861877854253,-0.2473459874083334,nan
1740797053.375384,0.3926263700417982,0.3874622191293069,-0.3671471719719668,-0.1922817701399758,nan
1740797053.3792918,-0.046309463987732384,-0.20365206278197767,0.1757078716832209,0.0005656931485105185,nan
1740797053.3831978,-0.5270585425660784,-0.4617086365139398,0.7235105099820586,0.09209786383083772,nan
1740797053.3871036,-0.8006015947012954,-0.20703138938627252,0.7086423483890346,-0.03813855911338969,nan
1740797053.3910096,-0.6835388381199351,0.22451458485837528,0.08784727477799607,-0.23617168286088297,nan
1740797053.3949156,-0.22021506957726628,0.3228698362502442,-0.5819748017273583,-0.24834822537391435,nan
1740797053.3988214,0.3143953257018533,-0.0743963447918238,-0.7212943389128941,-0.02903872063297254,nan
1740797053.4027274,0.6168259102874305,-0.5880600110912189,-0.3145853968875995,0.19928412974348272,nan
1740797053.4066331,0.5810231766260525,-0.6509937908582518,0.1475279999918838,0.21496470543078652,nan
1740797053.4105392,0.32679633547973935,-0.0898883213700075,0.259774742862249,0.06163760112469514,nan
1740797053.414445,0.03322749468578244,0.6520634233712432,0.10519900756337427,-0.02307566426663958,nan
1740797053.418351,-0.20457464672669384,0.9141270851217912,0.027636059086479394,0.07963225144711476,nan
1740797053.422257,-0.34927604378707944,0.463334992228518,0.1317041411391348,0.2169668604099629,nan
1740797053.4261644,-0.33886923723464585,-0.27597501478092185,0.17647134057311276,0.1659308118215941,nan
1740797053.4300702,-0.13707392917005184,-0.656640147302241,-0.025356176429784393,-0.0730961095290351,nan
1740797053.4339762,0.1284659399039079,-0.4498224149496186,-0.272948325767529,-0.2692392449851919,nan
1740797053.437882,0.19561787600443806,-0.012502128162032234,-0.19601904408504722,-0.2469490927496406,nan
1740797053.441788,-0.05107095896511849,0.17004311907809283,0.22790403716652635,-0.09420513831520583,nan
1740797053.4456937,-0.35413578664205037,0.022690403170014403,0.5461666921923086,-0.02859350290379908,nan
1740797053.4495997,-0.2787321875411948,-0.10942893595330283,0.32037079155621895,-0.10387303459926318,nan
1740797053.4535058,0.2756281975484211,0.050819457492251065,-0.3312329026537875,-0.1438040004967113,nan
1740797053.4574115,0.8302715080266783,0.3428077701607907,-0.8103284958475344,0.011973827555865965,nan
1740797053.4613175,0.7452589390635703,0.369935827695492,-0.6710740041293948,0.27519403983458635,nan
1740797053.4652233,-0.06331363806557597,0.015205809697214863,-0.07472244904467859,0.3971062414023784,nan
1740797053.4691293,-0.9201320322171848,-0.37712162373931135,0.4417061986360447,0.26684994556547076,nan
1740797053.4730365,-1.023276527740611,-0.39209299903676603,0.5607741514728874,0.0380669977247719,nan
1740797053.4769423,-0.2795397784387036,-0.03760304880699332,0.42531730030386106,-0.0724805656098259,nan
1740797053.4808483,0.5858685387861092,0.2630209441453329,0.3074201864577867,-0.048122170270633674,nan
1740797053.4847543,0.7917734496789496,0.1757803193882905,0.2131041178950729,-0.06152611168013874,nan
1740797053.48866,0.2932516206852899,-0.15129385681041707,-0.04772337030882326,-0.21761132960389404,nan
1740797053.492566,-0.26669044089351446,-0.2790387969331287,-0.46538309707109293,-0.3928474662102389,nan
1740797053.496472,-0.33546673560934437,-0.014195699610081677,-0.703002872241223,-0.37711755727266566,nan
1740797053.500378,-0.023937092666645485,0.3566017385504748,-0.4698288396966188,-0.13016968942543614,nan
1740797053.5042837,0.15520114161252194,0.40706669190090844,0.06891012275844989,0.17023524412224356,nan
1740797053.5081897,-0.019338133225355707,0.06611343156989255,0.40970948262768514,0.3306108252761366,nan
1740797053.5120957,-0.2379305759453138,-0.3160397279625607,0.2667389163644269,0.3272128752691656,nan
1740797053.5160015,-0.12974027703230157,-0.3795419539101722,-0.09879080695313643,0.26466173117946823,nan
1740797053.5199103,0.21297407536005786,-0.13644212299305114,-0.1890343042305844,0.2096263968423148,nan
1740797053.523816,0.347432362206281,0.10406304701109478,0.14445004535069034,0.13504931213449803,nan
1740797053.5277221,0.07047926989458946,0.12210007416305313,0.5355212959977922,0.013463022074367446,nan
1740797053.531628,-0.29559322986445735,0.002305617064678963,0.5362743991850659,-0.11750551311577091,nan
1740797053.535534,-0.30038361734541547,-0.03679815900586936,0.11282958062120083,-0.21949937131036096,nan
1740797053.53944,0.06503932776227885,0.06848273544102243,-0.36355568108220776,-0.32030685326666747,nan
1740797053.5433457,0.355577270958619,0.1795431141050797,-0.5561015535406654,-0.44010749679046585,nan
1740797053.5472517,0.22270959284610947,0.15659269743997253,-0.471881127633045,-0.47450070752964274,nan
1740797053.5511575,-0.1774329965024367,0.017895590175017385,-0.31989562093124996,-0.2578274113377789,nan
1740797053.5550635,-0.40975087115878717,-0.11920343790746858,-0.18893719626824973,0.20124205737646822,nan
1740797053.5589693,-0.2834824119843471,-0.18269627679321293,0.012785827597005056,0.6188883442897953,nan
1740797053.5628753,0.0026462626964558577,-0.17373824814487512,0.3267981189149564,0.6802359583236811,nan
1740797053.566784,0.20608680681107364,-0.09483739614476726,0.5897773749972854,0.39155631148608105,nan
1740797053.5706897,0.3288073465444068,0.05654023939912373,0.5862569981575046,0.0909073357087571,nan
1740797053.5745957,0.45050989886723486,0.20583677668054326,0.301713171419454,0.047033635452510804,nan
1740797053.5785015,0.42949899225099836,0.20166382560521404,-0.05805671805644327,0.12144720301767169,nan
1740797053.5824075,0.02558005928828192,-0.016499045516155515,-0.2873222407823707,-0.05145955795626376,nan
1740797053.5863135,-0.6402610562094984,-0.274959436597638,-0.3450277728739479,-0.5504927177053502,nan
1740797053.5902193,-0.990213502186446,-0.2889767180784093,-0.29588126418067706,-0.9728578184264906,nan
1740797053.5941253,-0.5816177730560844,0.023432948137650445,-0.188952116742196,-0.8573179303318957,nan
1740797053.598031,0.27326678163755785,0.40421624724714916,-0.07042395947218036,-0.23648551360170003,nan
1740797053.601937,0.7458824433554941,0.49811418887938796,-0.045568432611443985,0.3806833538104871,nan
1740797053.6058428,0.4512650617817207,0.2173455362182816,-0.18213187827707966,0.5995902409302101,nan
1740797053.6097488,-0.047462685540266114,-0.19687432237024483,-0.3244799373005095,0.5623520564825524,nan
1740797053.6136572,0.05270655968895367,-0.46622097218924924,-0.15071275909272505,0.6538502814553082,nan
1740797053.617563,0.6640748588750467,-0.5290023637332794,0.44082886775910846,0.8787365379626597,nan
1740797053.621469,0.762015136375081,-0.45032378647769433,1.0529410901895422,0.7664984885196291,nan
1740797053.6253748,-0.3102213837786715,-0.1919820594791343,1.089346434396896,-0.0021344422658144324,nan
1740797053.6292808,-1.7362097868266795,0.33593151305163504,0.41900846882321807,-1.0386977182491144,nan
1740797053.6331868,-1.8892712682193702,0.947735608310307,-0.3982892974197758,-1.5453130110153948,nan
1740797053.6370926,-0.24139777216096533,1.1000875060627353,-0.7261718736732178,-1.178387349365913,nan
1740797053.6409986,1.7449373365262364,0.3885997135426131,-0.6342575290282993,-0.4078262318787139,nan
1740797053.6449044,2.0542943288765585,-0.8330730979430893,-0.7960614015666664,0.10637686033798509,nan
1740797053.6488104,0.41926218373062113,-1.5456143407721108,-1.4575461452133236,0.32181502140921003,nan
1740797053.6527162,-1.2507267834375055,-1.007997870503698,-1.7433433001447294,0.7196634397430356,nan
1740797053.6566222,-1.021920942857178,0.38310101258858253,-0.4385221338991293,1.402566961882511,nan
1740797053.6605303,0.7372182941701849,1.3628717253241687,2.3440826446353484,1.6453140852996004,nan
1740797053.664436,1.6794687075082078,1.0578193786775343,4.576791560628176,0.6945125095115982,nan
1740797053.668342,0.249387067750374,-0.09564644181821702,3.9204842509559152,-1.0526626755365205,nan
1740797053.6722481,-2.29806786002562,-0.8374567507337368,0.17908499112050258,-2.0961315723064664,nan
1740797053.676154,-3.119986277931973,-0.4858902569273054,-4.030300793833729,-1.3640091498618065,nan
1740797053.68006,-0.9765818791445559,0.318241995080246,-5.4261791584238654,0.4514072840957053,nan
1740797053.6839657,2.278624104437907,0.39794170513903715,-3.074999926588373,1.4720989052706817,nan
1740797053.6878717,3.668539634709101,-0.5178727331940557,0.7784552859329921,0.6769190382330617,nan
1740797053.6917775,2.2463439389407647,-1.360027250107716,2.942632699712162,-0.9125055802125209,nan
1740797053.6956835,-0.19178242981009333,-0.848556985022096,2.283279112647825,-1.3928865047871095,nan
1740797053.6995895,-1.484989891235111,1.017023523522809,0.46518360499540357,-0.22700260663355812,nan
1740797053.7034953,-1.5255687461191103,2.7356584968194047,-0.14633963608064585,1.0935436663500797,nan
1740797053.7074032,-1.7588381694326414,2.629466957418631,0.9450759792790432,0.865376848640746,nan
1740797053.7113092,-2.5918477533507063,0.40132802190401745,2.0009511653477166,-0.6302320017033765,nan
1740797053.7152152,-2.3076399898042257,-2.539623624626758,1.0854359865184842,-1.2654487575960365,nan
1740797053.719121,0.7340321582406978,-4.172030753746689,-1.752732869412785,0.4143200579965086,nan
1740797053.723027,5.156862956420297,-3.3279542501704107,-4.3535533647821945,3.14463270352807,nan
1740797053.7269328,6.891185023836428,-0.41774014987258423,-4.3683945494075616,3.8901462167917007,nan
1740797053.7308388,3.1965997363830705,2.891538766397032,-1.3303143047418924,0.9839261570725897,nan
1740797053.7347445,-3.80526525162506,4.666982381863446,2.904374246112951,-3.8780283638684496,nan
1740797053.7386506,-8.37061874135267,3.8288687589408257,5.524390404553121,-6.9592283462457445,nan
1740797053.7425566,-6.44438976464103,0.8676478733425331,4.753795686675686,-5.770889066124933,nan
1740797053.7464623,0.2906202145308097,-2.3564418891909407,1.0677224510223355,-1.0491802273841508,nan
1740797053.7503684,5.929534509097082,-3.8515274520396154,-3.1057093208614144,4.216591734066992,nan
1740797053.754276,5.975590365703528,-2.9966421338679976,-5.0239035521214745,7.263484258603373,nan
1740797053.7581818,1.3764211517366758,-0.9731448613933057,-3.58665557293235,7.050520352272059,nan
1740797053.7620878,-2.9430153002239767,0.45687405334414244,-0.1707893589120859,4.0028945500908035,nan
1740797053.7659936,-3.1929807926211953,0.7213886714018973,2.5004991134671655,-0.7616945307447213,nan
1740797053.7698996,-0.11859832090647078,0.8511664941569502,2.6891855524608785,-5.5914296381228175,nan
1740797053.7738056,2.439939774191038,1.944640362624941,1.0901650853232574,-8.306783194522488,nan
1740797053.7777114,1.7900678344150138,3.373784234314304,-0.11081297712495612,-7.124719456271819,nan
1740797053.7816174,-1.1209897179588213,3.022047666712162,0.2842112163302904,-2.233440638335293,nan
1740797053.7855232,-3.1546409996886178,-0.28913338394318894,1.1223030755405385,3.6944561394544597,nan
1740797053.7894292,-2.355639148395682,-4.75232511959391,0.3130995866936105,7.143050005892997,nan
1740797053.793335,0.3264856629558086,-6.552840758018359,-2.396294756143065,6.381517390162346,nan
1740797053.797241,2.350754341653342,-3.4360863206218486,-4.508808061410654,2.6509075130249653,nan
1740797053.8011484,2.1717828549815046,2.6458865693861147,-3.154382216543659,-1.174556048440585,nan
1740797053.8050542,0.4702887329604311,6.816778700814984,1.5466190755800453,-3.024314109862926,nan
1740797053.8089602,-0.8456511428564316,5.603243854987156,5.916481391660102,-2.845467292809632,nan
1740797053.8128662,-0.5713112136979595,0.1618649938120264,5.985035353114437,-1.8314113654648516,nan
1740797053.816772,0.773133528415663,-4.80119200198494,1.4288816467548977,-0.9558493135766278,nan
1740797053.820678,1.5525261525442549,-5.355057494897557,-3.944667927008263,-0.3902114269717207,nan
1740797053.8245838,0.5567656591205128,-1.6921890750582507,-5.783278681868652,0.04152100676580275,nan
1740797053.8284898,-1.834615366860078,2.5476981295650307,-3.196219751529265,0.37249318204249443,nan
1740797053.8323956,-3.785317438081537,3.9230991822478214,0.8306941283597677,0.5855006681088267,nan
1740797053.8363016,-3.396989194979449,2.0617238848944868,2.746277915694654,0.847527354023787,nan
1740797053.8402076,-0.3587392215516603,-0.7222846003634656,1.7946441676626668,1.288445018900134,nan
1740797053.8441133,3.5097271654437607,-2.069445642690462,0.07303412138640933,1.5867248237023674,nan
1740797053.8480206,5.466748497229765,-1.5582563426689764,-0.25953894335025435,1.1253122768922237,nan
1740797053.8519266,3.995900934296778,-0.3890469872250744,0.7320245361955393,-0.23053445043627405,nan
1740797053.8558323,0.09740904596683422,0.2768908341338464,1.3070122542847122,-1.6777744675104334,nan
1740797053.8597383,-3.4825560776099715,0.32927207014694515,0.36630613741312784,-2.101011150414404,nan
1740797053.8636441,-4.469500978028964,0.3020047760836886,-1.294568609915407,-1.2250698541892133,nan
1740797053.8675501,-2.7610006391960735,0.4627773038100762,-2.040930698910109,0.04874096529164365,nan
1740797053.8714561,-0.1585608657774459,0.5687432529879369,-1.2654524012860429,0.6058910483210361,nan
1740797053.875362,1.426853270792083,0.3616756978358883,0.11419998490215855,0.30847377098468093,nan
1740797053.879268,1.4993178877146551,-0.018831905353691558,0.8569455340235878,0.01789309204695664,nan
1740797053.8831737,0.9321252599202386,-0.23534782147295136,0.6973562536680799,0.43796645444919136,nan
1740797053.8870797,0.7271873193619559,-0.21330196551018057,0.3169520877035406,1.1919391822613778,nan
1740797053.8909855,1.0004586886423694,-0.2128029950977058,0.30916453230795693,1.2609667525045063,nan
1740797053.8948944,1.0936949330075842,-0.4290331305744993,0.5233569841115471,0.2517054012144639,nan
1740797053.8988004,0.43464002745498104,-0.662550202005993,0.45221397199223023,-1.0448357023539427,nan
1740797053.9027061,-0.8417994782165096,-0.5070425492130803,-0.024032815274178453,-1.478450349543756,nan
1740797053.9066122,-2.009602453604554,0.14241598699333424,-0.5069510453993117,-0.7716983110440069,nan
1740797053.910518,-2.3129497238798415,0.8574268516286982,-0.6100833731815477,0.25758205886391,nan
1740797053.914424,-1.4490855137734842,1.0272999197731083,-0.39293757695550263,0.6579887313767341,nan
1740797053.91833,0.2536941459273532,0.46850706468128656,-0.20133265061900504,0.3095019919593475,nan
1740797053.9222357,1.9432400582925324,-0.32880000703429385,-0.2200270090975944,-0.15852847489363486,nan
1740797053.9261417,2.6325556893347244,-0.6131580465852141,-0.3069419979430544,-0.22194764067365624,nan
1740797053.9300475,1.813843752689975,-0.10777943655580781,-0.20666431478314876,0.016020610458358717,nan
1740797053.9339535,-0.06290585010382954,0.6258870472906298,0.19990468103926595,0.15400389699426922,nan
1740797053.9378593,-1.7585765982908168,0.6331853249517994,0.8260432134906901,0.08211669337040442,nan
1740797053.941768,-2.1289802505342217,-0.47044315719712493,1.382282059242715,0.03617715020280559,nan
1740797053.945674,-1.046683653735916,-1.9017733029269912,1.3956820972062651,0.15418406693222175,nan
1740797053.9495797,0.5083048748081203,-2.2001629425399285,0.4530980675174232,0.24088772684727963,nan
1740797053.9534857,1.3232101482838903,-0.5717004653974537,-1.2746010190888364,0.07967396820706324,nan
1740797053.9573917,0.970638116179438,2.1071437292003985,-2.739703129365315,-0.1904372570308671,nan
1740797053.9612975,0.020162818303102306,3.7476475278461105,-2.6030118836121865,-0.22250048981010545,nan
1740797053.9652035,-0.6508829360283857,2.801815566577445,-0.5004075474355593,0.0313450879561254,nan
1740797053.9691093,-0.6544260047833991,-0.2313795256286531,2.2356827427987778,0.17780069328270862,nan
1740797053.9730153,-0.23627617059382788,-3.0720121754119036,3.4435177995552437,-0.11943163070290917,nan
1740797053.976921,0.18095814159905366,-3.6036558917976302,2.0616069134500106,-0.617924737067405,nan
1740797053.980827,0.41180953557754735,-1.7053040734497775,-0.7479925379107494,-0.6879323665082977,nan
1740797053.984733,0.4760503903365125,0.7911246740916934,-2.578322264952262,-0.06841612781234212,nan
1740797053.9886415,0.35950404836641725,1.930946268106041,-2.0267513100737395,0.7357803974596036,nan
1740797053.9925473,0.0010266407303932534,1.3799307375569845,0.0353489661836998,0.9634574307894489,nan
1740797053.9964533,-0.48518520800388115,0.3775775805929492,1.469679014058645,0.44972166069865954,nan
1740797054.000359,-0.7436095963773458,0.1417504015113633,1.0669905724842694,-0.19878262858025483,nan
1740797054.004265,-0.4773269000923584,0.5643691367943803,-0.3761631760500984,-0.32507396120401255,nan
1740797054.008171,0.1908751504605128,0.572993927182341,-1.1283630141443046,0.027704445153566452,nan
1740797054.0120769,0.7505311721582103,-0.4028077242617305,-0.4418468225788405,0.23015297137835125,nan
1740797054.0159829,0.7507729700505275,-1.6240852564493227,0.7805391028067287,-0.12360948552698396,nan
1740797054.0198886,0.20442763398690578,-1.8197311860186864,1.1504003658291349,-0.7111560397067016,nan
1740797054.0237947,-0.45453871743680163,-0.6271495051282986,0.34607117669005083,-0.8748226456560962,nan
1740797054.0277004,-0.7679079348214465,0.9552739913739258,-0.6684034670317597,-0.3974157220928336,nan
1740797054.0316064,-0.5829997049182625,1.5951883738400385,-0.8461935755988766,0.28316204919864396,nan
1740797054.0355146,-0.06623437501230799,0.9636355291957811,-0.20033808662053845,0.6256670292831066,nan
1740797054.0394206,0.478229223187232,-0.06517056284050811,0.37117604290964,0.5726907190841427,nan
1740797054.0433264,0.7629787538942823,-0.4675654536538786,0.23279137016721055,0.46874716091579677,nan
1740797054.0472324,0.6115252831542066,-0.1316829363633053,-0.27520233555995477,0.4981841229716204,nan
1740797054.0511382,0.06810763245728034,0.20828611714849882,-0.3427099910822891,0.4227743983826335,nan
1740797054.0550442,-0.5409509141325295,-0.04215097263221509,0.2595272652636419,-0.04045972518652931,nan
1740797054.05895,-0.7717625381261951,-0.6285716964930868,0.8497666349646265,-0.7227477287698246,nan
1740797054.062856,-0.4319491824705919,-0.7918514079507402,0.6107713942097043,-1.0750801559672425,nan
1740797054.066762,0.18772982168827104,-0.2005605625817452,-0.41874702651313256,-0.7648861379419832,nan
1740797054.0706677,0.5343838494212887,0.6224888369801309,-1.267135413566648,-0.07417260845322683,nan
1740797054.0745738,0.3193092056750764,0.8512007716312677,-0.9939272525559364,0.39607794197800344,nan
1740797054.0784795,-0.18684835257723043,0.25668054433861237,0.2993182866133101,0.3699715183657337,nan
1740797054.0823877,-0.43060670368151704,-0.5298829193208031,1.469751438336539,0.13767608365707618,nan
1740797054.0862935,-0.14834453581001028,-0.6687646779660064,1.3868379423501733,0.14545156089128852,nan
1740797054.0901995,0.37440107113139925,0.012476565357192422,0.03192629203867366,0.4529694328585112,nan
1740797054.0941052,0.6186382126680954,0.8248971269724668,-1.423609113114363,0.6840557179248817,nan
1740797054.0980113,0.35532698608958774,0.9026561458379305,-1.6677773637900741,0.4769714401909833,nan
1740797054.101917,-0.17742846008442434,0.07886388510627093,-0.4637833590236026,-0.11680374892753918,nan
1740797054.105823,-0.5647286825727591,-0.9215728111375685,1.108675181489487,-0.702067621866586,nan
1740797054.109729,-0.5922544965338842,-1.1737424844870759,1.6396503870423131,-0.9234785839274624,nan
1740797054.1136348,-0.33020792604633215,-0.4575079647491342,0.700243607461448,-0.7197648771692552,nan
1740797054.1175408,0.04290749671363078,0.5233226775560843,-0.7630325926102086,-0.26219484867101694,nan
1740797054.1214466,0.38056767116756185,0.8449685462690428,-1.3475605366963874,0.23004760018915218,nan
1740797054.1253526,0.5502911257654086,0.2978795409011648,-0.5538315609925764,0.575689013206392,nan
1740797054.1292603,0.42431340314194715,-0.41032374314280645,0.7465248534515113,0.6424189629202534,nan
1740797054.133166,0.012910231559913629,-0.4226493172386581,1.2036702999263256,0.41104643809744035,nan
1740797054.137072,-0.41936745701646094,0.31648066332211244,0.34933796813893536,0.05106145354158479,nan
1740797054.1409779,-0.5057324095153292,0.9617644969178284,-0.9499373395798362,-0.16472506511770116,nan
1740797054.1448839,-0.13710099804742587,0.677593018030533,-1.3908346486829297,-0.10889486430572286,nan
1740797054.14879,0.3628534415103656,-0.40252235730725894,-0.5393291330668388,0.052103088818936924,nan
1740797054.1526957,0.5121044436657097,-1.2488918420329935,0.7887998312280411,0.03042060454780296,nan
1740797054.1566017,0.15368165942596074,-1.021460802122288,1.4013083477498427,-0.24029953108665947,nan
1740797054.1605074,-0.37347286496263943,0.005803994385441199,0.8853758863178838,-0.48992422879857583,nan
1740797054.1644135,-0.5788070720707114,0.7367003016372938,-0.13090259139104068,-0.3951045905589082,nan
1740797054.1683192,-0.30980098882394597,0.47382908135625135,-0.7512079928029669,0.03803085205966171,nan
1740797054.1722252,0.13811214545886685,-0.2984282922398878,-0.6827405425160569,0.43582137646672725,nan
1740797054.1761343,0.37478044976616065,-0.483543653810569,-0.31492236277889524,0.4313408873845939,nan
1740797054.1800404,0.3048338910928963,0.3239444976577543,-0.10027833544804114,0.04997194779770064,nan
1740797054.1839464,0.13626158519699855,1.2939562037119785,-0.06192406218380002,-0.3118286783409067,nan
1740797054.1878521,0.06810214823037765,1.2385133886566024,0.055233065322336336,-0.2863918036972349,nan
1740797054.1917582,0.06804677327957438,-0.04538139183421607,0.3198993274793316,0.10988040561258576,nan
1740797054.195664,-0.017893855826621497,-1.478576384310174,0.48817487894420875,0.5108039027919862,nan
1740797054.19957,-0.21205557775556583,-1.7944729914245434,0.3445987437155065,0.5506862204698438,nan
1740797054.2034757,-0.3476159076309335,-0.8175872014212611,0.01298544026330811,0.17237645998642973,nan
1740797054.2073817,-0.26854433428887803,0.45299192582156017,-0.1896107496404414,-0.360835901675022,nan
1740797054.2112877,-0.02394243460690887,0.9629889248788142,-0.15424347926753582,-0.6978327429818191,nan
1740797054.2151935,0.18047960704742583,0.6268764063157602,-0.09446626477064136,-0.6493403710225703,nan
1740797054.2190995,0.20309833273597286,0.1831360739922631,-0.217657317269714,-0.28376718668374634,nan
1740797054.2230067,0.09664935476663714,0.20463350309195583,-0.39418062124106157,0.15329270335901785,nan
1740797054.2269125,0.019425691353149196,0.48253196778669427,-0.287347251325815,0.41782285662567287,nan
1740797054.2308185,0.05604755589544644,0.42295979314505805,0.18601695105788785,0.42723511929275065,nan
1740797054.2347243,0.1457796907162142,-0.14732937577976382,0.6481254156855435,0.2901154824884333,nan
1740797054.2386303,0.16218923862872905,-0.7685839342756027,0.6148538236654545,0.17627304923182996,nan
1740797054.2425363,0.03414904143827333,-0.9096380010800136,0.04011864314589938,0.140553750529048,nan
1740797054.246442,-0.19648877075473445,-0.5465022568758817,-0.5784948396429582,0.08206996382955598,nan
1740797054.250348,-0.3946763223605404,-0.08013351671052231,-0.6769016357217738,-0.1063502446941881,nan
1740797054.2542539,-0.40461635573030585,0.19726246797026997,-0.1769244505215771,-0.3648904977194473,nan
1740797054.2581599,-0.1573973214832664,0.3594512448441384,0.46052357605859595,-0.48842659225759494,nan
1740797054.2620656,0.23763800298437682,0.5571010415601609,0.6966627139735512,-0.34418302748285456,nan
1740797054.2659717,0.5200525420350849,0.6702100458540184,0.38604015047318513,-0.03699887625426265,nan
1740797054.2698805,0.4660087574328812,0.43392815575278426,-0.17693270891230273,0.18841774703692818,nan
1740797054.2737865,0.10106201378195163,-0.12391100466981632,-0.5802116400674522,0.20916347206502472,nan
1740797054.2776926,-0.2878039222548477,-0.5697028798517224,-0.6093910207887029,0.14040905412164778,nan
1740797054.2815983,-0.39933519653051025,-0.5115087638634137,-0.31345395602857296,0.16325708290503016,nan
1740797054.2855043,-0.19634346074965875,-0.0811681221378522,0.11027369260724394,0.27659991627692376,nan
1740797054.28941,0.07870266178571785,0.18526673126473112,0.4400965149997005,0.28721275417947967,nan
1740797054.2933161,0.1707993458237048,-0.023175598998552652,0.514454236894394,0.059732957174714885,nan
1740797054.297222,0.06547811745017416,-0.40668767426059016,0.3121731884054225,-0.2814336828410883,nan
1740797054.301128,-0.04754580849516258,-0.40469796653416557,-0.01014386136015632,-0.4566161755950431,nan
1740797054.305034,-0.030392014445512792,0.11745874927592073,-0.216313228668624,-0.3266468178356691,nan
1740797054.3089397,0.04976782330161217,0.670664972288052,-0.1918257129554881,-0.032345484886651905,nan
1740797054.3128457,0.044669185375276296,0.6836463835104782,-0.050168877103759606,0.17411528269881976,nan
1740797054.316754,-0.0565961978129308,0.15097408842134655,-0.002076275294378173,0.18751453008140126,nan
1740797054.32066,-0.10876418094040921,-0.3696851466242147,-0.11272471761927814,0.09851442106835977,nan
1740797054.3245661,-0.013337758683351405,-0.3928613517479755,-0.22744798901617008,0.023406962790668697,nan
1740797054.328472,0.13233220975773052,-0.0219919471184938,-0.16421119318515767,-0.028560210591942164,nan
1740797054.332378,0.14757698402116337,0.23107750029558724,0.052988167084621396,-0.08911330047984815,nan
1740797054.3362837,0.0030485693477341107,0.06714752132963701,0.20932150760987112,-0.10697085423149448,nan
1740797054.3401897,-0.13215218777859045,-0.28238264461900137,0.15679688599322453,0.0122163391000086,nan
1740797054.3440955,-0.10232597032026461,-0.3781093783004713,0.004612201243832862,0.23357313337601224,nan
1740797054.3480015,0.034402495946922886,-0.10769289384509191,-0.001212791237307617,0.3486913510181189,nan
1740797054.3519075,0.08241075752547504,0.2050772405193459,0.21648822751426408,0.18171216799499473,nan
1740797054.3558133,-0.030093067289971527,0.21147703445325575,0.4324496372123821,-0.1784525722357245,nan
1740797054.3597193,-0.14551393436372095,-0.045386743671221245,0.33052731561458626,-0.42871131417810965,nan
1740797054.3636274,-0.07626529917600414,-0.19207240543618767,-0.15392129312366395,-0.36507227098452866,nan
1740797054.3675334,0.13806909067638037,0.030458912839578405,-0.7223620050808994,-0.09758866110900292,nan
1740797054.3714392,0.25226372972415495,0.4573772191083561,-0.9485327924459658,0.09478460470582706,nan
1740797054.3753452,0.1069493399706088,0.6582104097613547,-0.6290532323634842,0.09231926256546656,nan
1740797054.3792512,-0.16580288478588734,0.37017405495294625,0.066492795244712,0.041542232328969704,nan
1740797054.383157,-0.2826433268515552,-0.24908944184970158,0.7394842951914201,0.12006309806305653,nan
1740797054.387063,-0.12989670666992692,-0.7724208853648482,1.0372544441063176,0.27616465835490384,nan
1740797054.3909688,0.11990967162748381,-0.8685048647802179,0.8437209709348247,0.2889706281829077,nan
1740797054.3948748,0.2230179308009845,-0.5333938303447908,0.29743362041513255,0.07216472886695721,nan
1740797054.3987806,0.1331987620693279,-0.02557960349747579,-0.3192862031247748,-0.18338425198490035,nan
1740797054.4026866,0.003806770356542973,0.37713159749876785,-0.7343185404984693,-0.23146646040365315,nan
1740797054.4065926,-0.04149654163951484,0.5660629042199664,-0.808552959780846,-0.08116324938678184,nan
1740797054.4105005,-0.04942057194178623,0.5993054449804179,-0.5738700508738888,0.012115370147880587,nan
1740797054.4144065,-0.11627493508577176,0.5547904144836628,-0.17575981357412487,-0.11851043732503821,nan
1740797054.4183123,-0.19966804507877042,0.4058511970965831,0.22409514916411694,-0.31386500669794376,nan
1740797054.4222183,-0.14763995564029456,0.05971121765751535,0.5055800346106785,-0.2675764802399731,nan
1740797054.4261243,0.076422013114926,-0.4653944211236365,0.5900228329922469,0.08327007227784665,nan
1740797054.43003,0.2850272747241868,-0.9210881958652072,0.441669736198477,0.4427179788556631,nan
1740797054.433936,0.25725954275636126,-0.956372662837594,0.11237247248357157,0.4750277278575023,nan
1740797054.437842,0.014599320987134847,-0.4401507923337412,-0.2298112759415501,0.18107745343428158,nan
1740797054.441748,-0.17660395601523032,0.33084902975319985,-0.38161205293129397,-0.11873912250747361,nan
1740797054.4456537,-0.11145473277915213,0.8117155586383453,-0.27010896734158024,-0.16400757696643936,nan
1740797054.4495597,0.10069150083632504,0.6776739735194759,-0.03641808921678305,-0.030363062974284663,nan
1740797054.4534657,0.15876557211658282,0.1377237392353709,0.08692504508453125,0.015789760509126907,nan
1740797054.4573736,-0.06234559693806007,-0.25485884796160885,0.006531433431974894,-0.12705600119198826,nan
1740797054.4612794,-0.34004918294354664,-0.14421244075574746,-0.13947583004302452,-0.28137982126866734,nan
1740797054.4651854,-0.3458344894493751,0.2746329123937608,-0.1406387727610041,-0.2384078223740548,nan
1740797054.4690912,-0.023868398880487675,0.463095194992112,0.0464995702273171,-0.027724582833625704,nan
1740797054.4729972,0.33582777354181526,0.10248465012820838,0.24947977297189092,0.13515106183294723,nan
1740797054.476903,0.41066484308708023,-0.5644646591726079,0.27352066949431536,0.1335068938590749,nan
1740797054.480809,0.17915040893773454,-0.9578459480969852,0.10900873062332374,0.0816862862654555,nan
1740797054.484715,-0.09399639326572544,-0.7108798459725821,-0.08018878237385718,0.13829042055105942,nan
1740797054.4886208,-0.16974964284622596,0.0029258690902605427,-0.15009294183123778,0.2632745632028183,nan
1740797054.4925268,-0.06742348198759072,0.6532359813889138,-0.10879497149014168,0.2540362568304393,nan
1740797054.4964325,0.020457319509347753,0.8225585006880299,-0.05087752686896726,0.020696725134029804,nan
1740797054.5003386,-0.021009862645738134,0.5110579017276617,-0.018179046262119657,-0.26349181432757735,nan
1740797054.5042462,-0.12346950457544732,0.051549807104649174,0.019139435025842318,-0.3463517149799796,nan
1740797054.508152,-0.15993912095870036,-0.21477443469357796,0.06353682108386682,-0.19202492227210646,nan
1740797054.512058,-0.1001030153565542,-0.19597294671913776,0.05074282715160455,-0.014762657845728954,nan
1740797054.515964,-0.005437264591143144,-0.06257376963621018,-0.048777421853835934,-0.008219479345046025,nan
1740797054.5198698,0.08307682224873483,-0.0542019039252042,-0.13771889952578684,-0.11154461528785183,nan
1740797054.5237758,0.18087018177421868,-0.24676365909772993,-0.08144761808558183,-0.10246452980003858,nan
1740797054.5276816,0.2762671447559929,-0.4607250687502591,0.1003185837638745,0.10762420446371505,nan
1740797054.5315876,0.2766807155385366,-0.40464343408501685,0.20633220432892857,0.349420466119064,nan
1740797054.5354934,0.09959042038211115,0.030539461590897397,0.08363126395579858,0.390296624198438,nan
1740797054.5393994,-0.1912405842513068,0.5869744520486525,-0.1464563389121239,0.19759880084976839,nan
1740797054.5433054,-0.3975813931746233,0.7991000054527629,-0.18555449056388837,-0.046959296759414786,nan
1740797054.5472112,-0.3686173786687531,0.4231399190335281,0.07875267143176376,-0.17263155435950125,nan
1740797054.5511189,-0.15238878572026213,-0.2678734524239847,0.37465133271771006,-0.18793677799983188,nan
1740797054.5550246,0.06378066775039676,-0.6807973038440974,0.3073964997369145,-0.20168404676716453,nan
1740797054.5589306,0.15523355378300285,-0.4653120870035225,-0.16989616902881516,-0.2388204103347104,nan
1740797054.5628364,0.16637482650131272,0.12105649504313394,-0.6304431599064461,-0.20893066868076046,nan
1740797054.5667424,0.2056127639111194,0.4665582779340722,-0.5934289588906462,-0.05434471449698377,nan
1740797054.5706482,0.2730073695190676,0.24595985781286886,-0.050510136474742146,0.14227678444873024,nan
1740797054.5745542,0.24164004892266513,-0.2398515787368976,0.5014025954799636,0.24423010482375457,nan
1740797054.5784602,0.019372326373010642,-0.4139875352067222,0.5785320304672806,0.22072720365045073,nan
1740797054.582366,-0.30393235722195205,-0.08230732843823156,0.20618617571719186,0.16132652751932383,nan
1740797054.586272,-0.502935956819727,0.3475158569914157,-0.15593225698332075,0.1325086389718211,nan
1740797054.5901778,-0.4147689206496168,0.3456353808309373,-0.1505162676177825,0.08531617106669884,nan
1740797054.5940838,-0.08492607656374013,-0.11009003799120376,0.10285396834180212,-0.05087094706131282,nan
1740797054.597991,0.27341980664628945,-0.4889015281641992,0.2001601102622658,-0.22259352067326707,nan
1740797054.601897,0.44812930208664387,-0.3114263782608027,-0.05241363534678357,-0.27725170739664623,nan
1740797054.6058028,0.3672858312717526,0.2878755833628097,-0.42569636471632893,-0.15260904036949297,nan
1740797054.6097088,0.1168546833979691,0.689436448259094,-0.5456943610375026,0.018501453240615768,nan
1740797054.6136146,-0.1390781587655118,0.46411677796462814,-0.29564780135017393,0.0522036107117502,nan
1740797054.6175206,-0.26337304702009934,-0.16918078352148413,0.11396649739505087,-0.055062256713012216,nan
1740797054.6214263,-0.2205892683589216,-0.6030865480416139,0.41705075122074037,-0.10838206786132284,nan
1740797054.6253324,-0.08689141152670277,-0.49582396183693583,0.5275630210466066,0.042837597638669664,nan
1740797054.6292384,0.017640443459688886,-0.07930917929366661,0.48985210737615603,0.2926860858517545,nan
1740797054.6331441,0.03360761279461672,0.17834960637696254,0.3068868550263201,0.374138728181176,nan
1740797054.6370502,0.010727754939171044,0.11158968169787858,-0.05840365663033164,0.16699228032633553,nan
1740797054.640956,0.04051507115936428,-0.025899380158982882,-0.5104326338687108,-0.14848819036088143,nan
1740797054.6448648,0.1354168133609188,0.054952863066637735,-0.7684535112005169,-0.2838721126928661,nan
1740797054.6487708,0.19444433678777814,0.29861674249124937,-0.5932697868405246,-0.15810705164523187,nan
1740797054.6526766,0.11180909083429555,0.38087623875884735,-0.06341945692494949,0.03185738229565775,nan
1740797054.6565826,-0.08641031190507142,0.12042825633504954,0.4477772474708017,0.05543820224868109,nan
1740797054.6604884,-0.2443549002393996,-0.28078193199778995,0.6078912986634865,-0.09243843669230722,nan
1740797054.6643944,-0.2313982993312726,-0.446875243069703,0.4106529719510763,-0.2131396469367999,nan
1740797054.6683002,-0.07782423940479433,-0.23497606362623216,0.10825308900112357,-0.15130284831504903,nan
1740797054.6722062,0.06797952828399759,0.11864558163573369,-0.08966931204131183,0.04209967206433087,nan
1740797054.6761122,0.10923449140027251,0.2559181771293045,-0.17938406229073817,0.2015576309311996,nan
1740797054.680018,0.09194825470631818,0.06246713782811962,-0.23881361968280224,0.24179820511418576,nan
1740797054.683924,0.11122846026751694,-0.23487274418497822,-0.24801187707105146,0.208579799501821,nan
1740797054.6878297,0.16074566612586538,-0.30668144550233506,-0.12552904030562728,0.16015127969207624,nan
1740797054.6917384,0.1277504176884482,-0.03751495728320416,0.08595664520716714,0.07475429977130829,nan
1740797054.6956441,-0.05000307376247561,0.3700695868014682,0.18991787766112866,-0.08567181814275733,nan
1740797054.6995502,-0.2647642541412152,0.5700615430978115,0.06339294354477372,-0.2633365911547162,nan
1740797054.7034562,-0.32392062252774967,0.36146581696595353,-0.1412040997129795,-0.32621844269605166,nan
1740797054.707362,-0.15695848242890612,-0.138514039161189,-0.13079394477559816,-0.2169964008040955,nan
1740797054.711268,0.0977562495501252,-0.5678730086619657,0.1625733666531763,-0.03425869702379831,nan
1740797054.7151737,0.23384439543023575,-0.5957067101548829,0.43342375752450774,0.07385482721042815,nan
1740797054.7190797,0.1849488262229351,-0.19794317131316688,0.31213975636297014,0.07802096185539992,nan
1740797054.7229855,0.06476081048009204,0.30220517263815444,-0.1845634150777175,0.08386574974107257,nan
1740797054.7268915,0.009766893235632452,0.4970762688842913,-0.6021304746905249,0.17376957475828073,nan
1740797054.7307975,0.02533273760545152,0.2531949620303244,-0.5080652105584265,0.2787312913512073,nan
1740797054.7347033,0.012697000000028493,-0.168585128425926,0.02903664867395631,0.24988419551973512,nan
1740797054.7386117,-0.07845192767113694,-0.3660514821391645,0.4905342577577214,0.04515556742284619,nan
1740797054.7425177,-0.17386153596209003,-0.1844119285553903,0.4511633701980679,-0.20155736795164192,nan
1740797054.7464235,-0.1653987697633211,0.15232987451657504,0.01746425059174561,-0.3156531547080079,nan
1740797054.7503295,-0.04518114062957044,0.30062800314952076,-0.31737742473735786,-0.2571514074397108,nan
1740797054.7542353,0.0848608730669688,0.16249196665191037,-0.22261519040643832,-0.13141715318027114,nan
1740797054.7581413,0.13002091775926114,-0.04161635807104799,0.13443081703403983,-0.042272047516466196,nan
1740797054.762047,0.0951159085641361,-0.05974850581713245,0.3148653432781881,0.017714147680098498,nan
1740797054.765953,0.04896998266844005,0.0838276895621092,0.1075101330266047,0.11192441413102577,nan
1740797054.769859,0.02753270791764218,0.11885751568395972,-0.2611920287768938,0.23173878831651376,nan
1740797054.7737648,0.006652481307777414,-0.13464105559337164,-0.4033710047682386,0.27490847471818397,nan
1740797054.7776709,-0.03576816819045177,-0.5097419044095592,-0.18610276557815628,0.16262901711064331,nan
1740797054.7815766,-0.07177824089343848,-0.618124665906454,0.1652126865581921,-0.052259024657017664,nan
1740797054.7854848,-0.061942596950552445,-0.24047552750181844,0.33767313443066405,-0.21995902118137028,nan
1740797054.7893908,-0.020539407236145044,0.422514681787838,0.23821622074876944,-0.23023688107258805,nan
1740797054.7932968,-0.004531558502443251,0.8962159692973763,0.02402773804445627,-0.10013435847105846,nan
1740797054.7972026,-0.03214350963514762,0.8323139231755746,-0.10943258700793623,0.061849555631939244,nan
1740797054.8011086,-0.045309460869449696,0.2890453017853431,-0.11090991877793946,0.1496283990539291,nan
1740797054.8050144,0.018643036035396205,-0.3422166714020808,-0.057815307555734025,0.11673377655334863,nan
1740797054.8089204,0.13004546964275462,-0.6675815765121923,-0.02687914281855155,-0.016573693455553238,nan
1740797054.8128262,0.17714231334839747,-0.5820819112026513,-0.024748547462705467,-0.16932296608853978,nan
1740797054.8167322,0.08769478400945743,-0.2953144177013534,-0.024729369291405623,-0.2228494030588459,nan
1740797054.8206382,-0.08002742882059546,-0.09920492990136073,-0.019030805839583206,-0.09634336990428781,nan
1740797054.824544,-0.1909337905964039,-0.08967709602998451,-0.013869463470205947,0.1565397299154446,nan
1740797054.82845,-0.17161585696234327,-0.08890767102380429,-7.912460585115525e-05,0.3442073201982095,nan
1740797054.832358,-0.07152066680053021,0.14800986662606155,0.03817122348007885,0.28642779357299913,nan
1740797054.836264,0.0166945028150528,0.6184617145226987,0.08657004845961483,-0.0002959245541728034,nan
1740797054.8401697,0.06731371686461454,0.9702354091495959,0.0995141398544003,-0.2845109699212743,nan
1740797054.8440757,0.12277312136988595,0.778620762578321,0.05096480578961763,-0.323019142385188,nan
1740797054.8479815,0.19504473410661272,-0.007575314564638819,-0.02536147006856738,-0.09468480197099508,nan
1740797054.8518875,0.2092861076351654,-0.902224750378716,-0.06490477430063249,0.17980870038554378,nan
1740797054.8557932,0.07883881108179017,-1.2422445405943974,-0.04275480721094969,0.2559845523848105,nan
1740797054.8596992,-0.1702918215687288,-0.78646128613583,-0.0031476590977586806,0.09222208724959496,nan
1740797054.8636053,-0.38017717062026435,0.039347541983469056,-0.011701066581036914,-0.14097910060696825,nan
1740797054.867511,-0.3857493169879058,0.5397188731168694,-0.08202396994425205,-0.2486499738796502,nan
1740797054.871417,-0.15991508729633147,0.4186123016950426,-0.1531952576527565,-0.17831830845641072,nan
1740797054.8753228,0.16343702832538043,0.03592099564739331,-0.1379792990819757,-0.013909418552709947,nan
1740797054.8792305,0.3974102352730207,-0.02094563758519096,0.002882099038034041,0.1406660130883421,nan
1740797054.8831365,0.42857232855013205,0.4035531632592698,0.21669069540124514,0.23196070474136918,nan
1740797054.8870423,0.26383181917096926,0.8477199862960682,0.37373264407483653,0.2367997905237615,nan
1740797054.8909483,-0.0019546664881919837,0.7169585339831073,0.34033822852427964,0.13947940900859074,nan
1740797054.894854,-0.24348440203451616,-0.0805320157698384,0.08017825616229086,-0.03359156652456691,nan
1740797054.89876,-0.35792009122999724,-1.0076195557620025,-0.28303464113414384,-0.18669712499423052,nan
1740797054.902666,-0.31104861538781503,-1.3854547206803178,-0.5157455117833989,-0.21887261703429498,nan
1740797054.9065719,-0.15659147832693351,-0.9767247625233655,-0.43884325291177,-0.13168424226806602,nan
1740797054.9104779,0.0039864526900675505,-0.11598452699671222,-0.08730158103589586,-0.03878709966788565,nan
1740797054.9143836,0.10439877620981569,0.6464520032201948,0.2914204169476195,-0.03618821624056261,nan
1740797054.9182897,0.15917026206785478,0.970078829795271,0.4305176929768127,-0.07909125887118539,nan
1740797054.9221954,0.2156365129872828,0.8554949689802547,0.2669761312041581,-0.03085202276908374,nan
1740797054.926103,0.26532351471320575,0.4962405204173207,-0.01750937367687859,0.15429873392293994,nan
1740797054.930009,0.230314431702925,0.09450726192941548,-0.17932255124802496,0.3363765656893894,nan
1740797054.933915,0.0580149959185579,-0.21539841365384066,-0.13513045294946843,0.3201193704861871,nan
1740797054.9378207,-0.18405463615694698,-0.3776190334113214,-0.003833670297165639,0.07698253643700785,nan
1740797054.9417267,-0.3414505068197687,-0.4189559367120881,0.05340130796331321,-0.20283346533131053,nan
1740797054.9456327,-0.3159221862367034,-0.41641823393397814,0.004728119837982079,-0.30161004945765957,nan
1740797054.9495385,-0.15989830069816416,-0.4073648380310749,-0.05139613645496287,-0.19435192666099108,nan
1740797054.9534445,-0.010691386622816264,-0.3325925834979259,-0.03086162953226307,-0.047147983760998595,nan
1740797054.9573503,0.05860862909294195,-0.11075130930807317,0.031015951669209896,-0.0068057301467384645,nan
1740797054.9612563,0.09507158354090764,0.22308471045207198,0.03389245584000053,-0.04016898654766769,nan
1740797054.965162,0.16997096796299554,0.5020120343275277,-0.052048407915703414,-0.010114994853572439,nan
1740797054.969068,0.26234825937518713,0.587600392583753,-0.1385079565274088,0.1211789759556691,nan
1740797054.9729755,0.274780777537107,0.5112447600001507,-0.11438172713738068,0.22528679714539732,nan
1740797054.9768813,0.1582646452834206,0.39325353620187553,0.030968862311572053,0.16450124353909873,nan
1740797054.9807873,-0.02176574869375985,0.23192963032676042,0.1949630850857025,-0.024051535145718426,nan
1740797054.984693,-0.1674756108204829,-0.12386323150792099,0.2622025626657945,-0.15271834736814155,nan
1740797054.988599,-0.2647048017063613,-0.7087343031231925,0.19891632197936435,-0.09652517539379292,nan
1740797054.992505,-0.36426860801840344,-1.2000521153525405,0.05158288417099928,0.05902891889195249,nan
1740797054.9964108,-0.4425813098860338,-1.1002777031206645,-0.11687740925993939,0.11613015780845454,nan
1740797055.0003169,-0.3457528688675416,-0.2653036749778587,-0.26232300270156583,-0.004044866540233439,nan
1740797055.0042226,0.05036314973111785,0.7997689262149658,-0.34045153250507204,-0.1688199194965169,nan
1740797055.0081286,0.6127620975434389,1.3103640404052057,-0.2940548046287249,-0.18824568365580627,nan
1740797055.0120344,0.9513711250304044,0.9389837416689424,-0.09628789479614955,-0.03482342914935755,nan
1740797055.0159404,0.731677466296056,0.13533316805127396,0.18878027277597306,0.12589209138483407,nan
1740797055.0198493,0.021552159137031967,-0.3540666889391781,0.4124714890050545,0.12607832342031303,nan
1740797055.0237553,-0.7014196482206821,-0.25977513528589036,0.4366042840028007,-0.013577661975413645,nan
1740797055.027661,-0.9360073406672985,0.0007191453857678783,0.24051236822165487,-0.10940065210638973,nan
1740797055.031567,-0.5813348754172747,-0.10365414995507269,-0.057953178513389464,-0.02464600514930987,nan
1740797055.0354729,0.008370436003553966,-0.547806782383401,-0.2868865057232634,0.17216439772177128,nan
1740797055.039379,0.3752715654753448,-0.7759070564892467,-0.3378042971289891,0.27363752818220105,nan
1740797055.0432847,0.3547955516316317,-0.3835193179334141,-0.22565958807792133,0.1501209957993239,nan
1740797055.0471907,0.14514228603539875,0.3629198046105635,-0.05763400218049991,-0.11459400934839338,nan
1740797055.0510967,0.03593771363706856,0.791022783342017,0.054478758933394565,-0.3054383905768589,nan
1740797055.0550025,0.11224088639329693,0.5603187224938689,0.07264011553010269,-0.28304328255298006,nan
1740797055.0589085,0.22071242629157384,0.011954398929424617,0.04828641701481871,-0.10273207759621845,nan
1740797055.0628142,0.17704659745321852,-0.2543687876479585,0.06388426957117313,0.06340137147586515,nan
1740797055.0667229,-0.037292708738143665,-0.05235078222512553,0.144225046589291,0.10498203804342658,nan
1740797055.0706286,-0.27685853557886453,0.2473311202853831,0.21674305343574296,0.06394318567770058,nan
1740797055.0745347,-0.3848594149080545,0.21352436281102205,0.17134735219038608,0.054928858034450384,nan
1740797055.0784407,-0.3170277820009779,-0.14277180452472668,-0.021687878277328678,0.11716507696102911,nan
1740797055.0823464,-0.13647446653600803,-0.43637595897958636,-0.2517921906520682,0.1668959906508799,nan
1740797055.0862525,0.06702301634272563,-0.3958156847129974,-0.3454979031787338,0.10249826596098205,nan
1740797055.0901582,0.23099603678724642,-0.14595821569142578,-0.22407627332338795,-0.059631484331876455,nan
1740797055.0940642,0.31857820540097387,0.017642557246343806,0.014912655652384359,-0.18067121988937299,nan
1740797055.09797,0.3061267872775031,0.014518317549951833,0.18650322446244186,-0.1447963463325345,nan
1740797055.101876,0.19417069508634666,0.025841298067698866,0.19447278238814825,0.002556864559064599,nan
1740797055.105782,0.021504512254210646,0.18984967663282837,0.1093950537659088,0.08805072784250616,nan
1740797055.1096878,-0.14916516994562082,0.3874099141126299,0.06374609968467454,-0.00344984536356478,nan
1740797055.1135962,-0.26488201322974175,0.40058722374035133,0.08456465893930044,-0.18786830132037877,nan
1740797055.117502,-0.2995343752171342,0.20669195682782007,0.06242276752731574,-0.2513643585722495,nan
1740797055.121408,-0.2451136162213493,-0.003684943119826183,-0.09638083411955144,-0.07186782729937419,nan
1740797055.125314,-0.10604996574967633,-0.10281663881990595,-0.30871656502239336,0.23891197824419041,nan
1740797055.1292198,0.0839377274108757,-0.19827125717862995,-0.35226548892523274,0.42894717918524206,nan
1740797055.1331258,0.24932048267700066,-0.4379167149820421,-0.09664599212187738,0.3420947170148858,nan
1740797055.1370316,0.30492827272927553,-0.700628362842884,0.3111450888375824,0.055509141036679546,nan
1740797055.1409376,0.2224188595718961,-0.6293087342311481,0.5313916893318472,-0.2106464257241777,nan
1740797055.1448433,0.06397377655365244,-0.04713201116474642,0.3393627952298262,-0.29898251967280537,nan
1740797055.1487494,-0.0662027478843625,0.7276965251862276,-0.13932358744768258,-0.22328443957981375,nan
1740797055.1526554,-0.11474030763074744,1.099690565044119,-0.5137168244864859,-0.1001226469170244,nan
1740797055.1565611,-0.11935184187365751,0.7656588129600059,-0.4711819898510586,-0.016579393882053386,nan
1740797055.1604693,-0.14766606706244234,0.019099304270418165,-0.058316678044628326,0.02039657517995273,nan
1740797055.1643753,-0.19938368677555726,-0.547136057364485,0.36583339444521934,0.03873228984927775,nan
1740797055.168281,-0.18785089416156375,-0.604989098706852,0.45427809853209056,0.05396824338219082,nan
1740797055.172187,-0.03671853080789206,-0.3180759417169501,0.16704924879453223,0.07486417178710027,nan
1740797055.176093,0.20646796621100919,-0.05279299440147307,-0.22380527354858815,0.1166466757963385,nan
1740797055.1799989,0.374542600428888,0.025166792076129728,-0.39443614543868827,0.17150904395524466,nan
1740797055.183905,0.3223452755235692,0.016286659873426337,-0.23711534851822136,0.17739273072685252,nan
1740797055.1878107,0.07234095755406858,0.03678612842979049,0.09093822428695579,0.06294687982993907,nan
1740797055.1917167,-0.19037490037336952,0.04476344312491755,0.336104952824342,-0.1509347099827392,nan
1740797055.1956224,-0.28138845838878873,-0.03756263550536369,0.34935117776820734,-0.32062519329419054,nan
1740797055.1995285,-0.17988438109944488,-0.12399021314407825,0.15541456607274584,-0.2966242215159138,nan
1740797055.2034345,-0.027582335733910963,-0.015164101126790158,-0.11578654230527424,-0.08438354349445872,nan
1740797055.2073424,0.030086903114173762,0.32404348254750914,-0.32916451902550514,0.1387635390126915,nan
1740797055.2112484,-0.011062882847193686,0.6229262021827384,-0.39538522797105224,0.1939970815352397,nan
1740797055.2151542,-0.03486751149686147,0.5309303046819092,-0.2820279835039061,0.0812268012652495,nan
1740797055.2190602,0.04154288196872545,-0.004591229214542567,-0.025627740181253432,-0.03431760741987753,nan
1740797055.222966,0.1606988301573851,-0.6325526959581512,0.2616848118354293,-0.014738811950123056,nan
1740797055.226872,0.1874983850985219,-0.8972314252579037,0.4335367880235954,0.10090867082172683,nan
1740797055.2307777,0.06917381393942124,-0.6345127771048042,0.39937814678159717,0.15784938055860692,nan
1740797055.2346838,-0.09316100746292524,-0.07559583411096409,0.19162317710675525,0.07351277399057302,nan
1740797055.2385898,-0.1479346662857887,0.39609236559047717,-0.062276176754602175,-0.07471910140688945,nan
1740797055.2424955,-0.058399007454874315,0.5516656401523357,-0.24375376179173244,-0.15381788071346125,nan
1740797055.2464015,0.05617670244157374,0.41808312365577033,-0.3209498104446082,-0.12756510086593106,nan
1740797055.2503073,0.05194306505655352,0.1709490760805819,-0.32655845338031175,-0.0706673348872292,nan
1740797055.254215,-0.07918258971862763,-0.01408922579640997,-0.27643667845135056,-0.04842418751099456,nan
1740797055.258121,-0.1955676110288512,-0.047282062490801184,-0.13783911601606227,-0.03435796462213557,nan
1740797055.2620268,-0.152804110504873,0.03969372411677147,0.10684760796949852,0.02878551947304237,nan
1740797055.2659328,0.045397794958736026,0.10293032058631531,0.37880777972725094,0.121141678321279,nan
1740797055.2698388,0.24677085603945523,-0.013829318537351564,0.5181331744244885,0.15063598485534554,nan
1740797055.2737446,0.2929851879065549,-0.31245846292826246,0.4077692462757879,0.07258650412496662,nan
1740797055.2776506,0.1578956907045474,-0.5710979677676654,0.08945955962553663,-0.037710928409691445,nan
1740797055.2815564,-0.044699262503877055,-0.5118801294780264,-0.25128996180703345,-0.06676817404127929,nan
1740797055.2854624,-0.17225080270959287,-0.09287872543373865,-0.4256464293893432,-0.0019002626666125343,nan
1740797055.2893682,-0.16914233045001145,0.3908548546627762,-0.37714527845812407,0.052601991848267096,nan
1740797055.2932742,-0.09112408235980679,0.5627706593056399,-0.19425751629214033,0.008212337314865056,nan
1740797055.2971802,-0.0365364412748948,0.3451956964644626,-0.009071701995901273,-0.09323164253858338,nan
1740797055.3010874,-0.05381746584511359,0.04537886501965791,0.10646267499621799,-0.12950298137896155,nan
1740797055.3049934,-0.09947033529508274,0.01942174503675009,0.15780430471361087,-0.04934832346313709,nan
1740797055.3088994,-0.0776232549072014,0.2642460967066114,0.17332337808721765,0.06531424262872394,nan
1740797055.3128052,0.0660751838774934,0.398272452428448,0.15753309900512763,0.09957183907894371,nan
1740797055.3167112,0.2708663302177766,0.07629745315821623,0.10009677039314954,0.03617121326162203,nan
1740797055.320617,0.38298398015244217,-0.6020109682006011,0.01458663174001529,-0.042372010302322606,nan
1740797055.324523,0.2775267458744376,-1.1337341968391248,-0.05001036708874905,-0.06375609011619861,nan
1740797055.3284287,-0.01770903774349679,-1.0632238091875064,-0.04687290070838058,-0.03432457634049649,nan
1740797055.3323348,-0.32172487373643505,-0.3764060595264727,0.015246531744180064,0.00909292973159616,nan
1740797055.3362408,-0.4432971428424093,0.5286692203340353,0.05793996871694635,0.06700894213758925,nan
1740797055.3401465,-0.3379085529195568,1.1934146529924168,-0.012793168425057112,0.1496618142216331,nan
1740797055.3440526,-0.12230798652915695,1.3808066340355931,-0.21162499902248955,0.19927955625822866,nan
1740797055.3479598,0.06235003988542561,1.0754793551293753,-0.415697117186339,0.10937980561109262,nan
1740797055.3518658,0.1810172978485581,0.356629059329755,-0.41970748417111037,-0.13588955744787204,nan
1740797055.3557718,0.28329757305448,-0.6111164438423757,-0.10080021582354447,-0.37501627341493143,nan
1740797055.3596776,0.37261809005950547,-1.483519368764578,0.42746265104467107,-0.3892656833196954,nan
1740797055.3635836,0.349242827347342,-1.78453198183665,0.832779625769714,-0.13330669647186025,nan
1740797055.3674893,0.12189831414277685,-1.2114089226440985,0.7936921591037802,0.1914661063185042,nan
