timestamps,TP9,AF7,AF8,TP10,Right AUX
1740794946.701439,-0.015543817879756625,-0.17080050122332685,0.6531438678256875,0.00027966105747643085,nan
1740794946.705345,-0.013950319578732875,0.08132283864081014,1.0461706832150994,0.11058219768089217,nan
1740794946.7092507,-0.11679038935905983,0.007848004830544321,0.6449521297054741,0.050274856702312166,nan
1740794946.7131567,-0.19559918014533723,-0.23544270377137105,-0.08198391328883042,-0.09788758349585736,nan
1740794946.7170625,-0.11097262308366403,-0.28800613266877895,-0.4097345587755283,-0.13720989469021652,nan
1740794946.7209685,0.09930295729078191,-0.022371037035028477,-0.15258758040504386,-0.0009556764454523339,nan
1740794946.7248745,0.24907081196461364,0.3098864255987627,0.19429243132507398,0.16831144826019995,nan
1740794946.7287803,0.2203868207983904,0.3735427381929524,0.09829409108936106,0.1970715942903024,nan
1740794946.7326863,0.09303332712927624,0.12705712181632767,-0.3759230438283931,0.0830905586399218,nan
1740794946.736592,0.023113533038883194,-0.14716461989986918,-0.674281244029244,-0.029345573780502898,nan
1740794946.740498,0.033640719781018166,-0.16934765871146334,-0.41931309036967424,-0.048727132822132736,nan
1740794946.7444038,-0.0038703472981067534,0.040104216882469214,0.17698197143049138,-0.037630837598381484,nan
1740794946.7483163,-0.1687888679406298,0.20962820423309125,0.5874393823110021,-0.09028027424086603,nan
1740794946.7522223,-0.33898500022212963,0.12357234724030806,0.5329904469836519,-0.1692667139741509,nan
1740794946.756128,-0.305307006965077,-0.15953903403555492,0.18079794509866326,-0.1394209322711787,nan
1740794946.760034,-0.030566393181245596,-0.3816475241664645,-0.14140894584939592,0.03566966290615124,nan
1740794946.7639399,0.2693080364548022,-0.3348002720536403,-0.2715779830797468,0.2034001347848118,nan
1740794946.7678459,0.34020487537728905,-0.0319314770833108,-0.22618823600613353,0.18255206051366446,nan
1740794946.7717519,0.15818662049053506,0.32182032454315446,-0.04217592358647426,-0.011595069136999737,nan
1740794946.7756577,-0.060309666715665074,0.48713466337944816,0.23366789447807165,-0.16634806511169595,nan
1740794946.7795637,-0.10943138838911462,0.3476171413421423,0.4234265862115944,-0.11264711542793063,nan
1740794946.7834694,-0.005181773630225915,-0.01729684364274405,0.2688437602056815,0.08006068746225271,nan
1740794946.7873755,0.07605082777045333,-0.3770880316965761,-0.2676461483045307,0.19166355672177196,nan
1740794946.7912812,0.026590533552071253,-0.5014100671325593,-0.8108643501573825,0.11069652711322062,nan
1740794946.7951934,-0.08391075644855078,-0.32785466637991534,-0.8377625734293755,-0.05167022849363243,nan
1740794946.7990992,-0.1277872266183013,-0.0030072406596982617,-0.20807590378045723,-0.11839599298782919,nan
1740794946.8030052,-0.0837308081709936,0.25909936052511684,0.6266978430492044,-0.061851880178498395,nan
1740794946.806911,-0.033740170386308686,0.3664072250821195,1.0202697098015323,-0.009235868311051606,nan
1740794946.810817,-0.024144857768500172,0.3788056997671712,0.7339599692829674,-0.052433670286665915,nan
1740794946.8147228,-0.0011762016270939664,0.35052655194461696,0.10442022779900147,-0.12357974849079315,nan
1740794946.8186288,0.0874945196876776,0.20197840352223617,-0.3616723338707943,-0.0952175828851967,nan
1740794946.8225348,0.17758407887581548,-0.17467275468385612,-0.4706934281798247,0.03954646669775502,nan
1740794946.8264406,0.142085860704695,-0.6753597595768636,-0.38990812032784544,0.1524766459553047,nan
1740794946.8303466,-0.03410505566705572,-0.9378876249653535,-0.31256986738133347,0.14831998798952803,nan
1740794946.8342524,-0.19095191776110276,-0.6403332182010659,-0.21603803409971184,0.08475016631984357,nan
1740794946.8381584,-0.15297478128214037,0.12998447435180607,0.013896558152879658,0.07828768394322004,nan
1740794946.8420703,0.06132908691634253,0.8659218544310564,0.32251453172025507,0.12296827003686468,nan
1740794946.845976,0.23707658809558807,1.0611569547362105,0.46902606567993,0.07757116728214088,nan
1740794946.8498821,0.18685354728290962,0.6490244018616584,0.2853319108210938,-0.1384898628833478,nan
1740794946.853788,-0.05119036674288592,0.009388119721256052,-0.11266635049047423,-0.3874447460827652,nan
1740794946.857694,-0.26306773006660333,-0.4315243394219134,-0.410874331608945,-0.4192991050369229,nan
1740794946.8615997,-0.28601905534100036,-0.5513457224247227,-0.37233771058683696,-0.14665730900628743,nan
1740794946.8655057,-0.1476383255571848,-0.4898109900325974,-0.017389503017121635,0.23102659896717698,nan
1740794946.8694117,0.017514500999338163,-0.3667249839541443,0.415516613434924,0.4131177467178743,nan
1740794946.8733175,0.13362761850302032,-0.1608039201003545,0.6316444264310002,0.29431978161469646,nan
1740794946.8772235,0.21923379831007125,0.13196489001494574,0.44422298208444577,0.04625255787990411,nan
1740794946.8811293,0.28100532487866636,0.35177946645837155,-0.09835190871651558,-0.09024482579327643,nan
1740794946.8850353,0.24812722532308937,0.3114399746176573,-0.6791592929605704,-0.053379608261496056,nan
1740794946.8889468,0.061451067390451655,0.0646011272266707,-0.8810872755302785,0.01910717423462446,nan
1740794946.8928528,-0.19947746434344632,-0.0859217699887748,-0.5266099935777446,-0.015162940298887203,nan
1740794946.8967586,-0.34549679926992466,0.07244595257907854,0.10767532807351814,-0.13833725674636313,nan
1740794946.9006646,-0.26514047490922055,0.36799041190048204,0.5036339033573952,-0.2122613827815169,nan
1740794946.9045703,-0.05433181988701518,0.39848236762599026,0.41567746592362537,-0.14548942519697483,nan
1740794946.9084764,0.08136016381786722,0.0022289336462989594,0.13828821252007908,0.014219641378529069,nan
1740794946.9123824,0.05204315085578528,-0.5100814471565409,0.15884741334731536,0.14411684465931796,nan
1740794946.9162881,-0.02619305785706342,-0.6715083135109118,0.5337724602154494,0.16744754341065504,nan
1740794946.9201941,0.014781745025838589,-0.3741328052060616,0.7372541043049078,0.10044569865085323,nan
1740794946.9241,0.17894220703861155,0.026496633545393757,0.2490532030205351,0.009193524245021054,nan
1740794946.928006,0.2871402801645311,0.14570593909600277,-0.7525869406866231,-0.04870086595975992,nan
1740794946.9319117,0.182723820428964,0.018363140724248345,-1.4466787958632448,-0.04718406735507412,nan
1740794946.935823,-0.07673428290941987,0.017545660082725057,-1.198997104882162,0.006020599752821304,nan
1740794946.9397287,-0.26578436515808035,0.3463034428568151,-0.2454155440396967,0.06849227986570247,nan
1740794946.9436347,-0.22600111580826934,0.7306288322407738,0.5782140947508059,0.0803806356658893,nan
1740794946.9475405,-0.028093810470649096,0.7005688495209625,0.7575077918125708,0.011638643577211965,nan
1740794946.9514465,0.11206728690434768,0.1348762790551442,0.5819466945701257,-0.10021664642946061,nan
1740794946.9553523,0.06225854636898344,-0.5708003547995277,0.6250024263458062,-0.17384954102637426,nan
1740794946.9592583,-0.10063195625196944,-0.9005449861868094,0.8972783029665267,-0.156279854902373,nan
1740794946.9631643,-0.18733203012798577,-0.7126056171412546,0.7729045429043151,-0.06683556735847417,nan
1740794946.96707,-0.09369418251202775,-0.2896112181750399,-0.16616131703807765,0.03413566199455165,nan
1740794946.970976,0.1083352814732122,0.042306225511863756,-1.4100636544516785,0.10769494789692871,nan
1740794946.974882,0.25758703704707275,0.23061968707329578,-1.8936584128393446,0.1531834043253307,nan
1740794946.978788,0.255378042414678,0.40718969766171226,-1.124344447563445,0.17183706193009116,nan
1740794946.982699,0.130238734535847,0.588450455589322,0.23706432079562584,0.14303390931059928,nan
1740794946.9866047,-0.020312419751794628,0.5938296532427294,1.0566758708653534,0.054128999429372826,nan
1740794946.9905107,-0.12447714200564532,0.2848931291637646,0.9082653478349701,-0.061323433903660046,nan
1740794946.9944165,-0.17245159920102776,-0.20089838916619224,0.4015982033126935,-0.14240173803099926,nan
1740794946.9983225,-0.18321168885205535,-0.5351378033825187,0.32135004964021896,-0.1617638265426277,nan
1740794947.0022283,-0.1607301222224661,-0.5110479109996381,0.6466535369065887,-0.14654423450173462,nan
1740794947.0061343,-0.09111059131566686,-0.22528305382744326,0.630692453962787,-0.12672829418614256,nan
1740794947.0100403,0.024362406601782217,0.05042425276221571,-0.18403062821838748,-0.08358266301520348,nan
1740794947.013946,0.1443991056835617,0.12847425788201755,-1.27167030639557,0.02041796608441801,nan
1740794947.017852,0.20425815417312293,0.02241955022712656,-1.6139655132667519,0.1624157639725395,nan
1740794947.0217578,0.16443227241694316,-0.128413026059845,-0.8181858942437397,0.24672243930217652,nan
1740794947.0256639,0.04911197217777745,-0.17712584940286968,0.4341079491712695,0.19950501258257286,nan
1740794947.0295744,-0.06369411950633046,-0.03232393358035,1.106427892993994,0.06165720483442775,nan
1740794947.0334804,-0.09912916909323913,0.29148291255457154,0.849397143365226,-0.047694743371462005,nan
1740794947.0373864,-0.04516412746241031,0.6182991038503914,0.21359145501741836,-0.06645998118629705,nan
1740794947.0412922,0.03709233411545113,0.6623719578190244,-0.09793233833357574,-0.05557905761356967,nan
1740794947.0451982,0.06458438586527458,0.25825359605832726,0.009927190335361895,-0.1039106539167208,nan
1740794947.049104,0.0024716019097881375,-0.4094726034657292,0.09306339541679803,-0.18984162416376807,nan
1740794947.05301,-0.10702310499676926,-0.8758245624879528,-0.14735929880741094,-0.1884036663764717,nan
1740794947.0569158,-0.1799292630672759,-0.7929274783742445,-0.4672195266122728,-0.033695873788686555,nan
1740794947.0608218,-0.15652859585109533,-0.27458107784711944,-0.4256152549045805,0.1657974437411097,nan
1740794947.0647278,-0.042795193744562275,0.2134460007203283,0.014029566870291891,0.22430736131837445,nan
1740794947.0686336,0.09991383062025269,0.3359873244745678,0.39617918683582926,0.09186622725146582,nan
1740794947.0725396,0.19973499992236038,0.21208048005044952,0.30092185139149014,-0.07491495977747151,nan
1740794947.0764499,0.21650655513944458,0.20351835233148768,-0.15981984505412544,-0.085397227166129,nan
1740794947.0803556,0.15615647697085572,0.4206481704769395,-0.4646637884192617,0.06493494068461841,nan
1740794947.0842617,0.055886525217318316,0.5534121820277295,-0.2665796645719377,0.1897046738123666,nan
1740794947.0881677,-0.04425685347152944,0.25702570054863494,0.23777623730853187,0.12957606797127075,nan
1740794947.0920734,-0.1221006943349171,-0.36363945121291075,0.5470224708181802,-0.06756156489828048,nan
1740794947.0959795,-0.17190707607696928,-0.7825592794648789,0.397315496004053,-0.21359697197168734,nan
1740794947.0998852,-0.18659400340801724,-0.6095019690848089,0.0013818289590657139,-0.19987991952622092,nan
1740794947.1037912,-0.14922920038772497,-0.041254038961376596,-0.23599868399997598,-0.0982853557938574,nan
1740794947.107697,-0.052734501003902506,0.33687050454111234,-0.164723252838713,-0.036673492253493034,nan
1740794947.111603,0.07015220799197583,0.1943652071498609,-0.004916671902614809,-0.028415082755320294,nan
1740794947.115509,0.15133235970595996,-0.1888504945024976,-0.04353297642237483,0.021029945336974845,nan
1740794947.1194148,0.1424705353247088,-0.2628551801496469,-0.2801339851013843,0.15209691181638418,nan
1740794947.1233273,0.07112744408529723,0.14855360526688963,-0.416047824709664,0.26223955527765613,nan
1740794947.127233,0.0250740365086546,0.6367652957500629,-0.1919401122134054,0.21928633497586067,nan
1740794947.131139,0.060486469526335344,0.6617732798086277,0.2943439712345416,0.03463811626392386,nan
1740794947.1350448,0.12692434054325902,0.14835609979671663,0.6376045101897715,-0.13207524513055674,nan
1740794947.1389508,0.10636695679311202,-0.43738512132278917,0.511619493813952,-0.15218026597893233,nan
1740794947.1428568,-0.055186449865664074,-0.591781556920639,0.007718769244410043,-0.07009512090747887,nan
1740794947.1467626,-0.263251103419254,-0.2844081159812017,-0.4290463546090283,-0.03313915600290851,nan
1740794947.1506686,-0.34604901643448743,0.06515961207861512,-0.42375804008781837,-0.10116403835143507,nan
1740794947.1545744,-0.2224013218302298,0.07510312276392488,-0.03719437642615369,-0.17464655663006975,nan
1740794947.1584804,0.011741675554959011,-0.1984886680555631,0.30506016743986997,-0.12405199735260579,nan
1740794947.1623862,0.17815400192605235,-0.35789909620540367,0.25438527077616635,0.048163300008199864,nan
1740794947.1662922,0.1928115373919306,-0.11382967264393631,-0.10978409336131674,0.21008849187447096,nan
1740794947.1702042,0.13077698076003594,0.3997855388898791,-0.3908422245274332,0.24892364251947136,nan
1740794947.1741102,0.11350895952094843,0.7535080895936367,-0.3157353885589355,0.1744256416293328,nan
1740794947.1780162,0.15644323805535965,0.6371345631200318,-0.008406792499678984,0.06804813057340037,nan
1740794947.181922,0.15621016979096985,0.14330082477252334,0.20144963017038015,-0.024893700946635556,nan
1740794947.185828,0.027539026120431378,-0.33973251955258915,0.18407476285596744,-0.11088608647047676,nan
1740794947.1897337,-0.17758860806630788,-0.500248308935328,0.12894926097874387,-0.17695999317586686,nan
1740794947.1936398,-0.3110677854046481,-0.371678844134788,0.23730283619440468,-0.16740630092020667,nan
1740794947.1975455,-0.28013990270495753,-0.24031335190263914,0.3923437151489474,-0.06344713913833452,nan
1740794947.2014515,-0.1332181150715382,-0.2928558731836153,0.26114375369994247,0.0504783395423914,nan
1740794947.2053573,0.009362200209033226,-0.3781016097100541,-0.2560306867536405,0.05794716372705971,nan
1740794947.2092633,0.08455534268250632,-0.16495792523312408,-0.7873283251746764,-0.04315487627423192,nan
1740794947.2131693,0.12353268986188871,0.432234187375058,-0.8148505607033995,-0.1114287764130659,nan
1740794947.217081,0.17184776215424447,1.0242826087344936,-0.23918950070960532,-0.017520030026485726,nan
1740794947.2209868,0.21088184203227628,1.039064565579938,0.4713570290245152,0.18738999832833814,nan
1740794947.2248929,0.18129225161744714,0.3126910010046012,0.7475501991434291,0.30385245611569983,nan
1740794947.2287986,0.06849116183004436,-0.64033239227718,0.48470408210662125,0.19897540427506077,nan
1740794947.2327046,-0.06681984743337457,-1.0460663049872245,0.07384481524378693,-0.04183222908040152,nan
1740794947.2366104,-0.1511552870664101,-0.6214130233105225,-0.0989762070264146,-0.2063496850886495,nan
1740794947.2405164,-0.16996525568942494,0.1271918834933016,-0.06439369661189309,-0.18398340990224193,nan
1740794947.2444224,-0.15983498358744044,0.4217307786150236,-0.11872853857582433,-0.06657374678745068,nan
1740794947.2483282,-0.1426409243838229,0.03190475536444047,-0.3521320769163094,-0.01689803076550113,nan
1740794947.2522342,-0.09665088785710786,-0.49000145466336986,-0.4862167276798369,-0.07542981225800041,nan
1740794947.25614,-0.0015286897794046575,-0.4332208208046783,-0.2365484133731724,-0.1318483479975811,nan
1740794947.260046,0.11084220912212829,0.2679392174832744,0.2687766922137642,-0.0738433423398457,nan
1740794947.2639575,0.1759039934192064,0.9457786771048472,0.5689232535037692,0.08010758932644596,nan
1740794947.2678635,0.16504745811831964,0.9231409687136998,0.3811551964408835,0.21205814001129383,nan
1740794947.2717693,0.11354826355502788,0.2326420915687647,-0.07151985628912703,0.2366590526766416,nan
1740794947.2756753,0.07160600788565193,-0.4642440947121807,-0.3160817460426669,0.1681170756511918,nan
1740794947.279581,0.04417002583635605,-0.6254042524238831,-0.16165413965363967,0.06762773989738165,nan
1740794947.283487,-0.0026608208617688823,-0.36346430010653386,0.12269164862650303,-0.031154482414973678,nan
1740794947.2873929,-0.08287504000842424,-0.18540969176489355,0.16905879062883228,-0.12417515277635621,nan
1740794947.2912989,-0.1624629030178335,-0.31357743122389126,-0.05249086453482205,-0.19478050623886095,nan
1740794947.2952049,-0.1976964837916383,-0.43206295117539617,-0.2411272684205451,-0.21047786261562226,nan
1740794947.2991107,-0.1810750734673748,-0.14083214685634016,-0.16550848465465057,-0.16374355855444633,nan
1740794947.3030167,-0.1293557863209886,0.47733053698710975,0.06142155501959979,-0.08454645275043982,nan
1740794947.3069224,-0.039000986885918604,0.8928552004594584,0.1559558194872115,0.0022703577044440354,nan
1740794947.3108337,0.10962382236150962,0.7256705004366352,0.03469414848060337,0.10598762500963384,nan
1740794947.3147395,0.28728270001380957,0.17166699026679175,-0.09180817720060687,0.22750650399968428,nan
1740794947.3186455,0.38398799869787337,-0.24864110139841739,-0.004050009780389436,0.30323997550268816,nan
1740794947.3225513,0.28882026831731145,-0.2915731340739689,0.23341971830397862,0.24038274302962276,nan
1740794947.3264573,0.018588112603869764,-0.2041767446594159,0.33163003977643934,0.03250080541134348,nan
1740794947.330363,-0.2580025728235554,-0.31852925687790823,0.10904069401803526,-0.1897894288101318,nan
1740794947.334269,-0.3569607383055392,-0.5687716514875489,-0.2951479586624947,-0.2679524396653819,nan
1740794947.338175,-0.245536372450641,-0.5546168291010496,-0.5506249616059155,-0.17867463021424648,nan
1740794947.3420808,-0.05904394066612432,-0.07643583769011293,-0.4420135384127698,-0.05326162852702052,nan
1740794947.3459868,0.04881011509369924,0.5356258064724805,-0.03703203807516876,-0.017811112175406475,nan
1740794947.3498926,0.05206035309807733,0.736936862093525,0.3972601710734267,-0.04676705922510551,nan
1740794947.3537986,0.03850629426716762,0.3799285061574138,0.5967357216269107,-0.016045493777527228,nan
1740794947.3577094,0.07439282583808816,-0.10184625977068651,0.4528945089964202,0.11093822529170545,nan
1740794947.3616154,0.12328089017742809,-0.17212480034217448,0.05924276446471709,0.21109803238119018,nan
1740794947.3655212,0.11029433283398081,0.20274548105957324,-0.34167721884988095,0.15138658549227108,nan
1740794947.3694272,0.033455543591787894,0.5072178879421015,-0.5032564853662231,-0.025081477589909543,nan
1740794947.373333,-0.028755624206352817,0.2443500672286535,-0.3512906887608352,-0.1274228948669665,nan
1740794947.377239,-0.020716717945404015,-0.5034950310131792,-0.04519648125012713,-0.04470565473199456,nan
1740794947.3811448,0.016346321442923403,-1.1191421027533137,0.17027855629233477,0.10824715249608743,nan
1740794947.3850508,-0.0004042971845441073,-1.0412293088578684,0.19806666759554994,0.12208782047443388,nan
1740794947.3889565,-0.08240809658017875,-0.2897389262349603,0.1499393808656956,-0.04972755546318466,nan
1740794947.3928626,-0.14710869270582752,0.5755472031430139,0.15814242235492104,-0.2267883445791553,nan
1740794947.3967686,-0.11693875761206902,0.9760065201608398,0.17656132839229766,-0.21558780214055237,nan
1740794947.4006743,-0.014259475167386163,0.7890766730196183,0.04832699592162158,-0.03801561701660428,nan
1740794947.404585,0.06675183387648141,0.35781910373610903,-0.2271400852677704,0.1074211238616991,nan
1740794947.408491,0.07193738009687875,0.08960783161638962,-0.3975629702329908,0.09525481234416613,nan
1740794947.4123967,0.04038496387269581,0.06305028800887248,-0.2254770145761545,0.013445150555232521,nan
1740794947.4163027,0.038902031455276556,0.012536790985492367,0.1745227494480426,0.022663172984439334,nan
1740794947.4202085,0.07171009771521346,-0.318843810055178,0.3894146713327483,0.12914150534509158,nan
1740794947.4241145,0.08337426760074798,-0.8250486227236986,0.16774208241356572,0.17417437087111312,nan
1740794947.4280202,0.04219389497481152,-1.0633469909950606,-0.24457421730224557,0.05361587876213015,nan
1740794947.4319263,-0.015123169406540016,-0.6791492039964623,-0.34705709978034793,-0.12677072478620188,nan
1740794947.4358323,-0.03792855348431814,0.17816327136965057,0.024121803673003126,-0.17386147677961497,nan
1740794947.439738,-0.0356817125000008,0.9083786701398496,0.45883290486452927,-0.05465983645598325,nan
1740794947.443644,-0.06327534361293335,0.997616826123325,0.41845998903360676,0.05647945092250876,nan
1740794947.4475498,-0.13245761800864747,0.5183620322520899,-0.126624808432202,0.0016983110217070505,nan
1740794947.4514627,-0.17231326642048606,0.041447125722977034,-0.6249025752697063,-0.15000483647645144,nan
1740794947.4553685,-0.1044707964333758,0.008383316999966596,-0.5450311234104712,-0.18210318524562932,nan
1740794947.4592745,0.053718828671565785,0.23714152068592734,0.04018115896563003,-0.006594433153785445,nan
1740794947.4631803,0.1906880138955303,0.14682277041209013,0.5543029473098299,0.21280550780155918,nan
1740794947.4670863,0.21293747205518312,-0.5062024832015253,0.5540512278537544,0.2506595953870508,nan
1740794947.470992,0.13559950938962634,-1.2227832134378105,0.14806054976416305,0.08783224026378365,nan
1740794947.474898,0.04687842245864081,-1.220342668356141,-0.23353630826080668,-0.07451400619712874,nan
1740794947.478804,-9.873595362994433e-05,-0.308294361814352,-0.3473805785741698,-0.06500039765432519,nan
1740794947.48271,-0.030648346955631896,0.8113306676992258,-0.28690279145132697,0.060053879358406254,nan
1740794947.486616,-0.08403784807450225,1.2184854383266506,-0.1901559939467855,0.10712219810385508,nan
1740794947.4905217,-0.14095381509240698,0.7174881197069151,-0.009215501105122266,-0.008579703097565432,nan
1740794947.4944277,-0.1453894882159895,-0.003439567723412118,0.3132867428364464,-0.17429557520575317,nan
1740794947.49834,-0.08749842949967457,-0.1780018435736806,0.5639194037113514,-0.23636884461142643,nan
1740794947.502246,-0.02641917147110623,0.18863958594446953,0.3857692758366015,-0.1756995497456567,nan
1740794947.5061517,-0.013292022654884895,0.3961346139801096,-0.23984936070404378,-0.08112740378263629,nan
1740794947.5100577,-0.016117415119638434,-0.061312966053695225,-0.7930935010092257,0.005997170119398411,nan
1740794947.5139637,0.04388730914284855,-0.8507215759760414,-0.6841059010376748,0.13361792729650604,nan
1740794947.5178695,0.17893513080848303,-1.1574400134888245,0.06963781253123064,0.30731080806163324,nan
1740794947.5217755,0.2886940183395387,-0.6133010403561121,0.7774429226348935,0.3953780138032231,nan
1740794947.5256813,0.252685731730284,0.29242114060171637,0.7753062549916426,0.24975035885432467,nan
1740794947.5295873,0.06185315639218136,0.7729475500816307,0.12268127716770573,-0.08408531330246605,nan
1740794947.533493,-0.16287829249019592,0.5866570910684282,-0.4999648639262391,-0.3561369799152145,nan
1740794947.537399,-0.2854862230229227,0.18968618456617467,-0.552881518087473,-0.3588802368354103,nan
1740794947.541305,-0.2712230773873036,0.09513330636049423,-0.15924109285103266,-0.1510780077516436,nan
1740794947.545217,-0.18369757293284886,0.2683855211184588,0.16937665794689866,0.02046165245100643,nan
1740794947.5491228,-0.09082829347793019,0.2698334760358525,0.17593816389499473,0.013462441255082796,nan
1740794947.5530288,-0.0032606483131649537,-0.10628523161223137,0.05558004405671228,-0.06083258017774936,nan
1740794947.5569346,0.09605733885151257,-0.5370077769266647,0.04961252267257781,-0.010468735285118994,nan
1740794947.5608406,0.19492707013507096,-0.5767581006115021,0.07314234345445043,0.17160925896220752,nan
1740794947.5647466,0.25046929036237875,-0.2203961377547657,-0.09436562161348805,0.2915392019902915,nan
1740794947.5686524,0.23489389183859968,0.09915228818277255,-0.3578198322835668,0.20420527414467535,nan
1740794947.5725584,0.15723098605289684,0.06274780762943417,-0.3027100057235809,0.001212047976290291,nan
1740794947.5764642,0.03781030088913158,-0.14550202656327166,0.25237337126107695,-0.1064699074949826,nan
1740794947.5803702,-0.11132853147946713,-0.10195116195973546,0.8580884395721337,-0.05548654473313989,nan
1740794947.584276,-0.2613469552484145,0.2851930508197967,0.8118503126169615,0.0023559301103194003,nan
1740794947.588182,-0.3419211293684387,0.6270955855213651,-0.03392043138504881,-0.08241310805267985,nan
1740794947.5920937,-0.2823431642826018,0.5176914566194084,-0.9975507269200099,-0.2428839374523754,nan
1740794947.5959997,-0.09336155838266619,0.029436587927007922,-1.2235760624573153,-0.26923497134380414,nan
1740794947.5999055,0.11502400986966467,-0.3702859142814682,-0.5580135431836161,-0.07796391112721703,nan
1740794947.6038115,0.2257736080181761,-0.3664241931387392,0.3442870424017952,0.17056852202135908,nan
1740794947.6077173,0.22259180658108388,-0.12822262183618666,0.7630787214730397,0.25772547519155353,nan
1740794947.6116233,0.18315882035715528,-0.0392073472337643,0.6131504135753506,0.1578762924161581,nan
1740794947.6155293,0.1630532807564751,-0.19437119530242522,0.33876413569971325,0.04146109840423152,nan
1740794947.619435,0.11915512493840048,-0.30127319995516066,0.2576797766125239,0.04262974419409914,nan
1740794947.623341,-0.020614049237435948,-0.08959221001783564,0.2208188415842996,0.10056494006200867,nan
1740794947.6272469,-0.22441434999535884,0.3072145801798026,-0.053413151895175245,0.06845043553280467,nan
1740794947.6311529,-0.34130732242738454,0.48522557788870296,-0.5041754933015297,-0.07505983577927065,nan
1740794947.6350586,-0.2502364327314057,0.2519729734869171,-0.7645388515372326,-0.1992332786312154,nan
1740794947.6389704,-0.008402531053825905,-0.138380148807836,-0.6213274604472382,-0.20134553266308994,nan
1740794947.6428761,0.1858277964123974,-0.277742102399874,-0.2503249378928528,-0.13320546168148448,nan
1740794947.6467822,0.1892391164196641,-0.06261702981154071,0.06730632016700491,-0.09948996713134228,nan
1740794947.6506882,0.052036519269964006,0.22135580066008043,0.3046051817761782,-0.08293995715218833,nan
1740794947.654594,-0.05474793318455937,0.25473380543726504,0.5984344777506471,0.03659818199906521,nan
1740794947.6585,-0.0312277878323665,0.030589067387470033,0.8642550658018527,0.2745561558855549,nan
1740794947.6624057,0.060960385382501134,-0.19773394575484254,0.7452589046442615,0.43880575347374495,nan
1740794947.6663117,0.09673988592283532,-0.246954269974513,0.08121031344237949,0.3168236156121505,nan
1740794947.6702175,0.037953055533188625,-0.18360375785391717,-0.7094084335308323,-0.050523316413978996,nan
1740794947.6741235,-0.04165691958119606,-0.16523242915116293,-0.954065963449172,-0.36510099161182197,nan
1740794947.6780295,-0.06332716856961847,-0.1940796045392556,-0.4825549374139265,-0.3785539097288541,nan
1740794947.6819353,-0.03319943589008494,-0.11473643587988415,0.12085757814837182,-0.15261935608669083,nan
1740794947.6858463,-0.012299982853320469,0.15412086575279288,0.17774769441659663,0.04405849267836331,nan
1740794947.6897523,-0.027514456438634267,0.46562084459674036,-0.2539805266631147,0.06915086618284784,nan
1740794947.693658,-0.046407338825531115,0.5705287231535029,-0.42741277139654904,0.04655566359980333,nan
1740794947.6975641,-0.034825934752164604,0.37201155361334304,0.14999475806066848,0.14167134798847258,nan
1740794947.7014701,-0.004309347240891656,0.012600899495714113,1.007018199420517,0.28067132046954935,nan
1740794947.705376,0.014072152653353574,-0.2845776511212301,1.1627302010396194,0.208167442958976,nan
1740794947.709282,0.019455337924013324,-0.41410764087272633,0.28130820998851563,-0.15876299962374066,nan
1740794947.7131877,0.03559737562681932,-0.41368280688930775,-0.8421317824240259,-0.5316594435353181,nan
1740794947.7170937,0.06230636170884539,-0.34273306223952926,-1.1017068446200513,-0.5042641930129693,nan
1740794947.7209995,0.06592983031107834,-0.20186440367839065,-0.3027768431456235,-0.005455356259780759,nan
1740794947.7249055,0.031141398803298713,0.01606639220260193,0.6214969145447096,0.5719904547379735,nan
1740794947.7288115,-0.005367535631553659,0.24537320126486167,0.6523057235713504,0.7365303195624295,nan
1740794947.7327247,-0.003110251631128205,0.3705049680972017,-0.20600327554863143,0.3669295212397994,nan
1740794947.7366304,0.012722971968846636,0.3348659652951565,-0.9832579974543042,-0.2081814937015742,nan
1740794947.7405365,-0.026733377723030825,0.19916379693298747,-0.8355066251452663,-0.5614249924345948,nan
1740794947.7444425,-0.12642070022800445,0.07640602929294775,0.09278882197161932,-0.5366385490120286,nan
1740794947.7483482,-0.18064671639215607,0.021167442516115693,0.9306508432736093,-0.27991792890120365,nan
1740794947.7522542,-0.08397860441307578,-0.00445260250579511,1.0382164180707283,-0.0019016383927829372,nan
1740794947.75616,0.11352292414995226,-0.06681026347373646,0.5465344286294742,0.20198893556310343,nan
1740794947.760066,0.21759495646342786,-0.18399995653643827,0.006808234812918047,0.3186849206146578,nan
1740794947.7639718,0.09886284404963334,-0.31200892204914854,-0.2693988911707556,0.32038211999000077,nan
1740794947.7678778,-0.1310297085931863,-0.38270648283642916,-0.3900974927313038,0.18307828127468914,nan
1740794947.7717838,-0.20971323121951604,-0.3399949644387813,-0.5242993596879204,-0.02469291916128574,nan
1740794947.7756896,-0.012421838307847537,-0.1569783234566248,-0.5933221062580599,-0.1560671352419971,nan
1740794947.7796004,0.2860241857979397,0.14376274666032451,-0.4082741864926087,-0.1272381055303557,nan
1740794947.7835062,0.3793829651679798,0.4659726513859413,0.00161744054751602,-0.011581801003301898,nan
1740794947.7874122,0.15308800131129605,0.654123254412347,0.35125821068264307,0.04442841345007086,nan
1740794947.7913182,-0.19999933171727163,0.5760953358476719,0.407774156626556,-0.015926875376905264,nan
1740794947.795224,-0.3945297097848094,0.2306714584930754,0.24377629716274404,-0.1169602537178165,nan
1740794947.79913,-0.3397153617902618,-0.21560932387716913,0.12861611685254198,-0.16227540029734389,nan
1740794947.8030357,-0.17496555434970515,-0.5190959576257819,0.21160175279738874,-0.13749158317602447,nan
1740794947.8069417,-0.05137248696189882,-0.5277772265861529,0.3708142570443152,-0.07853735358572571,nan
1740794947.8108475,0.04254680225806671,-0.2977852205224543,0.3599009049504028,0.014603318258373382,nan
1740794947.8147535,0.1995478969537423,-0.049541512051174005,0.05275789191322996,0.16640836605893425,nan
1740794947.8186595,0.39276461477506136,0.02091177988280294,-0.4479995290799853,0.32816087016174406,nan
1740794947.8225653,0.4465906192519388,-0.07644316358779087,-0.8746937843981979,0.36221545691048673,nan
1740794947.8264754,0.2387967042181307,-0.1275640213174176,-0.9435806629115663,0.1811791460151447,nan
1740794947.8303814,-0.11980107060940012,0.06887453757058282,-0.52871382572922,-0.11709552932856734,nan
1740794947.8342874,-0.3683588270955579,0.4568221344429635,0.2022612109738524,-0.3148940825542056,nan
1740794947.8381932,-0.3573298579376613,0.7126801090260786,0.8269357970918163,-0.29454086031805216,nan
1740794947.8420992,-0.1822703494318837,0.5348193543112865,0.9566679661490723,-0.15351025657729064,nan
1740794947.846005,-0.04419033562885463,-0.02422687505334518,0.5775109096371775,-0.0691183847762512,nan
1740794947.849911,-0.02216278842121636,-0.5446766849539245,0.07716303339899441,-0.08065308688350643,nan
1740794947.8538167,-0.02897965541171618,-0.617893792276963,-0.14344149005245227,-0.06355095829668704,nan
1740794947.8577228,0.030536090059463797,-0.25836742646620625,-0.08394166883921643,0.07829822885809863,nan
1740794947.8616288,0.12811570781601075,0.10112676049862966,-0.09386207429046735,0.259963048282712,nan
1740794947.8655345,0.1706395497131747,0.06851588673624291,-0.38796329180339806,0.30633698449918295,nan
1740794947.8694406,0.1422721305442747,-0.26888048116170915,-0.7167579502651108,0.16862272165675543,nan
1740794947.8733528,0.12042295352226265,-0.4247549602148298,-0.6386865605379661,-0.01519350522773219,nan
1740794947.8772588,0.1468305596258398,-0.06263333131730463,-0.09312120142131389,-0.08924036116901343,nan
1740794947.8811646,0.14610832963742584,0.5798870483715214,0.4556658845582496,-0.05326304757394139,nan
1740794947.8850706,0.020719927878094287,0.8887171197116721,0.538101560472301,-0.02477220836659675,nan
1740794947.8889766,-0.19896676504471403,0.516704591772979,0.24197752871121866,-0.06599369159977589,nan
1740794947.8928823,-0.35976475069192526,-0.21818244951702112,0.08586011172588136,-0.12157348224931971,nan
1740794947.8967884,-0.35289623248865887,-0.6325087576413644,0.321190556856216,-0.13374455558408915,nan
1740794947.9006941,-0.22755617843052123,-0.37531064229042815,0.5517809464591122,-0.1383238269320152,nan
1740794947.9046001,-0.10185713011732683,0.21354662483890452,0.21948835134610606,-0.18096303446329093,nan
1740794947.908506,0.002581033254459975,0.46162022470053216,-0.5981970321899963,-0.18205147354861276,nan
1740794947.912412,0.16705600230572318,0.056725541016697904,-1.1142643891606006,0.006430345060138291,nan
1740794947.916318,0.4062452459747626,-0.6403858261488137,-0.6886579207320014,0.3705443963564887,nan
1740794947.92023,0.5645278885890698,-0.956264394864326,0.358023595972775,0.6423821030943233,nan
1740794947.9241357,0.4561075091845236,-0.5453112611612835,0.993293270455817,0.5392302339233122,nan
1740794947.9280417,0.1000654059247899,0.3125682629342266,0.5772814091874652,0.09352964657404293,nan
1740794947.9319477,-0.257376458280887,0.9869193942503514,-0.4280418495411165,-0.34294159456536505,nan
1740794947.9358535,-0.39444590527524487,1.0307978743392703,-0.9684394984101282,-0.46777698619586966,nan
1740794947.9397595,-0.3440276968559217,0.4964271127147955,-0.5363076915299172,-0.33782713129310593,nan
1740794947.9436653,-0.31103608836427377,-0.17341202504560652,0.3573082247052503,-0.236837235478628,nan
1740794947.9475713,-0.3742069809225923,-0.5202758614606695,0.8469306126575699,-0.27409126911192194,nan
1740794947.951477,-0.35803051974617334,-0.40169285682606165,0.6567520445354267,-0.24437875468228878,nan
1740794947.955383,-0.0618317472448632,-0.05705350469786391,0.23668596335234243,0.05469131371539777,nan
1740794947.959289,0.4263101404443827,0.11808758059921126,0.06303491573833359,0.46986439784113765,nan
1740794947.9631948,0.7424023514587458,-0.08193484075148186,0.06065378970810251,0.6074401505058816,nan
1740794947.9671068,0.6156383700707804,-0.48271271728727033,-0.16599883315561711,0.31593865545658334,nan
1740794947.9710126,0.1754385179951976,-0.6771965578688007,-0.6863486029757533,-0.08334147885801106,nan
1740794947.9749186,-0.17503774859465945,-0.40369234175693386,-1.0630059683037862,-0.1585613960732221,nan
1740794947.9788244,-0.18706888613496894,0.19769170858081067,-0.857075840068355,0.10048219743383668,nan
1740794947.9827304,-0.008484801617834974,0.7138986156171152,-0.15262995280737252,0.2622714050918109,nan
1740794947.9866362,0.02615072164001002,0.8453989605895124,0.54646914800966,0.0005370068758571178,nan
1740794947.9905422,-0.20592948014910123,0.6416861251617503,0.8678100197698427,-0.4742008998182941,nan
1740794947.9944482,-0.49308563248528015,0.35316376724084836,0.8671657871318819,-0.6602487835306837,nan
1740794947.998354,-0.5568443595050359,0.11638579097473141,0.7751237350269947,-0.3869851490637143,nan
1740794948.00226,-0.3634167451912043,-0.13291872793839646,0.6207672413986326,-0.013320984516132449,nan
1740794948.0061657,-0.11179219105389614,-0.4495596331135175,0.2431294878825721,0.06129470525190463,nan
1740794948.0100718,0.05412008640313255,-0.709450948739199,-0.38422289993371406,-0.06609021196100792,nan
1740794948.013983,0.23029086155985473,-0.753195365387993,-1.000134383274319,0.05921717721929248,nan
1740794948.017889,0.5950302972335502,-0.6400808343533836,-1.2751441553638243,0.5914680951969795,nan
1740794948.021795,1.0923878628595187,-0.5872338368317358,-1.0931490117474947,1.0759953168885499,nan
1740794948.0257008,1.3429377323826106,-0.5820247694409338,-0.5670030228434918,0.9421240218475458,nan
1740794948.0296068,0.9321529555008382,-0.20764637617632886,0.11751325419504154,0.2041107198288136,nan
1740794948.0335126,-0.1739692532519027,0.9020848712633647,0.7502842684465213,-0.5331583953246891,nan
1740794948.0374186,-1.4822456614265613,2.3711092244451732,1.066675118092566,-0.7934581870181683,nan
1740794948.0413244,-2.259534759204021,3.054500976269483,0.9053512867990535,-0.7533208478624689,nan
1740794948.0452304,-2.0446454511893064,1.9871437996851056,0.49832821992144355,-0.8839193693405625,nan
1740794948.0491364,-0.9780284539178783,-0.5486259883647777,0.3986847779811608,-1.1813111318240792,nan
1740794948.0530422,0.32847799084431034,-3.0344879421520248,0.8282308896213091,-1.0356987013801546,nan
1740794948.0569482,1.288336767985732,-3.9442810915500233,1.1090370591045708,0.009041633641949225,nan
1740794948.0608592,1.7678171876526017,-2.9782996301730225,0.12616486586523112,1.5362287476178376,nan
1740794948.064765,2.0180568326331247,-1.0570414443364726,-2.2858279128452743,2.5233353024171854,nan
1740794948.068671,2.1478024070688586,0.7755006382817736,-4.509587270146299,2.3220909543654296,nan
1740794948.072577,1.7290438502498464,2.188583471971978,-4.19473890510596,1.1877533159204603,nan
1740794948.0764828,0.14474248339478216,3.245112756854,-0.577233231617834,-0.1996979338507302,nan
1740794948.0803888,-2.4661119409017926,3.583303031761578,4.2514506684714215,-1.4712358877217857,nan
1740794948.0842946,-4.676663577259872,2.4411966232654994,6.747027546720679,-2.5566140446345744,nan
1740794948.0882006,-4.57555331752526,-0.26287672936268586,4.931501482003053,-3.0835360567232675,nan
1740794948.0921063,-1.5395568105780708,-3.1520230323056637,0.16184489909194477,-2.320318646629161,nan
1740794948.0960124,2.6939814434365537,-4.210139076982568,-4.072131121682552,-0.1076201616945243,nan
1740794948.0999184,5.063273384837072,-2.6554481381510673,-5.099186823385756,2.3477437683568536,nan
1740794948.1038241,3.774973653629087,0.13606094335414848,-2.9676239316565853,3.203128350500039,nan
1740794948.107735,0.09217430116639592,1.8409460261599833,0.16647997797407696,1.8612468573118433,nan
1740794948.111641,-2.6231178483356272,1.3868850642278445,2.0874360893240924,-0.11580889436898088,nan
1740794948.115547,-1.9766028634331099,-0.161011702114727,1.9689773138951816,-0.48176034333264495,nan
1740794948.1194527,1.1511366835988748,-0.8987959155097194,0.40991464853291276,1.1345476001655905,nan
1740794948.1233587,3.3808472490132946,-0.05196073026528684,-1.2645142947444212,2.49300485377731,nan
1740794948.1272645,2.047530568177895,1.4895428315719879,-1.6887352519719097,1.0067246312743456,nan
1740794948.1311705,-2.2228266166343706,2.3714965011537275,-0.1660272463361327,-3.2088853389631367,nan
1740794948.1350763,-6.018917620366177,2.079016802024864,2.5601678780372383,-6.882470376557158,nan
1740794948.1389823,-6.1522334314022125,0.9340785517397576,4.283762510080218,-6.481248298458909,nan
1740794948.1428883,-2.28142955622488,-0.7351107115752075,2.8803845955092435,-1.591056658136598,nan
1740794948.146794,3.085163601799885,-2.7830398497397906,-1.4344346429555446,4.632061313657731,nan
1740794948.1507,6.781724347113253,-4.514318280342913,-5.529455622222432,8.238203431152444,nan
1740794948.1546106,7.131497035851068,-4.425060359708132,-5.801008937212106,7.545313781370782,nan
1740794948.1585166,4.444297122360419,-1.494124269344002,-1.7257251396801523,3.6921836114576565,nan
1740794948.1624224,0.17718809985346817,3.0970846745462595,3.2185196850268842,-1.0989971079693748,nan
1740794948.1663284,-3.9774672200771235,6.160222558688899,4.724863856353772,-5.150009068833959,nan
1740794948.1702342,-6.501503144223326,5.180578232370418,1.9506717492900976,-7.399363479784667,nan
1740794948.1741402,-6.371054671606996,0.9824930105728453,-1.6497344994180794,-6.888281599210896,nan
1740794948.178046,-3.610977987617941,-2.724655833291374,-2.052347408136525,-3.22700843723272,nan
1740794948.181952,0.4246683669892828,-2.918413905813561,0.9709596378988797,2.243194670386889,nan
1740794948.185858,3.720174154448091,-0.35001653014996276,3.644322128167578,6.486430475592676,nan
1740794948.1897638,4.926763791780051,1.303576196929568,2.423468785556582,6.85007132131482,nan
1740794948.1936698,4.157468602773632,-0.4670593604860501,-1.9935176352946926,3.420535783303158,nan
1740794948.1975756,2.480311435339634,-4.037967130682688,-5.3272369478178945,-0.9338730871263479,nan
1740794948.2014883,0.737009045362214,-5.171553955302778,-4.292025753374599,-3.1425741447100215,nan
1740794948.2053943,-0.9808449284953453,-1.564104960016044,-0.014376202680459211,-2.5645231764314382,nan
1740794948.2093,-2.7378746062255823,4.412727739879228,3.3645010873448413,-1.0222333846549323,nan
1740794948.213206,-3.984123539845443,7.773956235584502,3.1475214905649835,-0.4599899068322501,nan
1740794948.2171118,-3.754597213716548,5.696457202869939,0.6156595608007044,-0.9549888629434575,nan
1740794948.2210178,-1.7344243191793365,0.10558663765196692,-0.9082322629631454,-1.1303962968989822,nan
1740794948.2249238,1.0823193282870716,-4.4065624159226155,0.061312235523949314,-0.13036619179947034,nan
1740794948.2288296,3.039448211322353,-4.937390893420382,1.7727705096579218,1.3194525866424256,nan
1740794948.2327356,3.1825283439613576,-2.4506969791726014,1.5995422964901695,1.8736457190275804,nan
1740794948.2366414,1.9278414591395794,-0.0015369774623886878,-0.8230725043986362,1.1725446689927996,nan
1740794948.2405474,0.42688829802519734,0.5893592228708856,-3.231825254316484,0.12787213048256346,nan
1740794948.2444532,-0.5496186360710772,0.050258723549536914,-3.283889792126354,-0.27807966656305094,nan
1740794948.2483656,-1.0071752932090694,0.07437434388226909,-0.9781024481825719,-0.06660198901029196,nan
1740794948.2522717,-1.2128247315844018,1.1098347482165645,1.5858779874203859,0.03367491722607454,nan
1740794948.2561774,-1.1468299844566368,2.0266087993097037,2.478562142084986,-0.3307752879638835,nan
1740794948.2600834,-0.641631388245134,1.675141133852342,1.6060480649388296,-0.7368237517250814,nan
1740794948.2639892,0.11445997941477355,0.2683400637625785,0.26791933662847933,-0.6753489399792231,nan
1740794948.2678952,0.5460029600687903,-0.9466966961610425,-0.4170731840902726,-0.28156946810493305,nan
1740794948.271801,0.3021707940155956,-1.1129011262220525,-0.361753482282652,-0.09804560499254622,nan
1740794948.275707,-0.2527097927246998,-0.5476049029208235,-0.08326814720939367,-0.24830075993077505,nan
1740794948.279613,-0.3763481103105866,-0.14379134231650192,0.05050233794848048,-0.21432878955582482,nan
1740794948.2835188,0.200695339019178,-0.29860107849236117,-0.017093287962374366,0.42134035627078265,nan
1740794948.2874248,0.9189282013691032,-0.6274088134223117,-0.2916671702779678,1.2527789205900466,nan
1740794948.2913306,0.9949881879586499,-0.5968732462345411,-0.7531145696817808,1.3791746868376726,nan
1740794948.2952452,0.30761413000739274,-0.15438246986994567,-1.1071191481266456,0.4724235170657939,nan
1740794948.299151,-0.46781552975412816,0.35437690724692034,-0.8400410202573921,-0.7311425430762704,nan
1740794948.303057,-0.6283511366255955,0.6895929894087273,0.22032319615618504,-1.1772432522684249,nan
1740794948.306963,-0.21297861342082378,0.9066132333757388,1.4740355761268809,-0.6304522656206573,nan
1740794948.3108687,0.10723952094687869,1.0542602750897823,1.9314835569915805,0.12932540746001572,nan
1740794948.3147748,-0.14715407224233967,0.9150848970064651,1.1496534808131047,0.2479801608210479,nan
1740794948.3186805,-0.7022255516609076,0.23443214653775568,-0.2886065895101782,-0.26207400555527044,nan
1740794948.3225865,-0.8565925286236407,-0.8262355371747382,-1.3153392951513738,-0.645972341420074,nan
1740794948.3264923,-0.28148439535596104,-1.6394057661438899,-1.3569832461166158,-0.34709190669912193,nan
1740794948.3303983,0.6177631012181343,-1.6254450135456406,-0.7143933436844803,0.3911204523813817,nan
1740794948.3343043,1.134299817482836,-0.7925920810328144,-0.05206109730100661,0.889596236334532,nan
1740794948.33821,0.9525252509605848,0.2863577391033413,0.29988564891429265,0.8042113778611791,nan
1740794948.342122,0.3618356288859275,1.005491125197284,0.46148136946726553,0.3740355271301384,nan
1740794948.3460279,-0.13770285305466826,1.1696682857760266,0.5860365761815152,-0.008147996838812469,nan
1740794948.3499339,-0.32417183118045306,0.9435620590506406,0.569560216737594,-0.23961633939904556,nan
1740794948.3538399,-0.3392242673992392,0.5182928535291641,0.24588721840803351,-0.43838002221006567,nan
1740794948.3577456,-0.39789239011645,-0.02909029925703737,-0.27460033364357034,-0.6002881362971529,nan
1740794948.3616517,-0.5195571457779944,-0.5763577107280916,-0.6269550421709987,-0.5417168302356759,nan
1740794948.3655574,-0.5430213726426112,-0.8471136775896391,-0.559141112161366,-0.19850449229762004,nan
1740794948.3694634,-0.3297938094733924,-0.6267218167857914,-0.17550484238197567,0.19147778151206007,nan
1740794948.3733692,0.08792751828762718,-0.0773479848281847,0.22011982734122282,0.3288188245182416,nan
1740794948.3772752,0.522722642247594,0.310540179527933,0.43514337816343257,0.2089523768975776,nan
1740794948.3811812,0.7510977654848346,0.1966605230328278,0.4669291744917245,0.10301418065094113,nan
1740794948.385087,0.6459424502912726,-0.20710016971683093,0.34160532489004425,0.1803104351215684,nan
1740794948.3890011,0.26538001832565816,-0.3256750680608772,0.0309205052131507,0.2857531991845601,nan
1740794948.392907,-0.16013115900332336,0.13278588443383957,-0.4077844629761997,0.1775549519370206,nan
1740794948.396813,-0.3782482334924713,0.7802179543140204,-0.7140345570657167,-0.10454695239613038,nan
1740794948.4007187,-0.31734090270759585,0.8974047556525496,-0.5975123680995676,-0.2604754728729505,nan
1740794948.4046247,-0.14751815490339557,0.20643199201839668,-0.06633641468764774,-0.13174789234590262,nan
1740794948.4085305,-0.10186161417123099,-0.7662636708854574,0.5005960920381856,0.061345206028137964,nan
1740794948.4124365,-0.22070723017986554,-1.1650084752636667,0.6854343326426504,-0.004281767336157157,nan
1740794948.4163425,-0.3051681329129296,-0.6442041026664506,0.42367365629778003,-0.30737417501426945,nan
1740794948.4202483,-0.15310344836589407,0.3051097312620737,0.022666528596240125,-0.4657722175417963,nan
1740794948.4241543,0.184580564331008,0.8680205741356937,-0.19224823303136618,-0.20723787124532914,nan
1740794948.42806,0.435384362749258,0.6907127487521898,-0.18304294219584855,0.2658154904164927,nan
1740794948.431966,0.4006715004259817,0.11963587226662285,-0.13710670252684581,0.5002627040178803,nan
1740794948.435877,0.16949700772086587,-0.2806859600694442,-0.1800119494717062,0.33484907243035206,nan
1740794948.439783,-0.0033412564616434612,-0.32269651014369516,-0.236811443932209,0.07115911068294296,nan
1740794948.4436889,-0.0025393164742017757,-0.2481479175032338,-0.1717493835698481,0.055217296737182,nan
1740794948.447595,0.03389974628828978,-0.2762523998497583,0.019804169206946085,0.21616228826170253,nan
1740794948.4515007,-0.07526697170106107,-0.2756055392030043,0.20997802781122352,0.1696143238884473,nan
1740794948.4554067,-0.29432667499907567,0.015936602931550286,0.28656792648940266,-0.2400303520947504,nan
1740794948.4593124,-0.3942893142166079,0.5230940524072812,0.23852504728077734,-0.6672917481422862,nan
1740794948.4632185,-0.23342423048637617,0.7640209449163522,0.10646720821951786,-0.6418455384435731,nan
1740794948.4671245,0.05799526365887483,0.3570134786251301,-0.07296887431537236,-0.1408370633220134,nan
1740794948.4710302,0.22130502487902262,-0.4567914311911573,-0.23548812452965143,0.3611163657412677,nan
1740794948.4749362,0.16320294252093984,-0.9371177474481582,-0.2642823610406306,0.4356064793361555,nan
1740794948.478842,0.039496772596160044,-0.5733581971775353,-0.08811509999567828,0.16924641136292065,nan
1740794948.4827528,0.038837785002494685,0.34329099200742635,0.1851099083493412,-0.006514141003682293,nan
1740794948.4866588,0.1489741568469418,0.9554000388569671,0.3095409676229943,0.11824885302537452,nan
1740794948.4905646,0.1939970564426195,0.6780220844483202,0.1406490064610915,0.2925804810471396,nan
1740794948.4944706,0.0768114054232787,-0.22265793464872852,-0.1858282956335157,0.17315730102765778,nan
1740794948.4983766,-0.09348121989098787,-0.9044519375384713,-0.37212818007349235,-0.19866918375467252,nan
1740794948.5022824,-0.1471709768535633,-0.7755513423739608,-0.26397058230069337,-0.4313142216250573,nan
1740794948.5061884,-0.07375501282101939,-0.02418276175975113,0.007676212622158647,-0.2765625137457711,nan
1740794948.5100942,-0.028055694357546228,0.6366140739430343,0.20632272124747128,0.05763982868362188,nan
1740794948.5140002,-0.11791253386047569,0.6770447793059605,0.2525585439532538,0.1720717708697948,nan
1740794948.517906,-0.250700990063046,0.18565172682162498,0.24312907279087503,-0.026988041300605954,nan
1740794948.521812,-0.23686005040291136,-0.32087809687502333,0.2377222923590707,-0.22964988465589886,nan
1740794948.525718,-0.020231999139360933,-0.41952457857489345,0.13897366380964596,-0.132021611986555,nan
1740794948.5296285,0.24895723672800935,-0.10700167095538465,-0.14476020924181407,0.17977095025469902,nan
1740794948.5335343,0.3771143520953323,0.2895126151070478,-0.475872413236192,0.35115215910731135,nan
1740794948.5374403,0.31676328947789867,0.4263510215468115,-0.5503264460533847,0.2100698855695035,nan
1740794948.541346,0.16592345845076917,0.18772092181840347,-0.23304706728082628,-0.035102473350481625,nan
1740794948.545252,0.018959141295233295,-0.2657206805139154,0.23794216669905055,-0.08612172296943114,nan
1740794948.5491579,-0.11688648834885358,-0.6118021030399146,0.4685514327474174,0.06006382217782606,nan
1740794948.5530639,-0.25012216393202713,-0.5766180843646623,0.3241011785655892,0.12741653284465124,nan
1740794948.55697,-0.31885195717682696,-0.14439545559825953,0.052455933661783076,-0.059171807962485765,nan
1740794948.5608757,-0.24286339383163402,0.3892911457911574,-0.036314162483631375,-0.3312934574843182,nan
1740794948.5647817,-0.05275290200635762,0.6296342279494281,0.05802536068452626,-0.38105816009780774,nan
1740794948.5686874,0.10001955243272796,0.43006834558916357,0.05996423175859566,-0.1424359747223253,nan
1740794948.5725935,0.10276845691459267,0.03938850198810829,-0.1883574039347658,0.13508848163220447,nan
1740794948.5765038,0.021466589129749945,-0.1489847668717678,-0.47315460631801676,0.20027060418947545,nan
1740794948.5804098,0.027607849090237557,-0.01822238997826515,-0.4280369022928998,0.09292961778473195,nan
1740794948.5843155,0.18012520785502834,0.14627563664173948,0.021423878448722577,0.054554941980919244,nan
1740794948.5882215,0.3283132576613982,0.0003857639532258202,0.5190657232857027,0.19203560251882254,nan
1740794948.5921273,0.2703780310258757,-0.41958452484356495,0.6220993852292728,0.33080282068898315,nan
1740794948.5960333,-0.008680951751385533,-0.6884243946952374,0.2469261211488343,0.23456399513970722,nan
1740794948.599939,-0.3009077385413047,-0.4614518755336394,-0.2647709422633103,-0.09450913223546582,nan
1740794948.6038451,-0.3860152825295189,0.11095011919530673,-0.4988596242080087,-0.40309388694720627,nan
1740794948.6077511,-0.24561887201775376,0.526868898606479,-0.3390238759204672,-0.45864079487975384,nan
1740794948.611657,-0.04639016236758836,0.4881805034916322,0.001973721668328511,-0.27030562743957687,nan
1740794948.615563,0.06077092538813292,0.21392449314559192,0.24064567977176007,-0.02560746753411917,nan
1740794948.6194687,0.07686535782340226,0.12928569933412112,0.25727505998037914,0.13005126947242002,nan
1740794948.6233811,0.08938025842756907,0.3045999093914033,0.11515872900525963,0.19437987978268098,nan
1740794948.627287,0.12763697923239514,0.34666377866907916,-0.056799510202773205,0.21942955959363108,nan
1740794948.631193,0.13563551710373106,-0.08848252671080545,-0.15685584059301333,0.20743825085557288,nan
1740794948.6350987,0.07691576029383856,-0.7710301007691029,-0.137506652891183,0.13392413832812866,nan
1740794948.6390047,0.006042816422729506,-1.0403350809741836,-0.017712184317275066,0.025985888140599895,nan
1740794948.6429105,-0.000839033247865936,-0.5228430683204429,0.11438319758729834,-0.04930970308006871,nan
1740794948.6468165,0.04030670247482043,0.38519764890258956,0.15419443162446134,-0.07517719550170891,nan
1740794948.6507225,0.028614363811484397,0.8679510023667242,0.07202279168799645,-0.10733918812132869,nan
1740794948.6546283,-0.08906310067958496,0.5331133267573673,-0.05679611749865414,-0.17716108091183294,nan
1740794948.6585343,-0.22982045279199692,-0.1770736777000357,-0.1310916291978864,-0.21389548107613035,nan
1740794948.66244,-0.2535287809667452,-0.4707306772221189,-0.12097035783294986,-0.12047592156866878,nan
1740794948.666346,-0.12039551282993025,-0.05663519198161089,-0.06539751356444881,0.07702297011251433,nan
1740794948.670258,0.06395600796702276,0.5686038056997104,0.006236123856698464,0.21563124369545347,nan
1740794948.674164,0.1683246050347723,0.6861430007321104,0.09666190559654593,0.16923774272942946,nan
1740794948.6780698,0.1706343723747185,0.1268656990314475,0.17142855347015093,0.00650946712633124,nan
1740794948.6819758,0.14764599134766607,-0.5832976719050499,0.13162374758560072,-0.07711831257799048,nan
1740794948.6858816,0.14897014158020716,-0.810648354595903,-0.06648933254795023,0.01184211789622503,nan
1740794948.6897876,0.12729843802776525,-0.4527569342152109,-0.27346006690280544,0.15208308250790104,nan
1740794948.6936934,0.014583511816610072,0.04057026511944532,-0.228316763393987,0.1531698385780745,nan
1740794948.6975994,-0.1603380052674405,0.21034853956842375,0.14058929132450637,-0.016778986791402065,nan
1740794948.7015052,-0.27241443678448585,0.055236995526165074,0.5305247266809217,-0.19774151781458452,nan
1740794948.7054112,-0.22839623169500964,-0.05541192792258472,0.49322055487265853,-0.2292464139738562,nan
1740794948.7093172,-0.06984922614372024,0.1465363280486146,-0.08486592091131252,-0.12195655485477618,nan
1740794948.713223,0.07118044926847597,0.5212685452305861,-0.7738875496515834,-0.008120595430710921,nan
1740794948.7171347,0.10840428072967058,0.6819326979710376,-0.9563365199188693,0.038140221752167934,nan
1740794948.7210407,0.07167823243147911,0.4020843087918996,-0.41916089733031475,0.06572902890515359,nan
1740794948.7249465,0.04447304239241909,-0.1668891868807114,0.438535124807984,0.1280266015229131,nan
1740794948.7288525,0.06023566261040907,-0.6486433400095958,0.9942494295212025,0.16953714880506313,nan
1740794948.7327583,0.08098199965377857,-0.7642521546902126,0.9508007852621229,0.09381915195598588,nan
1740794948.7366643,0.06398391724985268,-0.5144403813054291,0.4791341395603103,-0.07454017911312526,nan
1740794948.74057,0.017078900385980467,-0.1109869285047898,-0.09360839970272726,-0.17215629307864358,nan
1740794948.744476,-0.023509785511463474,0.2156728851178786,-0.5925682017653026,-0.0818644762743002,nan
1740794948.748382,-0.04788686408463898,0.3534848042368651,-0.9546362314253256,0.10323902876719876,nan
1740794948.7522879,-0.0777381197796269,0.32267646341325706,-1.0252064772050624,0.16367991836036855,nan
1740794948.7561939,-0.11769286117633164,0.21312892667033267,-0.6006389259452404,0.008964915403783143,nan
1740794948.7600996,-0.12779882422325534,0.11516051654446505,0.2583126557523332,-0.20191107395061933,nan
1740794948.7640114,-0.06532459844965781,0.07663880823222709,1.0760043263847867,-0.23337611604035535,nan
1740794948.7679172,0.05155282830330922,0.0882412307214408,1.2883363761888251,-0.0432422746278401,nan
1740794948.7718232,0.14257710379137925,0.09406045806352545,0.764939546594807,0.16947126476788643,nan
1740794948.775729,0.1395112025324057,0.02712223545754317,-0.06138615413970073,0.19337577153234692,nan
1740794948.779635,0.05651066406931114,-0.13910196536624908,-0.627961581704324,0.037123592434022135,nan
1740794948.7835407,-0.022359638612989664,-0.3503519192367897,-0.75066805155502,-0.10097898112740876,nan
1740794948.7874467,-0.027328973519548674,-0.4807663278905079,-0.6448708887819229,-0.07199312384230568,nan
1740794948.7913527,0.02817033094475717,-0.4097526026224846,-0.5090846000528966,0.06624667404067969,nan
1740794948.7952585,0.06229722444492606,-0.12666358349647117,-0.2539739955020572,0.14168268675391327,nan
1740794948.7991645,0.006975863374190853,0.2286701031315758,0.26559836839179585,0.07348423250173194,nan
1740794948.8030703,-0.1201047393429961,0.45429848098119097,0.8528192815456589,-0.05717271753356749,nan
1740794948.8069763,-0.21821346459030808,0.44975562217416487,1.0058268148163119,-0.12648838803332438,nan
1740794948.8108873,-0.18182916488616258,0.2996410732829863,0.4519628383538598,-0.10524592437212699,nan
1740794948.8147933,0.004476287551101495,0.1737187276600068,-0.437987586915249,-0.05479044837940212,nan
1740794948.8186991,0.23094718267040115,0.13212691759871997,-0.917597650703236,-0.023845741730771024,nan
1740794948.8226051,0.3279055378588958,0.054702459389109066,-0.5986804075520676,0.0005312384835326925,nan
1740794948.826511,0.19714361172138528,-0.19881214391606825,0.14479305644117138,0.03920052288472651,nan
1740794948.830417,-0.0910262202778875,-0.5604177778142755,0.566205559868289,0.06724305242199176,nan
1740794948.8343227,-0.3292582314609271,-0.7400076578860874,0.3139542015041256,0.04993481114123095,nan
1740794948.8382287,-0.3291769393273947,-0.4977944458987626,-0.24902629107431537,0.0123113654107131,nan
1740794948.8421347,-0.08014130530855484,0.06555442555472958,-0.4849367285998355,0.02448841725750049,nan
1740794948.8460405,0.2317986478201687,0.541688270549362,-0.162354674552986,0.10121820822141289,nan
1740794948.8499465,0.3718267537358992,0.5857079705682898,0.34965184780035996,0.14959462615338168,nan
1740794948.8538523,0.2457449388630324,0.2550161162196147,0.5200055129064917,0.05830409184450281,nan
1740794948.8577657,-0.0344438455446465,-0.054075029935970964,0.20310226726664934,-0.15777635964029402,nan
1740794948.8616714,-0.25830164175988773,-0.02182953294893519,-0.26580077575660205,-0.33364904245767707,nan
1740794948.8655775,-0.2906106341017164,0.26337652150260515,-0.4497759457686336,-0.30136435041439963,nan
1740794948.8694832,-0.15742163109795781,0.40879727683604733,-0.22210429022716793,-0.06050886205946587,nan
1740794948.8733892,0.011256107459476807,0.13935918841693093,0.17171260586382914,0.2106447605814827,nan
1740794948.8772953,0.10582799619893847,-0.4118590531703883,0.38065035460289603,0.3164354281552792,nan
1740794948.881201,0.11177052111225319,-0.8330140878024511,0.24676448529730208,0.21245306878412312,nan
1740794948.885107,0.08650050294585787,-0.8170204210941506,-0.1015137320897119,0.022113411884107294,nan
1740794948.8890128,0.08312181224827024,-0.3976685237723743,-0.37777815381926694,-0.09418462477813623,nan
1740794948.8929188,0.09818485106800272,0.1525286208069947,-0.35892019055799934,-0.07785188103703568,nan
1740794948.8968246,0.08348467112796015,0.5816607254813839,-0.050448196613380444,0.0015827611917655867,nan
1740794948.9007306,0.002856675805251184,0.7867920028272829,0.31056025482748756,0.03228870756561155,nan
1740794948.9046412,-0.11955324367264866,0.7502222896312244,0.4327897186071202,-0.033109302377342546,nan
1740794948.9085472,-0.20518290254587462,0.46131294164872627,0.21134215982498492,-0.13824928641887216,nan
1740794948.912453,-0.18293746476694725,-0.03493018438913018,-0.1706761389889493,-0.1753645878518352,nan
1740794948.916359,-0.05691378745404012,-0.547123733380156,-0.3904759495585596,-0.08445422752264983,nan
1740794948.920265,0.08580738961139789,-0.7890330667163148,-0.26573408351542993,0.08275866967449821,nan
1740794948.9241707,0.1452361080539674,-0.595295888544068,0.08933262417566733,0.1970410158718582,nan
1740794948.9280767,0.09664842096190297,-0.09969351968111906,0.3712196647601895,0.16682587219109443,nan
1740794948.9319825,0.009615741697103455,0.3318875051154551,0.34407251488784624,0.03044738618819919,nan
1740794948.9358885,-0.024849716646470236,0.3889752613481436,0.014641336335898907,-0.07608260948051253,nan
1740794948.9397943,0.015013042324619138,0.07622072178716387,-0.3906678974338752,-0.0578549818835813,nan
1740794948.9437003,0.06819945526934461,-0.28805478030077275,-0.5827068914873068,0.036302312858796516,nan
1740794948.9476063,0.06471395842919465,-0.33818227283440616,-0.38316168779477694,0.06829611542696241,nan
1740794948.9515166,0.00032740702754389673,0.028442015353116926,0.15248892473201472,-0.02711177235390438,nan
1740794948.9554224,-0.0691909457289514,0.5506273313345239,0.7145078255449505,-0.15550227885578236,nan
1740794948.9593284,-0.09698889462967211,0.7986759628320163,0.8901397802821382,-0.16150143037987363,nan
1740794948.9632342,-0.08859213241005008,0.5199513586210611,0.4660975827184659,-0.009918857906319169,nan
1740794948.9671402,-0.07326550522762278,-0.13907903725247417,-0.33508673892373164,0.15994626852280663,nan
1740794948.9710462,-0.053030439198810474,-0.7287740409764853,-0.9571562671908826,0.17814897447259373,nan
1740794948.974952,-0.003425354674009319,-0.8522553967514109,-0.9489619339229757,0.028159272228353502,nan
1740794948.978858,0.07668242817106727,-0.4866192254909669,-0.35799941526356077,-0.1362560753375752,nan
1740794948.9827638,0.14068185483685064,0.020901481353838704,0.3280668835797618,-0.1569659339937985,nan
1740794948.9866698,0.13736432191328232,0.2857241164895355,0.6498488765325076,-0.03010221713575849,nan
1740794948.9905756,0.0700967804072557,0.23081602393671655,0.5627020584159954,0.11176330845138527,nan
1740794948.9944816,-0.00603880592275231,0.10480360518937198,0.3453402982840549,0.15191213669286066,nan
1740794948.9983938,-0.047050871415599944,0.16658690777273286,0.19591653037218193,0.09264538990226096,nan
1740794949.0022998,-0.06107973879878553,0.38271374607255626,0.034648727074952125,0.011309690789842253,nan
1740794949.0062056,-0.07701487687791705,0.4684534886354891,-0.26619491388271044,-0.04412675964292504,nan
1740794949.0101116,-0.09105111914860133,0.22157805277230214,-0.5791830269937661,-0.08341206603485765,nan
1740794949.0140176,-0.0717094298541327,-0.22951275373820687,-0.6014235706086132,-0.115833826681959,nan
1740794949.0179234,-0.01701985118596481,-0.5419193130553802,-0.24890078964779982,-0.11209606081080734,nan
1740794949.0218294,0.025521005242267587,-0.504098265840152,0.16863656945124728,-0.047715845313684446,nan
1740794949.0257351,0.019465722964343006,-0.2266903889885816,0.2831738119899113,0.04065170044876968,nan
1740794949.0296412,0.0016047862539350457,0.012891189255795708,0.12406450369259349,0.08069967705235888,nan
1740794949.033547,0.04390692343470153,0.06813001619286606,0.0838695271795087,0.05102432690339719,nan
1740794949.037453,0.14376310308049456,0.027654634738040487,0.3813061128744676,0.013370613254794274,nan
1740794949.041359,0.19023540867973812,0.050822263514616,0.6957098857711106,0.03800087727562365,nan
1740794949.045271,0.0820511576744811,0.17020126641961306,0.5001001358306433,0.1108725850177954,nan
1740794949.0491767,-0.12687453853466804,0.28783300122860994,-0.25542922831233994,0.14144401619353442,nan
1740794949.0530827,-0.2484890985794803,0.3173132633374902,-0.9675471301407745,0.06521847808212787,nan
1740794949.0569885,-0.15905712707818725,0.2579552268350693,-1.0001057013967338,-0.08242420048681459,nan
1740794949.0608945,0.04644100310357353,0.12734965072163554,-0.3934696990317133,-0.20406513530207296,nan
1740794949.0648005,0.14426269012869572,-0.09905188806120067,0.20664683839885886,-0.2334627150735778,nan
1740794949.0687063,0.03380117887003161,-0.41072004126414324,0.32922073548869674,-0.17359907771169186,nan
1740794949.0726123,-0.14138286590073468,-0.6506322526426108,0.19941171660229062,-0.058967009780640914,nan
1740794949.076518,-0.15803833351562538,-0.5812032897802539,0.3417470008304846,0.0807805528771255,nan
1740794949.080424,0.023408166387040033,-0.132117846160786,0.7783409894914496,0.20694247250108463,nan
1740794949.0843298,0.21200685285578072,0.44126715298850094,0.8929997871000837,0.25713939616181214,nan
1740794949.0882359,0.2145654391492038,0.7240573529557355,0.21157625781447073,0.1898395964110667,nan
1740794949.0921476,0.06044308236388719,0.5125210867685337,-0.8605588893776865,0.04655840888451204,nan
1740794949.0960536,-0.05288264810278776,0.009588013239723159,-1.344958474899472,-0.06812275897361002,nan
1740794949.0999594,-0.020263584979440277,-0.36825467158797087,-0.7770796779350686,-0.09410244420013664,nan
1740794949.1038654,0.03965192055874626,-0.3702032848606252,0.21859311364082995,-0.08277671435435235,nan
1740794949.1077712,-0.044762002113364896,-0.08980977443644884,0.6162120323095222,-0.12197927211739483,nan
1740794949.1116772,-0.2423129977576551,0.19550817138459156,0.16799366685442602,-0.20041523989713486,nan
1740794949.115583,-0.31917486651701193,0.2959975844191206,-0.33683573944015094,-0.19587931274204246,nan
1740794949.119489,-0.12062536685613552,0.2047283221745417,-0.06738593065929106,-0.02999317425485353,nan
1740794949.123395,0.20844781018557987,-0.0032308684906982854,0.7891765806193374,0.19622652156329326,nan
1740794949.1273007,0.3562152242027548,-0.26419238267030554,1.1981983871740973,0.2809438354836138,nan
1740794949.1312068,0.19399955803453528,-0.49434149944127787,0.5017390975352032,0.15087403230461227,nan
1740794949.1351125,-0.07263970604926982,-0.5452851072052972,-0.7557699289733196,-0.03552207840547576,nan
1740794949.139024,-0.14255148544836857,-0.29230989916744027,-1.3873368099742458,-0.06260972166699931,nan
1740794949.14293,0.030688337531643333,0.20575178696921154,-0.8564074865131422,0.07987815683277645,nan
1740794949.1468358,0.19380791007138778,0.6835126593216957,0.18894089038720077,0.17033790324559114,nan
1740794949.1507418,0.10522678778112271,0.8556728998148209,0.7006909587231954,0.020344455486432954,nan
1740794949.1546476,-0.17306748735856697,0.6329886863284988,0.36133407556213865,-0.2760983726124046,nan
1740794949.1585536,-0.3485895708127777,0.15081734323741652,-0.2192571568478195,-0.41992028254393776,nan
1740794949.1624594,-0.2384002158448887,-0.37768103541344616,-0.3309466446979589,-0.23837939209844075,nan
1740794949.1663654,0.03319261630603033,-0.7830019480853883,0.060624538890556495,0.11412846893396686,nan
1740794949.1702714,0.1986460561366805,-0.9302390369791367,0.4439645559886781,0.32333814198363203,nan
1740794949.1741772,0.1527909478349296,-0.7002974667472863,0.4654032309791271,0.2526649322105925,nan
1740794949.1780832,0.033075793807505964,-0.09833710813863676,0.25926239139891755,0.05840633635320557,nan
1740794949.181989,0.010495881493504123,0.6107792296810325,0.09048035018667414,-0.030958819627837402,nan
1740794949.1859002,0.07940846765527454,0.9881357881049676,-0.06889714281915793,0.017589945720048614,nan
1740794949.189806,0.10164847261163877,0.7649751635510618,-0.40707257891242266,0.04800830673877258,nan
1740794949.193712,0.014989501045150112,0.1265643511426357,-0.8158930810272013,-0.044033467532840945,nan
1740794949.1976178,-0.08394180472495634,-0.4127399692051162,-0.8413039724675513,-0.1636689865869619,nan
1740794949.2015238,-0.08297260418208534,-0.4775391310712384,-0.2227193715673571,-0.1493677228311284,nan
