timestamps,TP9,AF7,AF8,TP10,Right AUX
1740797089.89336,-0.399386462456549,0.2355340881112233,-0.2778773134839115,0.08863719035384206,nan
1740797089.897266,-0.11736340536836767,0.9222925118999685,0.5307867392899588,0.2967644602698384,nan
1740797089.9011717,0.2549126500785821,1.09721954502892,0.7454859442766646,0.2528499965257085,nan
1740797089.9050777,0.41856950208381904,0.46976390721559314,0.19788449628821977,0.09453491242111833,nan
1740797089.9089837,0.3000221565396902,-0.6222833610696771,-0.5157902275652004,0.017694095203198354,nan
1740797089.9128895,0.0836392289757121,-1.4273533104834961,-0.7054071733700794,0.059467290633096435,nan
1740797089.9167955,-0.0360034096529613,-1.3595132113167916,-0.26160518150681056,0.0917489889236886,nan
1740797089.9207013,-0.054389845146469495,-0.4610203255762028,0.3480524448644429,0.007807883349532895,nan
1740797089.9246073,-0.08199882841908196,0.6360313529393572,0.6299498325358087,-0.13567508892079921,nan
1740797089.928513,-0.14249758180028824,1.2084195929750627,0.4917193516503516,-0.18799924984717253,nan
1740797089.932419,-0.14075325797888874,0.9825240999187104,0.15774435955849472,-0.09136109355924624,nan
1740797089.936325,-0.033814055973615094,0.28412079463779605,-0.17061149191212177,0.044048186123571906,nan
1740797089.940232,0.062212317641567746,-0.292690643091976,-0.4459851999774167,0.06583065538263809,nan
1740797089.9441378,0.012194700395329643,-0.3894681511757226,-0.6221817332356127,-0.04330421215975753,nan
1740797089.9480438,-0.12847005646652956,-0.13184362743114345,-0.5456784834023143,-0.1426770472560738,nan
1740797089.9519496,-0.1455683048628786,0.06232724946022824,-0.11646472105778091,-0.09039009183975417,nan
1740797089.9558556,0.05776372364948917,-0.08804559722449146,0.4825672308618803,0.09712103350344617,nan
1740797089.9597616,0.29293416557591373,-0.4598220826000308,0.8416564511902456,0.2568027437918507,nan
1740797089.9636674,0.28308076970839247,-0.6554005175168771,0.6830035491928472,0.24422496674293212,nan
1740797089.9675734,0.014454920277988798,-0.39421040972009663,0.1414818315436057,0.07368757590024128,nan
1740797089.9714792,-0.2096271143260166,0.2089588728207709,-0.3603791131762433,-0.10712870705429636,nan
1740797089.9753852,-0.12340008000334494,0.7380226934193935,-0.5167714047104882,-0.16817612790349662,nan
1740797089.979291,0.15488609837759082,0.8410314478317554,-0.3852568520958789,-0.11151433506488678,nan
1740797089.983197,0.236142796632475,0.5119296399776058,-0.23408583962465454,-0.04134917192901334,nan
1740797089.9871056,-0.06488954744928842,0.035963188508079565,-0.2037955510914,-0.03867486236128409,nan
1740797089.9910114,-0.46319258153810905,-0.3057868348981017,-0.1766378843722095,-0.07964153498890472,nan
1740797089.9949174,-0.49857295409233504,-0.44963555762113466,0.028664840138228714,-0.07656609763326398,nan
1740797089.9988232,-0.07061870182505119,-0.4857760572881174,0.39635110252081057,0.013795515737174678,nan
1740797090.0027292,0.420711081764988,-0.45239173722478293,0.6906652322554079,0.13546397677613012,nan
1740797090.0066352,0.5102910274334713,-0.2714163422860265,0.676239792335481,0.1881724874588685,nan
1740797090.010541,0.17609378363326425,0.09098533279246482,0.32558686683997323,0.12935172309063778,nan
1740797090.014447,-0.16833518220658797,0.4631709235350023,-0.18465306622394756,0.013853943344497521,nan
1740797090.0183527,-0.16928816784553607,0.5603599867613087,-0.6295994728155151,-0.06675168535809237,nan
1740797090.0222588,0.08101140125848628,0.27887474394432554,-0.8539604322691552,-0.07489684068426374,nan
1740797090.0261648,0.2055163419536699,-0.14235388974960927,-0.7775866844133941,-0.04974448422288954,nan
1740797090.0300705,0.01820657613055249,-0.3228288130177149,-0.3820429864682922,-0.045153202536877414,nan
1740797090.0339787,-0.271787235651363,-0.12568925416992371,0.23715497280118056,-0.062261153139623424,nan
1740797090.0378847,-0.34404054885355045,0.19317787036035947,0.8217963192930624,-0.0567318453097827,nan
1740797090.0417907,-0.15238180333669876,0.2575111367191979,1.0430737797249843,-0.006437768486291063,nan
1740797090.0456965,0.061715649428717816,-0.020629952266370308,0.732889765210607,0.050105920715939674,nan
1740797090.0496025,0.10308414533522377,-0.34727357228329453,0.05802074986847607,0.057546257945615006,nan
1740797090.0535083,0.0512794085328391,-0.37311873790609995,-0.5629555173312323,0.016532281182919824,nan
1740797090.0574143,0.10243427283884285,-0.07350307623708427,-0.7701200547257477,-0.01070963682021938,nan
1740797090.0613203,0.2616605345954905,0.23925807367036692,-0.5345283703434355,0.022035262548898246,nan
1740797090.065226,0.3090405517192099,0.2680500558221654,-0.14184732235585057,0.07792502671459324,nan
1740797090.069132,0.09074365094547143,0.03850446235364211,0.09368780410074733,0.07253278196513498,nan
1740797090.0730379,-0.24598282434218166,-0.1694839628187152,0.10583161854837712,-0.0191542712409947,nan
1740797090.0769439,-0.3896014314977145,-0.14952808492957112,0.07841478314074016,-0.11360554683180116,nan
1740797090.080852,-0.2164520574022389,0.03773503794975717,0.18899683603223233,-0.10123833113832532,nan
1740797090.0847578,0.07006903333488283,0.1948987114752041,0.3767497075230956,0.022214159399507105,nan
1740797090.0886638,0.17656739365640692,0.22953878592823337,0.39288951081347756,0.13023114620319637,nan
1740797090.0925696,0.04065290195313362,0.1980072287466875,0.09099980249341484,0.09111831703796494,nan
1740797090.0964756,-0.1355004412504159,0.14165675624434745,-0.35602710592987424,-0.08401282359903005,nan
1740797090.1003816,-0.1426150169547898,-0.011238427541744263,-0.5713350288017495,-0.2356967248156335,nan
1740797090.1042874,0.01705898667040128,-0.31258146907716644,-0.3360110419807215,-0.20754572513568678,nan
1740797090.1081934,0.18273973766517992,-0.6128813913457227,0.16869854255630998,0.0005393712197907411,nan
1740797090.1120992,0.23693935793296114,-0.623891005835804,0.5079693826076003,0.23232606511127646,nan
1740797090.1160052,0.18921030811330772,-0.21861781628455496,0.40068264992448305,0.3190248950365542,nan
1740797090.1199112,0.08717755987887923,0.37418523938818277,-0.02244874719436585,0.21647968028050807,nan
1740797090.123817,-0.06177244497325096,0.7453402092936612,-0.37133352170718936,0.014149669797560143,nan
1740797090.127725,-0.23518430700586518,0.6853579220296967,-0.38878275500104875,-0.16119801990695948,nan
1740797090.1316307,-0.32393376493653,0.3487616892699825,-0.16483815957105596,-0.23484720777654966,nan
1740797090.1355367,-0.2117414112189557,0.03051619236399997,0.032129539858665755,-0.20026484641195094,nan
1740797090.1394427,0.055218763686214686,-0.15932150470092535,0.08100514783230854,-0.09109985312304798,nan
1740797090.1433485,0.25010604491201854,-0.3330673630713131,0.10476258493062583,0.0380946639764122,nan
1740797090.1472545,0.18518104248446376,-0.5633272457453578,0.24541404246918058,0.12139895789975004,nan
1740797090.1511602,-0.0630447292550382,-0.6922612361468782,0.4181186366464616,0.112160292366598,nan
1740797090.1550663,-0.2111034452337299,-0.4863401785459851,0.37052807735899046,0.026707691535434504,nan
1740797090.1589723,-0.07537309540196184,0.04335986583163774,-0.0033178947580926907,-0.05336334828397413,nan
1740797090.162878,0.21767873022863585,0.5688302663816887,-0.4720135551433863,-0.04692198791095924,nan
1740797090.166784,0.36662690589792024,0.743358921378891,-0.6531728487440781,0.0475162191665224,nan
1740797090.1706898,0.220181395636993,0.5356970686357244,-0.3944188594270334,0.1439779684294559,nan
1740797090.1745975,-0.08084575275143573,0.21431630635975726,0.06951703498538522,0.14758887421041056,nan
1740797090.1785035,-0.2858368954347048,0.016990342496299566,0.35568106189297166,0.04124810747755667,nan
1740797090.1824093,-0.29769689449795594,-0.08788001927746189,0.3006241971845047,-0.1046748521194992,nan
1740797090.1863153,-0.21104411787613908,-0.27481427236218436,0.06747053510547005,-0.19924889296855772,nan
1740797090.190221,-0.12945085397566666,-0.5562112142863633,-0.07995870851018401,-0.19919241508448782,nan
1740797090.194127,-0.0338982748586594,-0.6975145836018884,-0.045024810907113244,-0.11994507853000488,nan
1740797090.198033,0.13285606124747945,-0.4665518935473902,0.07464030514601441,-0.004137386178933425,nan
1740797090.2019389,0.313887385361466,0.08085560017161755,0.15959877388236166,0.10411876249148491,nan
1740797090.2058449,0.3561553193132208,0.6116892416885635,0.18409875098355782,0.16499888904107515,nan
1740797090.2097507,0.1931998243989233,0.8002370202946505,0.15653599661816023,0.15315830720576715,nan
1740797090.2136567,-0.0521043864074064,0.5738253624809724,0.033821283410618914,0.08086568649180809,nan
1740797090.2175627,-0.19429382777072118,0.10744718976162893,-0.21889967786904121,0.0020675404734759135,nan
1740797090.22147,-0.18728562766524298,-0.3428357917955303,-0.49459461347817896,-0.02856319266508686,nan
1740797090.225376,-0.1437812397503646,-0.5700742115587254,-0.5635529190346196,-0.009865044170427505,nan
1740797090.229282,-0.15448554535973313,-0.4688435899160234,-0.2960479534608557,0.0022673255860905187,nan
1740797090.2331877,-0.15569948313774223,-0.09154826056902912,0.15639093241888138,-0.04270185134143667,nan
1740797090.2370937,-0.02866493154286874,0.31195341485557376,0.4726410598193897,-0.1261746597198507,nan
1740797090.2409997,0.20082572322078834,0.41530014440368973,0.4795561093058921,-0.17055344286803117,nan
1740797090.2449055,0.34029250665291505,0.10366909127621964,0.3133029221243042,-0.11807192268834428,nan
1740797090.2488115,0.23940421274860732,-0.34728030648097463,0.22228688948346842,0.006784513154444962,nan
1740797090.2527173,-0.023734764951134937,-0.4804322059153085,0.24264639008875724,0.11970309807873863,nan
1740797090.2566233,-0.21766211302198318,-0.12304240682620157,0.1520194401128391,0.15733620193747283,nan
1740797090.260529,-0.20767515390940736,0.3916178230805866,-0.22029375296864634,0.12789604590620052,nan
1740797090.264435,-0.07701107347083516,0.5528480505632228,-0.7001452691176276,0.08313579555194393,nan
1740797090.2683425,0.01438898190926738,0.23008374203034235,-0.8788681741372316,0.05337573861049092,nan
1740797090.2722483,0.03227826079382528,-0.18263333725439587,-0.5411940940618598,0.021742769443689188,nan
1740797090.2761543,0.06741266318493878,-0.2346937897121034,0.0759812644649562,-0.039872698600038656,nan
1740797090.28006,0.1530892102478125,0.03812639595583944,0.5105986243725107,-0.12235282418350465,nan
1740797090.283966,0.17328956248366753,0.16302563475409212,0.5434184940571672,-0.17605855413627672,nan
1740797090.287872,0.011846566865211634,-0.15744576294344576,0.3748781783053275,-0.15532690280557018,nan
1740797090.2917778,-0.24563829819580635,-0.6111275938843921,0.3192861063245749,-0.06282922152975248,nan
1740797090.2956839,-0.34765353272723587,-0.5921528274987288,0.3961669268416069,0.04933197402749751,nan
1740797090.2995896,-0.15140968306012847,0.06212567070648033,0.3174574139050455,0.12000482265811002,nan
1740797090.3034956,0.18469227177824768,0.7958538615921571,-0.11235196778960767,0.12350862964687814,nan
1740797090.3074017,0.344172181040857,0.8977606546704551,-0.6743488212298723,0.08231126525302059,nan
1740797090.3113074,0.18924938837690242,0.28174312375099503,-0.9044875339325933,0.04065357449484464,nan
1740797090.3152144,-0.0922850796216432,-0.42220931925066885,-0.5859447854985707,0.023367610737602813,nan
1740797090.3191204,-0.19958552533444732,-0.5758248677017129,-0.0004096649981031198,0.016855571178510075,nan
1740797090.3230262,-0.04531232317994555,-0.20960397737077419,0.36176999097707085,-0.008810718613633115,nan
1740797090.3269322,0.16942767627781588,0.10758838704581518,0.3116320724070167,-0.05791190937083843,nan
1740797090.330838,0.1940450639091802,0.0043648889704883285,0.11805551994685608,-0.09465850768273566,nan
1740797090.334744,-0.006819711702283813,-0.26642964415904535,0.1465164438229078,-0.07987404062083736,nan
1740797090.33865,-0.24441164419370273,-0.2106591200926594,0.40993260164751083,-0.02239492437624401,nan
1740797090.3425558,-0.31877146443013915,0.2276251242101645,0.5526850574462199,0.019557322647074524,nan
1740797090.3464618,-0.19340861640232487,0.5598463640795204,0.2803360446353558,0.0015265725499195569,nan
1740797090.3503675,0.026198666888091804,0.3576417526656664,-0.2671128092107758,-0.04734157762716034,nan
1740797090.3542736,0.2195407541880828,-0.1916832002830096,-0.6327778028677987,-0.04702514029480191,nan
1740797090.3581796,0.31719614464419693,-0.4832699188590279,-0.5240525682587224,0.04014449872977527,nan
1740797090.362088,0.28286746799540213,-0.21379002682953593,-0.12079738637492471,0.15169095826913956,nan
1740797090.3659937,0.11027439361301768,0.26002016943971384,0.1275966262729598,0.18117716641900258,nan
1740797090.3698997,-0.13084985913191838,0.3611792699638428,-0.012687472452769487,0.0937142623451812,nan
1740797090.3738058,-0.29218225701571204,-0.012686077016523797,-0.3195517060613444,-0.0344765718114877,nan
1740797090.3777115,-0.25538270439896804,-0.38657212184339285,-0.36349419828765067,-0.1040827810660804,nan
1740797090.3816175,-0.05855018034583494,-0.3063306573403058,0.03695815664085419,-0.10268637300685166,nan
1740797090.3855233,0.11967436371963788,0.10991129311358198,0.6279051353703583,-0.09864770751579299,nan
1740797090.3894293,0.13062428465816092,0.33812775470959955,0.9623140234731279,-0.12744802751464854,nan
1740797090.3933353,0.001980944116880043,0.1087635459936155,0.792129098093837,-0.1255499925576398,nan
1740797090.397241,-0.10420075862762436,-0.26088982322753973,0.23084955284971695,-0.014845876878550055,nan
1740797090.4011471,-0.07116648776422214,-0.26393619243079747,-0.40235989458519944,0.1613754339556502,nan
1740797090.405053,0.05969911558245038,0.16496570252017942,-0.8327826803559859,0.242997954214534,nan
1740797090.408963,0.1559626963047038,0.5515110547064812,-0.9403053106463074,0.12934785181226022,nan
1740797090.412869,0.14107998473432307,0.4254963207996645,-0.7236878859789605,-0.07523688081611964,nan
1740797090.4167747,0.049807356350015854,-0.14447043530710196,-0.2624536519862977,-0.14899715530864346,nan
1740797090.4206808,-0.042094520679737235,-0.6321926574247105,0.2677669579486859,-0.005201584314880325,nan
1740797090.4245868,-0.09828826424035579,-0.6166565034272289,0.6246596363461274,0.18385126453507727,nan
1740797090.4284925,-0.11951879723950692,-0.17243720633956838,0.6469209555553413,0.16491758255394212,nan
1740797090.4323986,-0.09989365990866894,0.2907020414387408,0.40662765028773235,-0.09724010601933333,nan
1740797090.4363043,-0.03029290934307176,0.4641881342772351,0.167567220180462,-0.34995885625577117,nan
1740797090.4402103,0.05704427681681852,0.3491142770246223,0.13099162299568767,-0.31636323268888494,nan
1740797090.4441164,0.09081444348782958,0.11215474752094123,0.21564056887136243,-0.006056786924729912,nan
1740797090.4480221,0.036536029661806774,-0.11620574100310707,0.1353666549142261,0.2845343000232132,nan
1740797090.4519281,-0.04731090840060498,-0.2590080831578791,-0.2677964331994031,0.28976887842609833,nan
1740797090.455836,-0.06321243049699984,-0.23065287947386992,-0.7842832433963963,0.05201183062791209,nan
1740797090.459742,0.011763225390910705,-0.002483463174662889,-0.9807091059421589,-0.14932240562682003,nan
1740797090.4636478,0.09412932319597567,0.2650479918597854,-0.6155018588131214,-0.11897024006870754,nan
1740797090.4675539,0.09164233268091782,0.28593206859131154,0.09723440534097126,0.058664757483935036,nan
1740797090.4714599,0.012352214154890094,-0.04952980379197392,0.6630895010743726,0.15517613117112108,nan
1740797090.4753656,-0.05118544020830217,-0.4689713068543098,0.7532266784010403,0.07410664879220569,nan
1740797090.4792717,-0.039275010880279154,-0.5284846261468074,0.46916487045811595,-0.06540000982432591,nan
1740797090.4831774,0.008145774644433034,-0.08444268350641969,0.1746420069220019,-0.10756485584285645,nan
1740797090.4870834,0.015414873967843802,0.4969930067953271,0.10161928955273539,-0.05163584497258194,nan
1740797090.4909894,-0.0286392661056525,0.6762401331584412,0.15262266001394412,-0.020507419845264958,nan
1740797090.4948952,-0.06916064134202601,0.29110961741707747,0.07610790921926097,-0.07369317399460884,nan
1740797090.4988012,-0.07222176273262042,-0.27558771292618195,-0.2174989697133774,-0.12359229016094617,nan
1740797090.502709,-0.06485529576209634,-0.49480122014544653,-0.5508006769112721,-0.06018500322587893,nan
1740797090.506615,-0.06716947117747782,-0.21925977374762998,-0.6694309916069059,0.09106072848490218,nan
1740797090.510521,-0.02689340721002934,0.21228321382804216,-0.4903699948759844,0.19092100931390327,nan
1740797090.5144267,0.11754245066525582,0.3575600965120493,-0.14941259429512255,0.1571685597396894,nan
1740797090.5183327,0.30499667344561876,0.0975242905585241,0.15849046875176842,0.0581062504479346,nan
1740797090.5222385,0.34732293957069205,-0.30891852103353973,0.3434022410151544,0.01039267940388061,nan
1740797090.5261445,0.11909544668907983,-0.5129454244884424,0.4346660057779604,0.02383553819205082,nan
1740797090.5300503,-0.2566479025882544,-0.3636936346158878,0.4837651749856405,0.00173664625481147,nan
1740797090.5339563,-0.4749236847888622,0.03694173837479251,0.48781665173369304,-0.1078456732522362,nan
1740797090.5378623,-0.3427013147076595,0.4551219382338446,0.39403945850610006,-0.2191246974427206,nan
1740797090.541768,0.0118839847664911,0.6616707747279237,0.15018040014659184,-0.20543838268082443,nan
1740797090.545674,0.26232701410072845,0.5317619515716981,-0.23978405195153915,-0.061816030948132594,nan
1740797090.5495818,0.21664264030403288,0.12179809849679668,-0.6672401656186298,0.08233707254095349,nan
1740797090.5534875,-0.004319883231840341,-0.330864670337697,-0.917114912535769,0.11962613348899524,nan
1740797090.5573936,-0.1296612470508803,-0.5588703551354969,-0.7786575822596755,0.08560502863931263,nan
1740797090.5612993,-0.03972755628507498,-0.4822438478372558,-0.24296314459595522,0.08765940000822274,nan
1740797090.5652053,0.13531490360946613,-0.2640011725906072,0.3975316891588412,0.14263373302105364,nan
1740797090.5691113,0.19961302516368978,-0.10815346145589504,0.7272525398715813,0.1472840328017056,nan
1740797090.5730171,0.11099298089332571,-0.019170492680583635,0.5739312855248168,0.026695780114782148,nan
1740797090.5769231,-0.015339985070590574,0.16833059009517437,0.2001855717518094,-0.13948743962982402,nan
1740797090.580829,-0.07900440005203783,0.49913234887317753,0.05484097434224513,-0.1938983580292064,nan
1740797090.584735,-0.10100943584067536,0.7206311436313393,0.2814324978117621,-0.09488485348763682,nan
1740797090.588641,-0.14615205356806993,0.5083944166066141,0.5149641341940708,0.02416274658600566,nan
1740797090.5925467,-0.19797554565602463,-0.11625467394931054,0.2536544003681885,0.01650629583415573,nan
1740797090.5964541,-0.16939304075651548,-0.6925848778949311,-0.5413161564092733,-0.09485049807612125,nan
1740797090.60036,-0.029193083665470753,-0.7410353030828998,-1.2832979380585299,-0.14677452711553404,nan
1740797090.604266,0.1372444891653677,-0.26778814388629907,-1.2791030285324354,-0.04262209137132081,nan
1740797090.608172,0.21932867224173336,0.2325073507902997,-0.4262944616624125,0.12726850228273334,nan
1740797090.6120777,0.20059630223792663,0.30957483379658085,0.6486583038021839,0.20251733579647052,nan
1740797090.6159837,0.14886323428473947,0.028826092473595872,1.1712201578578725,0.15077111373849858,nan
1740797090.6198895,0.10404374572879471,-0.1572664347604256,0.9139260606544266,0.08817469624364961,nan
1740797090.6237955,0.0304921540748177,0.026537094794907415,0.3023730811819141,0.10102534388420341,nan
1740797090.6277015,-0.0991512144636907,0.3535974122409931,-0.10857757112385164,0.11351047113510492,nan
1740797090.6316073,-0.21908124188050604,0.3878065992136719,-0.17069450016022747,-0.011240652606381121,nan
1740797090.6355133,-0.22626677856807592,0.025513514844737753,-0.14332500727107284,-0.26061460628240773,nan
1740797090.639419,-0.11772085783860507,-0.36983524253804584,-0.26641888958817633,-0.43400392660624976,nan
1740797090.6433265,-0.014751589047415735,-0.39153376719138683,-0.4583054480648776,-0.34881365847826457,nan
1740797090.6472323,-0.01586464682412494,-0.05256316531718771,-0.45538197560863314,-0.05047792358529077,nan
1740797090.6511383,-0.06031529348653555,0.2557921205007245,-0.15733883261070522,0.22858856743725547,nan
1740797090.6550443,0.0025826895062854307,0.22935577782261835,0.24843339027893746,0.311024128109959,nan
1740797090.65895,0.20291814541272207,-0.030873280340235437,0.4801074867468141,0.22969081459958604,nan
1740797090.662856,0.36700787892499714,-0.19811815601499222,0.4028825690605103,0.13270756922160815,nan
1740797090.6667619,0.2948686209445402,-0.12835858675345166,0.0825851313337833,0.0892618830809753,nan
1740797090.670668,0.004579559077664371,0.011793167370400244,-0.29773482429747944,0.04546528567819181,nan
1740797090.674574,-0.2564309452404775,0.012792022980134838,-0.5068320329937556,-0.04614554882917675,nan
1740797090.6784797,-0.2670328960951984,-0.09401992163251313,-0.33726817601073816,-0.13214685914750568,nan
1740797090.6823857,-0.06765829886334283,-0.09540434860515709,0.2206646734425797,-0.13700358672764124,nan
1740797090.6862915,0.09319801493227993,0.1058830831874422,0.8179784561180078,-0.0909818735723496,nan
1740797090.6901984,0.033503397336581364,0.34888136603726033,0.8997103710683694,-0.10207546635086816,nan
1740797090.6941044,-0.17890599778116037,0.395240909450427,0.2138613258699708,-0.18875844028442082,nan
1740797090.6980102,-0.3180021571329301,0.1883909836344459,-0.7966417179804506,-0.21069720542064924,nan
1740797090.7019162,-0.23174278877934323,-0.1179075286249419,-1.2669437903273153,-0.031133748796180832,nan
1740797090.7058222,0.04047787376668559,-0.3478380860756113,-0.7356158444838047,0.2715099896383391,nan
1740797090.709728,0.3400745197509819,-0.44160468604236885,0.3153184635072219,0.4324784421244692,nan
1740797090.713634,0.5157655359667043,-0.40619537195195426,0.8857409501141803,0.2821630075872814,nan
1740797090.7175398,0.48070606993896164,-0.22708460050957271,0.4939147113521049,-0.04004716149899987,nan
1740797090.7214458,0.22577857104838936,0.08556399751607431,-0.29919720327522287,-0.2140107334181628,nan
1740797090.7253518,-0.15047941579816576,0.39370503732286366,-0.5149842381307475,-0.08608300333715807,nan
1740797090.7292576,-0.4467200515078484,0.4854091062409541,0.1269818733918989,0.1592360395007785,nan
1740797090.7331636,-0.48497866484110363,0.29317363624157167,0.8736453992384655,0.20372286477504264,nan
1740797090.737072,-0.2854223937891359,0.009872979907934053,0.7960433838964538,-0.056151052892601534,nan
1740797090.740978,-0.07460132483030216,-0.09349575986828763,-0.13300628370946513,-0.40399901396361415,nan
1740797090.744884,-0.05006941566031023,0.028202166419336913,-0.990923368824221,-0.5357225760688362,nan
1740797090.7487898,-0.13790603412442004,0.13674706727757616,-0.9422321803675727,-0.34972769157325173,nan
1740797090.7526958,-0.05848405935394419,-0.00708308735415175,-0.1482678324414675,0.005101480591131789,nan
1740797090.7566016,0.31902699057568257,-0.3483096737552058,0.49089394822409077,0.3143557824708414,nan
1740797090.7605076,0.7375103661623472,-0.5845202271618458,0.4038481694868843,0.47030197363514137,nan
1740797090.7644134,0.7604186842659403,-0.49428006091744864,-0.06797139402248574,0.4762232573283169,nan
1740797090.7683194,0.24837052535795778,-0.15061592356044481,-0.21662890121041525,0.3642195141191414,nan
1740797090.7722254,-0.4335823538035755,0.2103222531397756,0.10834293440653849,0.16818370213865863,nan
1740797090.7761312,-0.7504312030188239,0.45387017590575196,0.3703209383509275,-0.05092324727068039,nan
1740797090.7800372,-0.5288708703955411,0.5972588029771011,0.1283734986938698,-0.22519118514136052,nan
1740797090.7839456,-0.1002758251766314,0.6317084368928161,-0.32314172080998155,-0.3458057109014141,nan
1740797090.7878513,0.09254208138354872,0.43469939415472875,-0.31733235945531435,-0.45923785870913064,nan
1740797090.7917573,-0.0348061034071448,-0.04587145625080747,0.2726770003048408,-0.5564320881881196,nan
1740797090.795663,-0.18144157560447371,-0.5808632233906482,0.7698560773749092,-0.5029799540221171,nan
1740797090.7995691,-0.058745858829314164,-0.7801922142404952,0.48029527800709987,-0.1600533769809821,nan
1740797090.8034751,0.2808661361665335,-0.49284360157168067,-0.4182835407290094,0.39855998200043885,nan
1740797090.807381,0.5386737919072758,-0.017454316499372333,-1.019204352751975,0.8507238288968841,nan
1740797090.811287,0.5129788941041984,0.1860293221545609,-0.7342721101043247,0.8828663245389566,nan
1740797090.8151927,0.2652924674465753,-0.004144653552398676,0.023608659511116594,0.4929599576919278,nan
1740797090.8190987,-0.026529017042253175,-0.242044552253249,0.3689209015103057,-0.005649251448085448,nan
1740797090.8230047,-0.2666260753984454,-0.12092956184504164,0.03722153386133173,-0.29959663471026127,nan
1740797090.8269105,-0.4383349609817468,0.355748437972891,-0.3099553207790148,-0.3568933823400491,nan
1740797090.8308187,-0.48754279032103637,0.7838781724027688,0.049256139058609094,-0.3664532195873161,nan
1740797090.8347244,-0.33805730905537495,0.8069693759625541,0.9339285076727958,-0.4454859165857974,nan
1740797090.8386304,-0.044756829891042814,0.4504193360491999,1.4011868544406427,-0.49369653563293625,nan
1740797090.8425364,0.17468336129009918,-0.017352233644980296,0.8328108543288225,-0.35878083697154434,nan
1740797090.8464422,0.15681594900947637,-0.43627755149957387,-0.3487727042842415,-0.06624271417441227,nan
1740797090.8503482,0.010151255737647061,-0.8270633450569881,-1.1788072421092004,0.2031782702428956,nan
1740797090.854254,0.01197742985897155,-1.133999998347862,-1.2130474031623424,0.34893495636682886,nan
1740797090.85816,0.25852166404390875,-1.082304558202437,-0.8587716396335185,0.46124621032901586,nan
1740797090.862066,0.5059474350243002,-0.45137507743078886,-0.65494779068927,0.6387047318409655,nan
1740797090.8659718,0.44338346458299,0.5420282038585457,-0.51358851151399,0.7617012461765603,nan
1740797090.8698778,0.08189115890891667,1.2972555150732437,0.07022699182783335,0.5648414551462764,nan
1740797090.8737836,-0.24584735521854426,1.36088849459364,1.1399819543521357,-0.03139325019421294,nan
1740797090.8776915,-0.3007464148500445,0.846836099712293,1.9439650731732065,-0.7382857461068761,nan
1740797090.8815975,-0.234257274627787,0.2449127362499742,1.6855356789233624,-1.1261344249022003,nan
1740797090.8855033,-0.35287955907541996,-0.1406046170776333,0.4815701762961886,-1.0200639723650062,nan
1740797090.8894093,-0.6351072494114653,-0.42566552851454426,-0.6861919198253417,-0.6096699860379764,nan
1740797090.893315,-0.6632387459103533,-0.7970688179218068,-1.0302585298240845,-0.17461346484496104,nan
1740797090.897221,-0.1363899449663992,-1.1010559343745399,-0.7657248075042984,0.20270616287217183,nan
1740797090.901127,0.6556793695793548,-0.977025549011593,-0.6921031250220716,0.5908034034667,nan
1740797090.9050329,1.0562356508700432,-0.38754612409284134,-1.085269774687412,0.9530246805392713,nan
1740797090.908939,0.7727732120913515,0.20735807589439298,-1.3001477305649791,1.082672743104236,nan
1740797090.9128447,0.22923436321040302,0.37271537450599085,-0.6057884580896649,0.840979984947557,nan
1740797090.9167507,0.049539777626101025,0.29578365076660695,0.778132911612449,0.35912553628068006,nan
1740797090.9206567,0.26160782074015193,0.6013649653296718,1.771741786332302,-0.10671596471174796,nan
1740797090.9245641,0.22854164248638545,1.4614556776030883,1.6209400260393971,-0.48618429868580154,nan
1740797090.9284701,-0.5301729804932398,2.0788431512467063,0.7739691132556543,-0.9176890252821603,nan
1740797090.932376,-1.5914829115189202,1.356360335429087,0.3488526793365028,-1.4040459385725197,nan
1740797090.936282,-1.918610738984725,-0.8166910039696147,0.7536915852011882,-1.5772359199435448,nan
1740797090.940188,-0.9488188545783264,-3.1051760877601,1.0771454999187058,-0.9980961869777129,nan
1740797090.9440937,0.7372248641925976,-3.7619526451857555,0.05089684114883513,0.2685688260732412,nan
1740797090.9479997,1.9330364103904034,-2.1877740653394797,-2.385632084756361,1.51785152843762,nan
1740797090.9519055,1.9284514340443324,0.5584503994250481,-4.616660311498435,1.9818722929797778,nan
1740797090.9558115,1.018370446644534,2.7420261922107465,-4.575128809157537,1.5297206293730194,nan
1740797090.9597175,-0.019493378918013397,3.3215870941949506,-1.5582632172109836,0.6995950466641973,nan
1740797090.9636233,-0.7052223104952858,2.398283004270669,3.0067666391643004,0.04862017758209539,nan
1740797090.9675293,-1.0037442831924106,0.6656910989229311,6.464242733036254,-0.37999180913921504,nan
1740797090.9714367,-0.9280514570809656,-1.1784792784908342,6.700975584773368,-0.8563409664805345,nan
1740797090.9753425,-0.39162920323777756,-2.4622431565214726,3.471406725199062,-1.375864551237177,nan
1740797090.9792485,0.4092940223401135,-2.4838997372689358,-1.4964230137173513,-1.5280050468549722,nan
1740797090.9831543,0.7687466017304658,-1.0086427513822824,-5.5267272630400495,-1.0319859002175307,nan
1740797090.9870603,0.05907798756936875,1.0818207774890503,-6.516765960634419,-0.20666996157647438,nan
1740797090.9909663,-1.3482626963172422,2.107557193313342,-4.142461667446462,0.33237804382526825,nan
1740797090.994872,-2.0650772767948924,1.0946964362006981,-0.04605179289304847,0.42823213906878504,nan
1740797090.998778,-0.9619769748070534,-0.9844816182897993,3.219139441403255,0.5849168456231328,nan
1740797091.0026839,1.4938789508517034,-1.9001582317352395,3.89538840838058,1.2559987378587107,nan
1740797091.00659,3.431794602505076,-0.47197013009293143,2.1746242059225307,2.0832588377297525,nan
1740797091.0104957,3.3049243851888157,1.9129302306118523,-0.12136980814721812,2.1324585174604116,nan
1740797091.0144017,1.3499674542434072,2.5246840512499698,-1.098737520421016,0.9509808153757613,nan
1740797091.018309,-0.8321384798081397,0.2786882698041006,-0.2904850632440409,-0.8445138726433493,nan
1740797091.022215,-2.061394976048709,-2.736957920401039,1.1391114998145504,-2.2314622987350967,nan
1740797091.026121,-2.6152763627159312,-3.174194973670112,1.5586424384627973,-2.8684568939361768,nan
1740797091.0300267,-3.304378837389921,-0.04344444465038351,0.30968020334688207,-3.1522296723207464,nan
1740797091.0339327,-3.807563236661655,3.837641163731932,-1.7901008264037055,-3.1238198088457803,nan
1740797091.0378387,-2.5358612404559358,4.4031952449073986,-3.1794838987084786,-1.8062584078938384,nan
1740797091.0417445,1.4414091130731175,0.49411737105990294,-2.8002954804417777,1.7067328059664801,nan
1740797091.0456505,6.486719304831004,-4.682255699064635,-0.8540989797825883,6.343006334778746,nan
1740797091.0495563,8.962422033723687,-6.427868265856324,1.4227653682981691,8.816313550874547,nan
1740797091.0534623,6.230937989207149,-2.9641001749063083,2.6974058588484975,6.157510915739342,nan
1740797091.0573683,-0.6908618972843054,2.9584874468823763,2.4625505551204587,-1.0792267109685323,nan
1740797091.061274,-7.519131803437932,6.669770334658797,1.2763896388899358,-8.377309286937642,nan
1740797091.065181,-9.935984414004002,5.657164211880639,0.17098059965202214,-10.612574600411383,nan
1740797091.069087,-6.786321956165485,1.255199488169687,-0.2614845674222315,-6.336849291790436,nan
1740797091.0729928,-0.5652689635278304,-3.138113214360333,-0.29514457327910687,1.0483347046549019,nan
1740797091.0768988,4.827660693858112,-5.025488021343368,-0.6131633591416729,6.311400789876559,nan
1740797091.0808048,6.826398099072586,-4.1410256853155865,-1.4322558795413587,6.656067805161135,nan
1740797091.0847106,5.3256553949977,-1.6437240513253428,-2.1455993836856853,3.3501956235149466,nan
1740797091.0886166,1.9559169795887072,1.1797661868354405,-1.9100572405131147,-0.2595433652239452,nan
1740797091.0925224,-1.3044820865371602,3.3047689812423338,-0.5652893157875013,-1.8766539019814417,nan
1740797091.0964284,-3.0976216803789685,3.7956943133969974,1.1347147341190573,-1.559426667175396,nan
1740797091.1003344,-3.0351725563588308,2.1512124835798514,2.233079101737961,-0.66036982729872,nan
1740797091.1042402,-1.6617292830803385,-0.8696765110994432,2.3912128055965836,-0.18182173688687603,nan
1740797091.1081462,-0.08925786385764141,-3.216110156280996,1.8981404356315605,-0.23402064469312323,nan
1740797091.1120546,0.6997693082846169,-3.022604450892342,1.0098199786481896,-0.5360204071129517,nan
1740797091.1159606,0.5121814835351002,-0.4223235970370851,-0.36136223162188214,-0.869268364094988,nan
1740797091.1198664,-0.020398612708140737,2.311125846327837,-2.0960001658270464,-1.0099478432663465,nan
1740797091.1237724,-0.13382923427625842,2.771786131003527,-3.2696389281233578,-0.647491480283614,nan
1740797091.1276784,0.3152867734500593,0.7003336287169181,-2.665578701918055,0.29224540989122755,nan
1740797091.1315842,0.8071167979038912,-1.8151697818856922,-0.20734602325804932,1.338219864263006,nan
1740797091.1354902,0.8161682117272431,-2.4551894871454616,2.374389918727764,1.7873104983004195,nan
1740797091.139396,0.38081234110922263,-0.9024024946613571,2.8717267774558746,1.4116562057649717,nan
1740797091.143302,-0.042850322218686406,1.079059799529832,0.8810996680138998,0.6705858585026769,nan
1740797091.147208,-0.18033682889992986,1.6357266285362173,-1.4994155962511402,0.09649764027398751,nan
1740797091.1511137,-0.21266107161260997,0.6497167709785682,-1.6930786524180523,-0.3567862158148341,nan
1740797091.1550198,-0.4195288669345667,-0.46792783738164456,0.5452421595995688,-1.0896972794669901,nan
1740797091.1589282,-0.7145817205776899,-0.5354847880472383,2.6767736608312838,-2.009641967205802,nan
1740797091.162834,-0.7153724490494318,0.18198091005249334,2.0476843225341606,-2.2667036707163564,nan
1740797091.16674,-0.26667870561423634,0.5515808052727259,-1.103922295047188,-1.1423567425561314,nan
1740797091.1706457,0.2824966474137676,0.05522148307230808,-3.701003304423705,0.885296381296811,nan
1740797091.1745517,0.450872546921894,-0.6458281399251984,-3.0553660887845577,2.3224463594361464,nan
1740797091.1784577,0.20705621730990972,-0.6369567164114693,0.22098332157660233,2.1058081628832235,nan
1740797091.1823635,0.018587204192874292,0.07392629231688096,2.869096198240072,0.7180297698849384,nan
1740797091.1862695,0.2689831111178397,0.5851450230760086,2.491883264985221,-0.37565856331816044,nan
1740797091.1901753,0.7447295108189353,0.24713932717015058,0.005136089068360468,-0.3648340047352888,nan
1740797091.1940813,0.8408271080490222,-0.5247142715600099,-1.6402787225335678,0.11166160776955003,nan
1740797091.197987,0.26814361795486047,-0.7668083983702204,-0.8691940173935735,-0.0641114719897012,nan
1740797091.201893,-0.5760249236136894,-0.1496390207826192,0.9245818830079587,-0.979900384744214,nan
1740797091.2058012,-1.0227448482083485,0.6459376617946108,1.3051493301754107,-1.5339935773166904,nan
1740797091.209707,-0.8448915383066483,0.804589336874842,-0.20119573340020847,-0.8399751270262481,nan
1740797091.213613,-0.43304124508311315,0.3760762995980851,-1.6244628990682453,0.5594685439210904,nan
1740797091.217519,-0.25150126010129675,0.11470281404856379,-1.0730073690759772,1.232318160772576,nan
1740797091.2214248,-0.2554609795689811,0.36039586350996705,0.8706091711473302,0.5538221625297178,nan
1740797091.2253308,0.013454857551554414,0.4497845107080619,1.8067329217232049,-0.5106690939585107,nan
1740797091.2292366,0.7626745468972599,-0.4376315503245685,0.43991392302650323,-0.5440464463232855,nan
1740797091.2331426,1.5246272171252138,-1.939646001592987,-1.7649700812892015,0.594446915262606,nan
1740797091.2370486,1.527958714947996,-2.4615156608957065,-2.2151679089037306,1.5404742809317682,nan
1740797091.2409544,0.5076207365691892,-0.828960591356381,-0.21213287711128256,1.0098879986147855,nan
1740797091.2448604,-0.9217698369330977,2.0747154072758205,2.188060016578768,-0.6624220123549618,nan
1740797091.2487662,-1.7537348581843997,3.73203675684161,2.4770025238600186,-1.8455499935107431,nan
1740797091.252674,-1.461476811739072,2.3941397173989043,0.47225571787347786,-1.4148927695411004,nan
1740797091.25658,-0.4053470326288466,-0.955011828261597,-1.5994589745588759,0.05806743584241851,nan
1740797091.260486,0.5627062068378924,-3.31345250602656,-1.691067168288909,1.0404052030406616,nan
1740797091.264392,0.8472761676916836,-2.553521525727512,-0.13296617608633435,0.7474320889834188,nan
1740797091.2682977,0.5048106259197982,0.42825602780595995,1.0026049768716672,-0.15583715544645876,nan
1740797091.2722037,0.025113839619180144,2.597653310714115,0.4315714849898955,-0.526160319924175,nan
1740797091.2761097,-0.16898551222722671,1.8582303910318323,-0.946658415802151,-0.0839070700726646,nan
1740797091.2800155,-0.017344956917855394,-0.8590254637975294,-1.2891552727921545,0.44897185928017375,nan
1740797091.2839215,0.2549370727795665,-2.6473396569738967,-0.044980460350981986,0.39928470502703967,nan
1740797091.2878273,0.3919541064576435,-1.668157224642118,1.4661816684633504,-0.03499265525110246,nan
1740797091.2917333,0.2792890325817175,1.017157607263793,1.6615785778453174,-0.16689502215656274,nan
1740797091.2956393,-0.03885690459145539,2.6712586690481004,0.46385594663486485,0.1979409157992224,nan
1740797091.2995467,-0.41466173968579356,1.7509643912862047,-0.790052805884895,0.4860037666400461,nan
1740797091.3034527,-0.6566109728558982,-0.6256586536141335,-0.9888108979795874,0.11841897895675908,nan
1740797091.3073587,-0.6082793710419786,-2.028698984199837,-0.38725070230229525,-0.6901682499986065,nan
1740797091.3112645,-0.25310533440527544,-1.2782241892492943,-0.01735604758470861,-1.1174103768613783,nan
1740797091.3151705,0.23076002705791573,0.5197614194648479,-0.298113405659476,-0.6758812434704613,nan
1740797091.3190763,0.5582619404047193,1.3819023022075794,-0.6006017450120331,0.23425378280341103,nan
1740797091.3229823,0.5423183485201836,0.5874125934530547,-0.18304029722631787,0.7962391961587486,nan
1740797091.326888,0.24890484617124445,-0.7564692784534686,0.7843536234085121,0.6648759659875324,nan
1740797091.330794,-0.056021344609240166,-1.1301926232524417,1.3745309716049956,0.23132701630397884,nan
1740797091.3347,-0.14165406470892142,-0.26614205108678085,0.97438864311809,0.046505353351831195,nan
1740797091.3386059,-0.016606893422730046,0.7390646312833704,-0.06193776548377317,0.17639863581158052,nan
1740797091.342512,0.09786173300368944,0.7935407112689249,-0.8817024186093776,0.23717661762776204,nan
1740797091.3464193,0.004814521841389266,-0.0015789529653578885,-1.038820550563996,-0.03945127751579887,nan
1740797091.350325,-0.2566057970310731,-0.6178719798343557,-0.7531929409744965,-0.4626084128434879,nan
1740797091.354231,-0.4416283383982169,-0.35536322450050856,-0.39061015978159386,-0.6411084831678318,nan
1740797091.358137,-0.34450627794969113,0.4123001554101871,0.009077815912799003,-0.4511261743850118,nan
1740797091.362043,-0.007467591607919425,0.7691988478142989,0.552882400750709,-0.12585567982221804,nan
1740797091.365949,0.3182068277315505,0.3278876440729589,1.0453565958962614,0.07694798506386936,nan
1740797091.3698547,0.4106422116505147,-0.41148196319331226,1.0233104202288332,0.1569282721579316,nan
1740797091.3737607,0.26420693685502017,-0.7201345907128044,0.32087600979427533,0.2693872434750267,nan
1740797091.3776665,0.04665127793444452,-0.4452113644189879,-0.5844121259592883,0.4391883358630956,nan
1740797091.3815725,-0.09310829424755707,-0.039157573378127725,-0.981043079656288,0.49663389977804423,nan
1740797091.3854785,-0.1396525283866742,0.09279563786064439,-0.6594246794652112,0.30359762791980693,nan
1740797091.3893843,-0.1454883231185905,0.04962903190242187,-0.09036820164097278,-0.048847169657162785,nan
1740797091.3932915,-0.11271077828173309,0.16665591392923976,0.16805575203012701,-0.32663450575168,nan
1740797091.3971975,0.0014034566587142582,0.45377464120594174,0.0957397358865928,-0.3963168777388506,nan
1740797091.4011033,0.1655183758954188,0.5219255776880342,0.10619330636079695,-0.32120180891079825,nan
1740797091.4050093,0.22923077924739024,0.11418249148083433,0.3906650160125157,-0.2288151338646334,nan
1740797091.4089153,0.06319328726769716,-0.45625458533120555,0.5934136095153382,-0.15573395863369316,nan
1740797091.412821,-0.25414910168008564,-0.5821131943565511,0.27001459495450475,-0.05540058064353856,nan
1740797091.416727,-0.447496325140647,-0.08264742837468846,-0.44444137004995404,0.0924650896300433,nan
1740797091.4206328,-0.296554913333724,0.5049092218902311,-0.847099145750555,0.24276197651446133,nan
1740797091.4245389,0.11980693878292968,0.4795902986784778,-0.4333312002001988,0.3427899423727122,nan
1740797091.4284449,0.4650875251115557,-0.21419112104383553,0.46324370039820734,0.3670168312812421,nan
1740797091.4323506,0.4556832780990736,-0.8657879235646819,0.9470365071977215,0.28189450604015875,nan
1740797091.4362566,0.12809427173584573,-0.7498506841901643,0.49300635074278515,0.04609018814371396,nan
1740797091.4401636,-0.20923255871070406,0.07462672227424194,-0.4904374435508399,-0.28913472786659267,nan
1740797091.4440694,-0.279073957097453,0.8201793911663313,-1.079493872475547,-0.5152025742132502,nan
1740797091.4479754,-0.07954653724263716,0.8213490332052751,-0.7567223795240032,-0.4099034207506306,nan
1740797091.4518812,0.15462131487786065,0.22164202068311264,0.14409638980054132,-0.002805975981432589,nan
1740797091.4557872,0.19342541159673002,-0.259348464571669,0.8552733217767601,0.36240724129105567,nan
1740797091.4596932,0.001301771719520981,-0.17484153883591452,0.9096799332402513,0.3319635957387923,nan
1740797091.463599,-0.2711283415773723,0.1754792494463486,0.4324720124634171,-0.06801930189464445,nan
1740797091.467505,-0.42559573726986893,0.1701126158315821,-0.1551456243646893,-0.413729084498102,nan
1740797091.4714108,-0.34147265420746736,-0.3447551557231245,-0.5460470777201561,-0.31640622002508684,nan
1740797091.4753168,-0.02898342023055325,-0.8419708589587162,-0.6511103503964107,0.15096306560578396,nan
1740797091.4792228,0.3694277526677052,-0.7194531094976413,-0.47356028729253863,0.5235751945503632,nan
1740797091.4831285,0.6285042954916307,-0.004480433149892888,-0.06432240291967102,0.447182776215029,nan
1740797091.4870372,0.5640117403680892,0.6651826842911932,0.39165360929793674,0.04545850446784989,nan
1740797091.490943,0.18286925696124787,0.7457610111316126,0.5991249865863001,-0.2572351022979088,nan
1740797091.494849,-0.2802091590537235,0.3485578792845845,0.3953753315307215,-0.22760675422834467,nan
1740797091.4987547,-0.5249012241848157,0.02629478647722084,-0.04440414418668183,-0.04530965681241049,nan
1740797091.5026608,-0.4318657840055697,0.07963254851401083,-0.34338847266533185,-0.020780163601128495,nan
1740797091.5065665,-0.1558389310358654,0.22649457428986272,-0.30489907822524714,-0.1886062590280354,nan
1740797091.5104725,0.04025345694943697,0.0134207093886596,-0.10063349370003215,-0.2819543831924718,nan
1740797091.5143785,0.04410522090102977,-0.5520489549642379,-0.024578877124030202,-0.09758527308364712,nan
1740797091.5182843,-0.024103418876177892,-0.9304359453042668,-0.10665937821693466,0.2245554575554793,nan
1740797091.5221903,0.018403396328078473,-0.6476744940186956,-0.07829523469424297,0.3600043932488241,nan
1740797091.526096,0.1967880046651221,0.13266547844987678,0.24206124302489532,0.1915842832745217,nan
1740797091.530002,0.3514622553339327,0.7368576633014853,0.6206536615941854,-0.05671332511230962,nan
1740797091.5339105,0.3169976177759652,0.6777573928653688,0.5902869576258776,-0.10239977820683471,nan
1740797091.5378163,0.09484668977834634,0.14446103921656595,-0.010170897356382057,0.0563332186629515,nan
1740797091.5417223,-0.1600514146505972,-0.24350155855544395,-0.7598498926455999,0.1614559448812582,nan
1740797091.545628,-0.2948687140216401,-0.11684951241617612,-1.009547323764899,0.0334614456490557,nan
1740797091.549534,-0.274532293229592,0.2831143371251486,-0.5211896813231872,-0.2035963490394639,nan
1740797091.55344,-0.16172051188150005,0.42004337381663637,0.29191760149659124,-0.2829330982619964,nan
1740797091.5573459,-0.032494742758477344,0.05893280743710137,0.778548341777951,-0.12723865985392255,nan
1740797091.5612519,0.06448666635781594,-0.5060694123831926,0.6623788032360961,0.06447916449527613,nan
1740797091.5651577,0.0987674162425746,-0.7806499249517161,0.21647295108678935,0.07347450971838464,nan
1740797091.5690637,0.06252596985174014,-0.5498914444639869,-0.1179293027262632,-0.06641305734944909,nan
1740797091.5729697,-0.001884851395668613,-0.020797517094443076,-0.18670809938318983,-0.11614735573834079,nan
1740797091.5768754,-0.015131345222396021,0.43214144997959947,-0.16333374717874946,0.06601340658027025,nan
1740797091.5807836,0.06140181736204534,0.5863564215957316,-0.21849144512508814,0.33651327223932614,nan
1740797091.5846896,0.16674208125088222,0.461873027141983,-0.2765567270698438,0.41367229006520073,nan
1740797091.5885954,0.19120201333696718,0.20250239627247024,-0.14983986118076706,0.1826640171386663,nan
1740797091.5925014,0.0959660805318048,-0.05435448696605103,0.1537352810096896,-0.1852574132612058,nan
1740797091.5964072,-0.043055789826727454,-0.21769181015301547,0.36392208609642246,-0.4097140713051462,nan
1740797091.6003132,-0.12991508169067875,-0.24619860904263752,0.23027431344812924,-0.35969369057336337,nan
1740797091.6042192,-0.16412158791635134,-0.16801013783087015,-0.1702029131423281,-0.1314946707379847,nan
1740797091.608125,-0.21925538180824106,-0.0753559043694644,-0.4648963256706666,0.08379383490534256,nan
1740797091.612031,-0.30218426407478394,-0.050750179911023784,-0.3410768158892573,0.1668647532249075,nan
1740797091.6159368,-0.285541589221796,-0.08593833401978314,0.1445056441199999,0.12223087930296817,nan
1740797091.6198428,-0.03830669033706647,-0.09529195106084919,0.6117116036623204,0.027425530016585487,nan
1740797091.6237488,0.37388113133560735,-0.017423505614641246,0.6936847067452451,-0.03209912873751046,nan
1740797091.6276565,0.6714334891005679,0.11637349761162395,0.33020311858869067,-0.005051915224447353,nan
1740797091.6315625,0.5939892010573024,0.2241018995208088,-0.22638420342402704,0.0936203374692355,nan
1740797091.6354682,0.1569242681604446,0.25599781768193924,-0.640031212574744,0.17540069516744236,nan
1740797091.6393743,-0.3452130094054527,0.20790366816962433,-0.7216241532188232,0.13685198887347905,nan
1740797091.6432803,-0.5964465258561428,0.07671183071681736,-0.49615584760324455,-0.036320653265468086,nan
1740797091.647186,-0.5093815914556504,-0.13342297552234705,-0.11958513855959431,-0.22547867742303923,nan
1740797091.651092,-0.23086513992477412,-0.33675501993332996,0.2428937464623705,-0.27090811856170505,nan
1740797091.6549978,0.047803014864322806,-0.36195891249861667,0.48987556243489094,-0.12752800357603294,nan
1740797091.6589038,0.2374192794891068,-0.11486522319158184,0.588469947847048,0.0800425478152915,nan
1740797091.6628096,0.32691618447290877,0.24175646724120647,0.5369347073068299,0.17404513817601822,nan
1740797091.6667156,0.2973579663921432,0.3620332471619337,0.331875725979377,0.09536193525964852,nan
1740797091.6706216,0.1319706667344586,0.06693714816002867,-0.017487687236809813,-0.049284174701449024,nan
1740797091.674529,-0.09775618531810903,-0.38801046527007566,-0.4321871100085079,-0.10707665732444917,nan
1740797091.678435,-0.23113707051173343,-0.49757993375476195,-0.7351912404982067,-0.0299692395987383,nan
1740797091.682341,-0.16160151607971926,-0.03630594227952865,-0.7295136935184942,0.09717007518185958,nan
1740797091.6862469,0.03085219301889693,0.6300639458227117,-0.35860095950615534,0.15847826623913544,nan
1740797091.690153,0.14152224723366544,0.8556110105296298,0.195817842051985,0.11532415450388717,nan
1740797091.6940587,0.05794711929343446,0.3741140936561925,0.6082688989412957,0.018189198280886002,nan
1740797091.6979647,-0.11143926771622208,-0.4030105708437013,0.649196061856403,-0.06118404729757731,nan
1740797091.7018707,-0.15751935265379102,-0.801643622621439,0.3583843338186576,-0.09156784865540007,nan
1740797091.7057765,-0.011928662739045744,-0.5699701782611954,-0.01396511822341093,-0.08852463214416738,nan
1740797091.7096825,0.1676352043287572,-0.07851584922856264,-0.23578612199021845,-0.08321276361823768,nan
1740797091.7135882,0.17080262646757252,0.16268872895254413,-0.2614677305331958,-0.09084522245318782,nan
1740797091.7174942,-0.027798547355603193,0.08057715313718315,-0.1926136547664978,-0.09597681796525973,nan
1740797091.7214017,-0.23325279242515487,0.03481845668468072,-0.11861758897573343,-0.06089301676986109,nan
1740797091.7253075,-0.23349401593453814,0.2776897014514874,-0.037627310628683075,0.038650140558255705,nan
1740797091.7292135,-0.015840884772201757,0.5760810981392297,0.07215612540763004,0.17084577652877556,nan
1740797091.7331195,0.22857214111153665,0.4839087631164276,0.16013491697678245,0.24909509488985448,nan
1740797091.7370253,0.2987714530322124,-0.06560716915743539,0.13534886617579722,0.20203554377679483,nan
1740797091.7409313,0.16394400889287403,-0.5979706851390192,-0.010987618025646904,0.05430961398595598,nan
1740797091.744837,-0.039047560763020524,-0.6056837237673951,-0.1612541781583806,-0.08068569399121053,nan
1740797091.748743,-0.15555845719919348,-0.13764291759274658,-0.18279797915218476,-0.11255770515531502,nan
1740797091.7526488,-0.14459878003929058,0.24807182583010384,-0.06865611243623441,-0.07461922449886227,nan
1740797091.7565548,-0.07963677161545828,0.13545587821541735,0.06648929533341577,-0.08495979570359714,nan
1740797091.7604609,-0.04985716555675884,-0.25924597060577537,0.12925705762268214,-0.19322151377797417,nan
1740797091.7643666,-0.0718656141546302,-0.3473952577084095,0.14375077616923368,-0.2902933867345322,nan
1740797091.768274,-0.08675258971970111,0.11904689039654259,0.17605918916511398,-0.2085045896450345,nan
1740797091.7721798,-0.030777438508094255,0.7186980589508492,0.19593771514283234,0.07989193439234084,nan
1740797091.7760859,0.09146589862651369,0.8063651391720359,0.08499187548119198,0.3925755505439765,nan
1740797091.7799916,0.20013777260683055,0.22404610411234557,-0.1850208732556924,0.4934327494138046,nan
1740797091.7838976,0.2102619654511142,-0.5250487730912242,-0.4308923124916315,0.31640680314130176,nan
1740797091.7878034,0.1151363513151111,-0.809859869534362,-0.39828726813822574,0.015644057594761725,nan
1740797091.7917094,-0.00486650495659115,-0.49270271236870516,-0.05546365637352322,-0.2029468169360936,nan
1740797091.7956154,-0.0670836451298533,0.022234488550942132,0.30329671579170403,-0.2693134312806781,nan
1740797091.7995212,-0.07558858281982588,0.2815639035914852,0.32349691932797753,-0.25430576957465234,nan
1740797091.8034272,-0.10420530421684308,0.21208067394661004,-0.01827910270911533,-0.22364955025956715,nan
1740797091.807333,-0.18200464397881289,0.05812179628739302,-0.3367759425853665,-0.1482586718707353,nan
1740797091.811239,-0.22420002705479453,0.019285804565687313,-0.21345283874433152,0.01662566519454018,nan
1740797091.815146,-0.12012840318789766,0.06751126209833422,0.33621574735484866,0.2061448654886895,nan
1740797091.819052,0.10525082945920972,0.09553658168068813,0.8084671130880584,0.2666700130738687,nan
1740797091.8229578,0.2671738196258521,0.10494016934739912,0.6715581687618236,0.1265434848935185,nan
1740797091.8268638,0.20956413554899778,0.15463548983217135,-0.09739732437056492,-0.08787850712659787,nan
1740797091.8307698,0.007306639005747573,0.18325232178614778,-0.9381457880768146,-0.1542757360978916,nan
1740797091.8346756,-0.08517419565073678,0.021433430055150717,-1.1838550199210247,0.014445541177928782,nan
1740797091.8385816,0.07041750304708459,-0.3600849846970423,-0.6399092727077408,0.2612009010437549,nan
1740797091.8424873,0.29041371137911026,-0.6915422542650399,0.26721166012941105,0.32580191638379324,nan
1740797091.8463933,0.23871169058708033,-0.6085369501063878,0.8774026471272094,0.09593744991629163,nan
1740797091.8502991,-0.17117001761028777,-0.04859156136215347,0.838814626815824,-0.2825440726738715,nan
1740797091.8542051,-0.6050318960326757,0.6131756090598344,0.3306665437798261,-0.5321258645195209,nan
1740797091.8581111,-0.6183444997435259,0.8820930911843433,-0.17092255074970353,-0.4714829147933084,nan
1740797091.8620195,-0.14347856062423373,0.5965937721726002,-0.3203041783419094,-0.14175968851542656,nan
1740797091.8659256,0.4007936808356507,0.041513399703525695,-0.1454613253046865,0.24610060608217846,nan
1740797091.8698316,0.5368209015917271,-0.3690139043728747,0.05698673143778035,0.4669168945854008,nan
1740797091.8737373,0.2326730748250846,-0.4673476985709722,0.03318569874868595,0.41936466396403316,nan
1740797091.8776433,-0.0895052137553186,-0.3815766753765607,-0.19667036699086562,0.17391699671615946,nan
1740797091.8815491,-0.05627521629436993,-0.2825369637213042,-0.3764923721853891,-0.08454030187909428,nan
1740797091.8854551,0.22355071649167452,-0.17610745727306687,-0.27368504355387785,-0.1891466582526513,nan
1740797091.8893611,0.300933184408712,0.030428771842019187,0.07930502626205792,-0.11656155786146599,nan
1740797091.893267,-0.06082677048420438,0.32252788167251023,0.391668483106612,-0.0002605725399420832,nan
1740797091.897173,-0.5714020929566126,0.5193563733148784,0.38109565161840286,0.0005606013194195176,nan
1740797091.9010787,-0.7092427319017306,0.43944792892431334,0.058300523660914476,-0.13346523217232437,nan
1740797091.9049847,-0.2913275857223563,0.09350395763864247,-0.25908313873860644,-0.25281219892737294,nan
1740797091.908893,0.3281997903901324,-0.307127012522094,-0.24635616619822023,-0.19327678735864648,nan
1740797091.9127991,0.6354348192988584,-0.517140098057458,0.09526180249349926,0.04103182120585139,nan
1740797091.916705,0.46374078626312215,-0.42440109701784257,0.4180298295097855,0.26764415365690597,nan
1740797091.920611,0.08085874770489966,-0.0946919860695195,0.36572781595214066,0.30685929210209434,nan
1740797091.924517,-0.170513030495656,0.28547565474402825,-0.060878068722387414,0.15723833896683423,nan
1740797091.9284227,-0.212435977526751,0.5008256870793456,-0.49153437322932936,-0.02402705307832033,nan
1740797091.9323287,-0.1885159316547387,0.4123198859764349,-0.5496362596561615,-0.09939804441171138,nan
1740797091.9362345,-0.18373414173997865,0.05624596277926051,-0.2179432311368758,-0.0758562853967901,nan
1740797091.9401405,-0.11256682952568829,-0.34247547347706153,0.16929925529806686,-0.047084295698553505,nan
1740797091.9440463,0.09840569832709642,-0.5117601540994217,0.28453464057053934,-0.05346834733560844,nan
1740797091.9479523,0.3205331423530943,-0.34995669265292734,0.12510326701798402,-0.04727022599664949,nan
1740797091.9518583,0.31846648941123396,-0.014316442278111562,-0.03488688521203291,0.006620420502283239,nan
1740797091.9557664,0.033438017438087796,0.2319349178711085,0.025106128158545588,0.05086700073543463,nan
1740797091.9596722,-0.3070171028946901,0.2698330799190757,0.23684226436133254,0.002051025470417286,nan
1740797091.9635782,-0.40906938428355827,0.2042996479568447,0.34385217823956127,-0.11848470338251024,nan
1740797091.967484,-0.21126367149817268,0.1903185902569537,0.19356642688964634,-0.17476328362717716,nan
1740797091.97139,0.0809774109034991,0.21991314152843225,-0.11252761598963111,-0.06533731549306705,nan
1740797091.975296,0.24028812541305827,0.13411743714848776,-0.3491763817532163,0.14410308535663566,nan
1740797091.9792018,0.23347061784791753,-0.14930717668695936,-0.3954936695525475,0.27697998964370313,nan
1740797091.9831078,0.17513317425160915,-0.47455025748042595,-0.30398905093506784,0.23388822474451282,nan
1740797091.9870136,0.1315595152571795,-0.5684125944444761,-0.17646904433150343,0.0880960816773747,nan
1740797091.9909196,0.05102977171142761,-0.32231653092827606,-0.03677163745071433,-0.022872714728772107,nan
1740797091.9948256,-0.10920208109076553,0.08572429938309278,0.14539756750108263,-0.06590618124798939,nan
1740797091.9987314,-0.2647474800999505,0.3691890912732037,0.3423648977646025,-0.12524168099491417,nan
1740797092.0026393,-0.27746117207691945,0.40500885892138655,0.44150838919061014,-0.2489013074560674,nan
1740797092.006545,-0.12884021835667733,0.298060768638038,0.35291992029491487,-0.3386327165887113,nan
1740797092.010451,0.043785769492678484,0.19791259694874444,0.11799837142553429,-0.24341678288090599,nan
1740797092.014357,0.10597782939656658,0.1171517964074074,-0.12006050150832122,0.04565114128065944,nan
1740797092.0182629,0.07670759770201334,-0.030580698348818106,-0.25099572906900813,0.34261021929354724,nan
1740797092.0221689,0.07663173306151516,-0.25006359275093626,-0.2788862467131538,0.43558087811646673,nan
1740797092.0260746,0.14765661179391848,-0.3990552886802534,-0.266801451374973,0.28917484760400497,nan
1740797092.0299807,0.18731128058273916,-0.3387973100991416,-0.23326396193343465,0.0535790613201067,nan
1740797092.0338867,0.0879587202251794,-0.11391204436414239,-0.13850247161572538,-0.11164777701847534,nan
1740797092.0377924,-0.10297540586748648,0.07539947782833357,0.02977301547941588,-0.1791855567386454,nan
1740797092.0416985,-0.21778764418037788,0.09287992879880484,0.19636322221787852,-0.2099190880716125,nan
1740797092.0456042,-0.16171780901616417,0.01881956216860455,0.25784363297150137,-0.21851163963200412,nan
1740797092.049512,-0.02134100042730984,0.04736880009840031,0.19784008632291897,-0.14639427198484975,nan
1740797092.053418,0.04691437284638543,0.2423586755243734,0.11322946672048072,0.024357773053694944,nan
1740797092.0573237,0.003144012299721399,0.43707839973928353,0.10570187796289908,0.18723399938275395,nan
1740797092.0612297,-0.048182008184172634,0.40046210739447147,0.15655942530135988,0.19820396671106855,nan
1740797092.0651355,-0.010958772514905324,0.08755662144352848,0.13345665466023288,0.04524926438735801,nan
1740797092.0690415,0.07691704805033799,-0.30147251734740144,-0.0643401547239963,-0.1144259614636269,nan
1740797092.0729475,0.10462849430214699,-0.5131288746847282,-0.37107382344759676,-0.11541112209277804,nan
1740797092.0768533,0.04363257268301568,-0.470351701609773,-0.5759658524550392,0.03549292032978149,nan
1740797092.0807593,-0.015374317049197807,-0.30084722359241844,-0.49179976416627186,0.17080662146375136,nan
1740797092.084665,0.00912084072073823,-0.1562544157021562,-0.11879175300382469,0.15198591417681429,nan
1740797092.088571,0.07235343669790482,-0.038252265739071326,0.3399634119215857,0.014865705748636745,nan
1740797092.092477,0.058652717855869556,0.17288955264805095,0.6194500058154847,-0.09138405952693196,nan
1740797092.0963845,-0.0606291289984723,0.5200884204654066,0.5718745498151447,-0.0856061278174681,nan
1740797092.1002903,-0.17487726789128274,0.8246512948118963,0.252476300276236,-0.0364401203844764,nan
1740797092.1041963,-0.15998009937084018,0.7785852040546075,-0.13338617952090426,-0.05718769826931442,nan
1740797092.108102,-0.025176203283611014,0.22752233539339867,-0.36881257380001053,-0.15186281232638454,nan
1740797092.112008,0.09983328409169975,-0.6074746702790963,-0.35439271899516545,-0.19874920270146487,nan
1740797092.115914,0.11310715132098413,-1.206808875086475,-0.15409756424542304,-0.08752862572364133,nan
1740797092.1198199,0.037791386487093986,-1.1231158009497821,0.0609106817440893,0.14840986453406105,nan
1740797092.123726,-0.034094212354245805,-0.36321942806564855,0.13316954094381953,0.34661918637770733,nan
1740797092.1276317,-0.05295870262927342,0.5625675613314205,0.029751336285918157,0.3551318674653318,nan
1740797092.1315377,-0.032114121855963025,1.0160991322908892,-0.13285919405964933,0.15775722242009813,nan
1740797092.1354437,0.016610732918930424,0.7439616238821821,-0.17869232563060275,-0.11794462764288152,nan
1740797092.1393495,0.10428761809586541,0.07714247952763582,-0.023725347434738118,-0.29784204248196705,nan
1740797092.1432567,0.1993296564201027,-0.380642838156747,0.22955989981447592,-0.2808336301027523,nan
1740797092.1471627,0.19282878553463742,-0.30287379794912006,0.3540053901259917,-0.10418417715755914,nan
1740797092.1510684,0.00021487458461756908,0.08708124786380021,0.19522718677469098,0.08346907817488156,nan
1740797092.1549745,-0.29364141141401734,0.2807779421171342,-0.15623717902483206,0.13258729591862248,nan
1740797092.1588805,-0.45140866236919713,0.01882018789524652,-0.3989390107280959,0.017703711268468376,nan
1740797092.1627862,-0.3032210559423278,-0.4455063232684968,-0.2770112774270349,-0.13033651256606008,nan
1740797092.1666923,0.05543666766667316,-0.6159447446857442,0.15391453285876458,-0.13799085399377817,nan
1740797092.170598,0.33243676510219605,-0.2701732885416066,0.524647714566923,0.03768928148408673,nan
1740797092.174504,0.3273445067807842,0.3111433307012049,0.46614557918966365,0.24974549874711807,nan
1740797092.17841,0.12587614134537914,0.6279587001781245,-0.033092730253269115,0.29681843196530755,nan
1740797092.1823158,-0.019250095450233116,0.4485003891851998,-0.5853487543265965,0.12725587471297822,nan
1740797092.1862218,0.019054480659927417,0.0014239182287218858,-0.7481322695624224,-0.10634182270413137,nan
1740797092.1901288,0.11524300317294472,-0.29282483665464903,-0.4255220523552792,-0.20806531254814145,nan
1740797092.1940346,0.06700705822209484,-0.2386731460472477,0.07986592965298174,-0.13959427130170518,nan
1740797092.1979406,-0.14708047872376862,-0.003169125933317864,0.406574447225971,-0.03690867008767493,nan
1740797092.2018464,-0.3347125981358606,0.1189521310870476,0.4819895262917946,-0.03203210654698041,nan
1740797092.2057524,-0.30977517537754695,0.02039127618675762,0.4931153356741984,-0.09719576339833244,nan
1740797092.2096584,-0.09711297694865115,-0.14969578087170765,0.5440499224435403,-0.09627333472432362,nan
1740797092.2135642,0.10975389673565132,-0.18585715175094727,0.4501854097491596,0.0280081523934049,nan
1740797092.2174702,0.167808575475575,-0.04442269358243756,-0.03305163695257899,0.1691070366031556,nan
1740797092.221376,0.11722303290670057,0.13982246002612522,-0.7937392157304164,0.18239195337867084,nan
1740797092.225282,0.0934441791972448,0.21100706588772108,-1.2965277993410387,0.06474476334915082,nan
1740797092.229188,0.15055002717582008,0.1327542240303019,-1.045144330435893,-0.03848059240494331,nan
1740797092.2330937,0.20683308869601968,-0.012051699006070057,-0.12084322651601988,-0.011401228796167786,nan
1740797092.2370024,0.15258255971344883,-0.11757253105027626,0.8161645445128528,0.08866915432820559,nan
1740797092.2409081,-0.024853660251494797,-0.13264140499672367,1.1202562225381232,0.1003666859170819,nan
1740797092.2448142,-0.23104839000204225,-0.07038754204254796,0.7408040423765863,-0.042811208496807744,nan
1740797092.24872,-0.3500799832398553,0.019071426092564785,0.18018119564818555,-0.22482149563302323,nan
1740797092.252626,-0.32112873412372633,0.0777352101769385,-0.09055449736751266,-0.2735154900400343,nan
1740797092.256532,-0.15633412322199447,0.06992882655445994,-0.08588353835004779,-0.14656726335888418,nan
1740797092.2604377,0.07211588997389355,0.010971454390511616,-0.14754412837232225,0.03803932089258984,nan
1740797092.2643437,0.25424945802601595,-0.03700745144021507,-0.4278632146291735,0.14381785317181311,nan
1740797092.2682495,0.2935206345440497,-0.019970513259104615,-0.6702520812937052,0.14756139390664622,nan
1740797092.2721555,0.1810171586146266,0.046924858491407456,-0.54106603934858,0.1180926615044157,nan
1740797092.2760615,0.02003854605303763,0.08460857496369771,-0.0730341890568696,0.10308953240338052,nan
1740797092.2799673,-0.05639150962459862,0.03039697245462284,0.34741343061798124,0.08294353096356728,nan
1740797092.2838757,-0.013248017268236064,-0.08936958228643196,0.43051199443996024,0.03245115800963909,nan
1740797092.2877815,0.05286898873620863,-0.17844512602845386,0.29705635242321454,-0.02293164276506398,nan
1740797092.2916875,0.02390849062970823,-0.16328396726981076,0.26075559453566804,-0.04688738756151651,nan
1740797092.2955933,-0.104762800950105,-0.055831582560868676,0.3724069187398434,-0.062388056846048943,nan
1740797092.2994993,-0.22014414260862397,0.07707683920439311,0.3361065582557263,-0.12833245592968356,nan
1740797092.3034053,-0.2190496551641406,0.18540443911020388,-0.06877457653376058,-0.23280464555087768,nan
1740797092.307311,-0.11175044124849817,0.25332156425191116,-0.6027212548634601,-0.25590900834767694,nan
1740797092.311217,0.013981724921680663,0.2536678535601991,-0.7590618008808682,-0.09108281238923685,nan
1740797092.3151228,0.10288852577549697,0.13083707060149033,-0.35515061737750736,0.19883682948571507,nan
1740797092.3190289,0.1671835837884679,-0.12695145297703048,0.20370886313256104,0.3965005117575023,nan
1740797092.3229349,0.21701462207405317,-0.40168283043516145,0.36110278254782263,0.3369796041583162,nan
1740797092.3268406,0.20862357579114665,-0.48463988392231155,0.058457552341474275,0.08551469800627824,nan
1740797092.3307488,0.10178196222970108,-0.25756696022308556,-0.19780988424934554,-0.1260691846276058,nan
1740797092.3346548,-0.05306152715809965,0.15392361310125055,0.032358501639321816,-0.14355465985779786,nan
1740797092.3385608,-0.14162604265475146,0.44476079095770715,0.5432279562478481,-0.039651927332661895,nan
1740797092.3424666,-0.11904417674103294,0.393159686578706,0.6858843662891566,-0.0023430416188368855,nan
1740797092.3463726,-0.07468787378986232,0.07395363560790491,0.15126963488123882,-0.1034869204324545,nan
1740797092.3502784,-0.11849626743068793,-0.2064820265810003,-0.6004944543137942,-0.22316653070497308,nan
1740797092.3541844,-0.21771179481514272,-0.20674495212472968,-0.8159717838744766,-0.2069465423250726,nan
1740797092.3580904,-0.20831608848669683,0.017929239659623248,-0.3037184009881365,-0.051190875273258676,nan
1740797092.3619962,0.0008928319346582684,0.18982525551526142,0.3387664953989986,0.10803580279811802,nan
1740797092.3659022,0.27764246462460646,0.11204825286831896,0.41394981531719033,0.17059193520819269,nan
1740797092.369808,0.3810096346164795,-0.12177780974148872,-0.06987647686394712,0.17745330733650594,nan
1740797092.373714,0.2302033874655251,-0.2385162133010212,-0.42774869409528843,0.21447749621294682,nan
1740797092.377622,0.002477024140025729,-0.09961604793777011,-0.13324343620970266,0.2547662384941307,nan
1740797092.3815277,-0.07506907782755294,0.126633420271147,0.5276318683582631,0.16576075485546082,nan
1740797092.3854337,0.004366948752674376,0.13847829114653593,0.7661089290050372,-0.10668766718037585,nan
1740797092.3893394,0.03102995564854507,-0.14787658214694024,0.21401763529393159,-0.4086529685714418,nan
1740797092.3932455,-0.1396204817471465,-0.4476532553233488,-0.6140958635088899,-0.49144900013758,nan
1740797092.3971515,-0.3753754079113407,-0.35308440920314527,-0.8641649498396033,-0.26603098606033565,nan
