timestamps,TP9,AF7,AF8,TP10,Right AUX
1740797248.7487118,-0.07277740909893246,0.03957636000128368,0.9163888700822728,0.029157799116461873,nan
1740797248.7526178,-0.24716612017587622,-0.02585250890423474,1.1251384709258785,-0.23455767689326815,nan
1740797248.7565238,-0.2483631594618813,-0.205240511256294,0.673625063755229,-0.3232928169012487,nan
1740797248.7604296,-0.02784498521167926,-0.3426286833730579,-0.21524278409786446,-0.1349853694967799,nan
1740797248.7643356,0.1961466833283357,-0.22247729772447805,-0.9309753286733672,0.13841341180727162,nan
1740797248.7682416,0.19306365995599592,0.1346763765522379,-0.9438504607724663,0.23219116710782878,nan
1740797248.7721474,0.007363675063364565,0.425617578765295,-0.29859947629361966,0.10860135677135646,nan
1740797248.7760534,-0.09858691422585186,0.3746483125735901,0.4014784514503199,-0.03183586701530923,nan
1740797248.7799594,0.01733936706681002,0.0466428259718893,0.5663337889143074,-0.024328309959865506,nan
1740797248.7838652,0.1920700106002684,-0.22218654229024312,0.17682692731261138,0.062428691285714426,nan
1740797248.7877712,0.1682561120254462,-0.2008835225322647,-0.25618892791179365,0.05071499741438958,nan
1740797248.7916772,-0.06865116567428031,0.0008996461360220951,-0.2682819066280583,-0.08369136397145,nan
1740797248.7955852,-0.26271597052495743,0.10302784203533609,0.08938162496207193,-0.17066845238894165,nan
1740797248.7994912,-0.2051122277547866,-0.0045748780170318535,0.3772520301820914,-0.08008383733069649,nan
1740797248.8033972,0.012197517703472395,-0.1665381336965124,0.28933631686901573,0.08995782359904185,nan
1740797248.807303,0.12754489737024055,-0.18699406842900837,-0.044569485028876824,0.13264191078375584,nan
1740797248.811209,0.04459873143491833,-0.05625376354670244,-0.2740626512995417,0.005788363700364403,nan
1740797248.815115,-0.06623971536115927,0.08832917194772275,-0.24028900909846293,-0.10905219554577374,nan
1740797248.8190207,-0.019450990812100697,0.15609106402730075,-0.09054865997686448,-0.04901277060805429,nan
1740797248.8229268,0.1277232160286295,0.16704594833549172,-0.023528244561624216,0.10591518430005976,nan
1740797248.8268328,0.1566987908209101,0.14091120706476026,-0.03982147551992543,0.13305951414036074,nan
1740797248.8307388,-0.005747439078723247,0.03629266044848112,-0.00225107912459992,-0.030575408157286234,nan
1740797248.8346446,-0.17240523409874242,-0.13717661393487826,0.12643064420850372,-0.18527393231942837,nan
1740797248.8385506,-0.13299098448779184,-0.22549704185678437,0.21427617046972666,-0.11650498500360484,nan
1740797248.84246,0.06763366732982772,-0.07643640590302916,0.14474260605886452,0.1179612458075087,nan
1740797248.846366,0.18072265934451742,0.20926119695909184,-0.012961567203101442,0.24069307522041258,nan
1740797248.850272,0.07059688366522332,0.2970392149748364,-0.0877917867455129,0.09512266753914457,nan
1740797248.8541777,-0.11733076917585315,-0.0061933241429208315,-0.03134101910399831,-0.15481390976070536,nan
1740797248.8580837,-0.15407551627938165,-0.4445088178997614,0.02336687740739025,-0.2238945135155742,nan
1740797248.8619897,-0.02372411690834804,-0.5213400855142369,-0.04994451601586428,-0.05507545505461351,nan
1740797248.8658955,0.07331427483254865,-0.06862903317549988,-0.18873977148905163,0.12135800037262302,nan
1740797248.8698015,0.006254873763710556,0.49216792645871466,-0.21250377823206457,0.088684293469357,nan
1740797248.8737075,-0.10328368332459342,0.5775171736548164,-0.0559044236208747,-0.08283063652968052,nan
1740797248.8776135,-0.053240472836805525,0.11170234104844715,0.14313786351907654,-0.13594005397730718,nan
1740797248.8815193,0.14357726527296494,-0.3609412087143809,0.21515261601109215,0.03504080069100877,nan
1740797248.8854253,0.24856491539836303,-0.2991896003935808,0.16035362211789878,0.24189630663747408,nan
1740797248.8893344,0.1034283199285917,0.19243050352022378,0.11283907539416546,0.23281843917030173,nan
1740797248.8932405,-0.14649124875968184,0.4786506508400908,0.12415043794915143,-0.0014215986581901435,nan
1740797248.8971465,-0.21886541219196748,0.14994690651106593,0.0740816019240827,-0.22454857945725665,nan
1740797248.9010522,-0.04886801309001983,-0.47728058566958104,-0.14767394312750762,-0.23890719760082346,nan
1740797248.9049582,0.12771581110120991,-0.719201865466954,-0.42122740438716416,-0.09054481176305064,nan
1740797248.9088643,0.07787136286403103,-0.3145732494311266,-0.4584962466034886,0.037701106293221195,nan
1740797248.9127703,-0.1275620178365156,0.29350115384923253,-0.12699323646357158,0.0660945031617591,nan
1740797248.916676,-0.20643946125984175,0.49864764059953165,0.3405516790563255,0.06958535958071412,nan
1740797248.920582,-0.033261953598711876,0.2213184231157055,0.5352691451379721,0.10912236426105695,nan
1740797248.924488,0.19507138428227624,-0.07181213081544828,0.2875761275618974,0.11528267559474706,nan
1740797248.9283938,0.2111665268720068,0.007010165480798321,-0.1456520767927135,0.0023669923104169344,nan
1740797248.9322999,0.018454840931332823,0.29556927012046375,-0.33955199558682114,-0.15697955655112888,nan
1740797248.936209,-0.12169216137187083,0.32670123245633653,-0.13334830002843134,-0.1738469544475532,nan
1740797248.9401147,-0.03693573021432015,-0.05625878458204497,0.22027906756597887,0.015746162401897305,nan
1740797248.9440207,0.13116627380606977,-0.4933218649907952,0.32973247209016493,0.22628671325520144,nan
1740797248.9479268,0.11886434594435229,-0.5450616118480617,0.059340732094317894,0.210753272558835,nan
1740797248.9518325,-0.10367409989764051,-0.20669826224162904,-0.3530483056275484,-0.045572966688422076,nan
1740797248.9557385,-0.2795754288990219,0.1256440989236527,-0.538638834668584,-0.2899063814984336,nan
1740797248.9596446,-0.18733428899578353,0.153204574213061,-0.33225669333939395,-0.28054923116890407,nan
1740797248.9635503,0.07854187963478494,8.600507757146358e-05,0.10947926625293261,-0.04641621810641125,nan
1740797248.9674563,0.22766117080555776,-0.005122997622714702,0.46900073648796897,0.1752500250528135,nan
1740797248.9713624,0.13227495531797007,0.2304226518422673,0.5263015088646764,0.22092246711663527,nan
1740797248.9752684,-0.0391577668594318,0.4578496714595295,0.2984757821139463,0.14507506904267797,nan
1740797248.9791741,-0.06936434812131954,0.4045399622683396,-0.017909888730122808,0.07924848229463682,nan
1740797248.983083,0.02433152014621772,0.08489326837560603,-0.22288435533516104,0.036573482765811405,nan
1740797248.986989,0.0474218867293816,-0.25703523199702877,-0.2589256579446118,-0.06464165115525493,nan
1740797248.9908948,-0.06759208984900042,-0.4350785946054195,-0.2155077972334655,-0.215239358301008,nan
1740797248.9948008,-0.1425306574956249,-0.4532710871467902,-0.19942514912253062,-0.2625501510704598,nan
1740797248.9987068,-0.0010401837038291812,-0.37624153534686144,-0.20197931925252033,-0.09912720840737828,nan
1740797249.0026128,0.24591042423578002,-0.19544354437093353,-0.10954941980392086,0.15496334249061958,nan
1740797249.0065186,0.2845718990024811,0.10109779202599478,0.1383984450177198,0.2507033374743164,nan
1740797249.0104246,-0.014778251512634967,0.394250639988361,0.41771491712945574,0.1004164271490594,nan
1740797249.0143306,-0.3930369495781797,0.4898192687906574,0.4919027281757759,-0.10496541100464934,nan
1740797249.0182364,-0.46349149587853306,0.33521720324899235,0.24852743623542148,-0.11954323216733792,nan
1740797249.0221424,-0.14360341741444496,0.09962157058223144,-0.15174173616906236,0.059148258721339844,nan
1740797249.0260484,0.2592578013704528,-0.02216064742293962,-0.4029062536120401,0.19040435727114777,nan
1740797249.029957,0.4014942493358386,-0.038408907406667976,-0.3451087469856327,0.09108515396067102,nan
1740797249.033863,0.25826375003399304,-0.11099943823888402,-0.10606935433826709,-0.14019564158586,nan
1740797249.037769,0.06932740304979831,-0.28884480339864704,0.06335635818662774,-0.250910677586258,nan
1740797249.0416749,-0.0036363154483976096,-0.3976519752247312,0.0648838247159341,-0.14111654143866192,nan
1740797249.0455809,-0.04488111403499417,-0.26255484489183306,0.019749741079798898,0.04021911496255161,nan
1740797249.0494869,-0.18467588693020695,0.025465436286520333,0.06696517375909498,0.10997841526941213,nan
1740797249.0533926,-0.34245629593016486,0.18391863054970295,0.16390792573982302,0.07486147352572757,nan
1740797249.0572987,-0.29161405619741926,0.09528357070799487,0.14862981448434914,0.07338474218405647,nan
1740797249.0612047,0.02335532733556254,-0.021188931475638027,-0.02082751688549304,0.14020298536745412,nan
1740797249.0651107,0.3470133387611968,0.11261298415401602,-0.174360422748791,0.1379284358617239,nan
1740797249.0690165,0.3686564771927625,0.4334120181915436,-0.1276972740251007,-0.03708230259126928,nan
1740797249.0729225,0.07889674247912322,0.5486828345904831,0.07009660439479143,-0.2608375983748782,nan
1740797249.0768309,-0.21338746928612815,0.2000725035511858,0.1698163098082668,-0.2913072218215849,nan
1740797249.0807369,-0.22983186781461282,-0.3784570151020624,0.02442729676391925,-0.06838777364169875,nan
1740797249.0846426,-0.016745298453942386,-0.677950031473203,-0.20721705991091038,0.1858369490760237,nan
1740797249.0885487,0.15281588170986632,-0.4757320555916463,-0.2298114680190142,0.21905781358526125,nan
1740797249.0924547,0.11649825136218837,-0.06629693400268656,0.02641023289232397,0.04725736599519652,nan
1740797249.0963607,-0.022427203669721348,0.11758616609438709,0.2916395996354683,-0.08094740858598072,nan
1740797249.1002665,-0.0766883862398185,0.018863548888332058,0.25349661515269944,-0.01116047970524724,nan
1740797249.1041725,-0.019107363458276922,-0.031570781186087374,-0.07016272084715267,0.1211202224984329,nan
1740797249.1080785,0.0230579126609714,0.20007196872080107,-0.32999006832574745,0.0823677257127856,nan
1740797249.1119843,-0.025512645764549247,0.505354497134823,-0.23483967807908537,-0.12976704990682805,nan
1740797249.1158903,-0.0861538579076518,0.4821651493598221,0.1138961314773216,-0.2584664342315154,nan
1740797249.1197963,-0.05793178926646352,0.06310324964370378,0.33398520836522294,-0.11353201685927733,nan
1740797249.1237044,0.024626697734465703,-0.35966972295762367,0.19385005175795642,0.16452101770047753,nan
1740797249.1276104,0.04267557550274591,-0.38999170280990486,-0.1316598888497831,0.25535330176456433,nan
1740797249.1315165,-0.02088086442223747,-0.09947380873315544,-0.26862730593797035,0.051341412439249764,nan
1740797249.1354222,-0.03755789967385127,0.07881201697414798,-0.0692251080988797,-0.2008053710312091,nan
1740797249.1393282,0.08513483819813693,-0.09555668170310802,0.22749874836429823,-0.1964759497398808,nan
1740797249.1432343,0.2406694293639285,-0.3630047035320925,0.26694850877521104,0.055533783092903584,nan
1740797249.14714,0.22329515984348466,-0.29011097015797666,-0.03228444043112403,0.24747903692822676,nan
1740797249.151046,-0.012106990090674324,0.17448867862797593,-0.39264158265739674,0.1525548932097149,nan
1740797249.154952,-0.2654143455681492,0.6013369170940639,-0.46211044194603973,-0.10308652643638462,nan
1740797249.158858,-0.309018751225665,0.5590196762957234,-0.15098552043827768,-0.20759625819405436,nan
1740797249.1627638,-0.14531527535267963,0.09266264410819741,0.3070915280627412,-0.05152363069243942,nan
1740797249.1666698,0.017349484784921085,-0.35054864118969314,0.5814741356798379,0.1467952302143743,nan
1740797249.1705778,0.033647332639758436,-0.4197214029030004,0.5060948611457081,0.12266031279203965,nan
1740797249.1744838,-0.012398720302053448,-0.17884072616758367,0.15812844611936877,-0.1060816684167625,nan
1740797249.1783898,0.049853349985768174,0.07329129417491134,-0.24702048058865458,-0.26386057458062045,nan
1740797249.1822958,0.22500372808016905,0.17452661283624094,-0.5061103490923271,-0.149550882913842,nan
1740797249.1862016,0.32588366660233387,0.1870950311325086,-0.5189674905262365,0.13436251218883585,nan
1740797249.1901076,0.20675400015590276,0.17151970762791424,-0.30782320172568134,0.3127120427381241,nan
1740797249.1940136,-0.05167097776403401,0.03976383726530733,0.01161554903785719,0.24260802874685294,nan
1740797249.1979194,-0.24071395338879525,-0.27408408763327335,0.2929368734964234,0.030526798854544783,nan
1740797249.2018254,-0.26465471943958085,-0.5788413849129297,0.43118108271144334,-0.13168870722450995,nan
1740797249.2057314,-0.20817093737055298,-0.5209966047179064,0.39982476737721123,-0.17114816131984903,nan
1740797249.2096374,-0.1661779334255166,0.01830202419574931,0.2323821710345729,-0.14586067940772066,nan
1740797249.2135432,-0.09775378173245149,0.6907087042338077,-0.013904269280468465,-0.11267968659140074,nan
1740797249.2174525,0.08123886920745563,0.946382396759348,-0.26384754679244027,-0.05899699917446254,nan
1740797249.2213585,0.30454530988622924,0.5584942402339792,-0.41336822238368365,0.032964520355215854,nan
1740797249.2252645,0.36386094015013587,-0.1533047608208032,-0.3640765391093853,0.12048194929527539,nan
1740797249.2291706,0.15543453275549807,-0.6377570341024327,-0.11319697894620748,0.14375652026050398,nan
1740797249.2330763,-0.14727298482595752,-0.6198106331386539,0.19315365355185216,0.10700647005738248,nan
1740797249.2369823,-0.25207357704017347,-0.28259143092206773,0.3411027985917958,0.06579695705051813,nan
1740797249.2408884,-0.07742029972375408,0.002361661200048976,0.227465299248699,0.03680463761458458,nan
1740797249.2447941,0.1488309179876622,0.052737915209867266,-0.03378937320782721,-0.026403151185131535,nan
1740797249.2487001,0.15485740097512066,-0.02086328925262899,-0.20345171883997248,-0.14104750423651602,nan
1740797249.2526062,-0.06272494909005501,-0.013275884117000872,-0.13603188210207431,-0.22129683023558497,nan
1740797249.256512,-0.25471496295092505,0.1435764118335632,0.086467000904601,-0.15644326923513532,nan
1740797249.260418,-0.22702452519476543,0.3386598821489498,0.23913295989275843,0.03646180573454611,nan
1740797249.2643273,-0.04929554980321008,0.4097980002053405,0.17044318102705727,0.19409697575054338,nan
1740797249.2682333,0.07662855816265648,0.28334353797411027,-0.06282238071922001,0.17721381276985418,nan
1740797249.272139,0.08517091642117869,0.01915724858627691,-0.2620583700715458,0.030855754366751757,nan
1740797249.276045,0.09343510120279115,-0.23967226298522065,-0.2732001617384704,-0.07238626864417713,nan
1740797249.279951,0.18761249091006438,-0.3648690772642174,-0.11095345172952187,-0.04206088911528718,nan
1740797249.2838569,0.26585214064243157,-0.3293773608816782,0.07922523561955286,0.03266339857927074,nan
1740797249.2877629,0.16666006343051165,-0.2160922829988458,0.1631498766029686,0.02008196478992454,nan
1740797249.291669,-0.09056379797338178,-0.1261986603374674,0.12598931500451716,-0.06837312791901838,nan
1740797249.2955747,-0.29160436534091966,-0.0688963658210581,0.05937135386311753,-0.09498533156536364,nan
1740797249.2994807,-0.2770003658070511,0.03669197799896904,0.0543799217320377,0.0057929077956832865,nan
1740797249.3033867,-0.1291329999199252,0.23045388477117293,0.10492644101343258,0.11852058616021795,nan
1740797249.3072927,-0.04472535860496651,0.4084127446410589,0.11295844385622333,0.08682002511537493,nan
1740797249.3112016,-0.0631253523478123,0.4043045124905961,-0.004588269245761661,-0.07321639618432932,nan
1740797249.3151076,-0.02353656792402903,0.1878833688423008,-0.2075118174847864,-0.17308244255174488,nan
1740797249.3190134,0.17977898204088702,-0.06769156998504897,-0.34016269022187684,-0.08055852192831572,nan
1740797249.3229194,0.39099542402206344,-0.16728889227408958,-0.2691945715743779,0.11120263754859469,nan
1740797249.3268254,0.34283525906015455,-0.12313048003196496,-0.02390582568993867,0.19356781945967694,nan
1740797249.3307314,0.0032023866283410656,-0.13325105018394706,0.21449033429842418,0.09251177710383499,nan
1740797249.3346372,-0.329982225714366,-0.30595325123911143,0.2824389074176329,-0.058356089443314205,nan
1740797249.3385432,-0.34220725374705535,-0.47161087324810835,0.1905675300667589,-0.10296495162960567,nan
1740797249.3424492,-0.061197080688190124,-0.3537995620012134,0.09162710835759794,-0.051120966936998774,nan
1740797249.346355,0.17972163090666407,0.07438920574622478,0.08864794855172205,-0.025643352598421876,nan
1740797249.350261,0.13397013299263544,0.49472621716584014,0.10462573813011533,-0.06153837272125082,nan
1740797249.354167,-0.08774059676029923,0.5687996597586835,-0.020665669893358364,-0.05263519915311282,nan
1740797249.3580756,-0.18681690261578146,0.3160183878369836,-0.3045361953551381,0.07198874808753605,nan
1740797249.3619816,-0.05349169907821644,0.07555163892656151,-0.5342411583787248,0.19741803880402442,nan
1740797249.3658876,0.12360861874669699,0.07813158906654226,-0.4493815751282585,0.14087035293576633,nan
1740797249.3697937,0.12797698328622908,0.15316890727487148,-0.019342978577368785,-0.08919509622137053,nan
1740797249.3736994,-0.0057304337942473355,-0.04291059538373661,0.4818514289607749,-0.2496870296612012,nan
1740797249.3776054,-0.0619370436700065,-0.5354080319534675,0.6946237596193755,-0.13977651564304325,nan
1740797249.3815114,0.05068201234073691,-0.8948608759551572,0.47404568261470104,0.12999772414089583,nan
1740797249.3854172,0.17456048349255565,-0.673978985976768,-0.008593196880823894,0.23905513874614462,nan
1740797249.3893232,0.11940368744812194,0.06242564315918437,-0.4238712674290599,0.04037891117806083,nan
1740797249.3932292,-0.07822539033239757,0.7415203133223852,-0.5263759091696176,-0.23950265995005213,nan
1740797249.3971353,-0.20000028467770511,0.8437775468417069,-0.2898961564277534,-0.2521158220173429,nan
1740797249.401041,-0.13053351173933794,0.4035242107119887,0.10570294309111154,0.055618437524005686,nan
1740797249.40495,0.001655912051565188,-0.08919277929129,0.3797144076082356,0.3627924087791988,nan
1740797249.4088557,0.011125089683814003,-0.23347306915440696,0.3104896904786451,0.33567014765974645,nan
1740797249.4127617,-0.08825086978282769,-0.08269529341567866,-0.08829442893386547,-0.001244580164130167,nan
1740797249.4166677,-0.10670980017242436,0.028223663115498756,-0.503119203339152,-0.3148968094358848,nan
1740797249.4205735,0.05065048415924137,-0.08503541916550603,-0.5149260628517214,-0.3461656188428242,nan
1740797249.4244795,0.2355822844866272,-0.2825904208968536,0.013588940402306312,-0.154835007115044,nan
1740797249.4283855,0.23811986990088474,-0.32505336573259025,0.7081498278311806,0.029472436788884098,nan
1740797249.4322915,0.05946626554284302,-0.1641074376067843,0.9321849530609856,0.10414363856406814,nan
1740797249.4361973,-0.09004273328756712,0.041576000940997414,0.3838127642892514,0.15025476589034176,nan
1740797249.4401033,-0.06795112379452693,0.14202944958735653,-0.5345705514716284,0.22712240158590502,nan
1740797249.4440093,0.01970470121432505,0.14596990866547765,-1.024253922070641,0.2378627088620196,nan
1740797249.447915,-0.020885361503775395,0.15421559891376097,-0.6488730683373337,0.07101205044409618,nan
1740797249.4518237,-0.18591873244367113,0.21113368895515028,0.21388961729327338,-0.18953750610508982,nan
1740797249.4557297,-0.25740197774014895,0.2610818839741717,0.7306512215344795,-0.30973346359427556,nan
1740797249.4596355,-0.09290277459114298,0.21841831389207822,0.44525501142216634,-0.18082533099379045,nan
1740797249.4635415,0.1616688617124429,0.039775884191224645,-0.2737077636844008,0.03495125967736024,nan
1740797249.4674475,0.23530463912179278,-0.24693710001531183,-0.6379582698272033,0.09880813097430242,nan
1740797249.4713533,0.07530565115689705,-0.5238793592602555,-0.2603275746770039,-0.009940432699678604,nan
1740797249.4752593,-0.0790224658888735,-0.596629075799672,0.47299752229307257,-0.0838658498728861,nan
1740797249.4791653,-0.004335960927483878,-0.317547309057961,0.8355790462564776,0.023387540476146888,nan
1740797249.483071,0.2067914796120139,0.22504266189659405,0.4965985004563462,0.19434319019477275,nan
1740797249.486977,0.24917057347593893,0.6740324538658442,-0.20986987089242637,0.20557033993136986,nan
1740797249.490883,-0.006383460787292258,0.6703565528656443,-0.6876822412686536,0.034740362211303374,nan
1740797249.4947891,-0.33027545691828436,0.2117238104008768,-0.6505975455530797,-0.10385314374539328,nan
1740797249.4986973,-0.39407264816848525,-0.30387178041112195,-0.27924140500500527,-0.05384517217131161,nan
1740797249.5026033,-0.15107597336142625,-0.46272896819334186,0.08253467479832845,0.05800277075859332,nan
1740797249.506509,0.13053300002597223,-0.24951079701763784,0.263819902450791,-0.00833261551396906,nan
1740797249.510415,0.20220379909734115,-0.007771329095382417,0.29923216416973997,-0.24881860624934451,nan
1740797249.514321,0.10168768962846238,0.012006301808725868,0.2544738700216723,-0.36284860547103714,nan
1740797249.5182269,0.0349356742818595,-0.04653866338728198,0.1403819970697144,-0.12200777401954557,nan
1740797249.5221329,0.07170760691105978,0.10870996499360644,-0.008617228245931776,0.2956339103400349,nan
1740797249.526039,0.07749415086773671,0.4350949596882046,-0.08435740354467927,0.465658498711625,nan
1740797249.5299447,-0.045657307727848144,0.4988746490816246,-0.01623991168820849,0.21618490277609984,nan
1740797249.5338507,-0.1718731024894662,0.0035819728778109694,0.09833241644959488,-0.15053006656430684,nan
1740797249.5377567,-0.1044591804814687,-0.7232516595257287,0.06410420267640239,-0.21543862478564788,nan
1740797249.5416627,0.12797627327744146,-0.9576118042138736,-0.1760267601797711,0.04473089180598657,nan
1740797249.5455706,0.2553542893956386,-0.35771955388685134,-0.4249427805700359,0.23062093609814185,nan
1740797249.5494766,0.09264175139000459,0.5924121914788162,-0.4126795358468434,0.027267256677835385,nan
1740797249.5533826,-0.20503333459670178,1.0377522027422252,-0.09273007435418347,-0.3801973404825144,nan
1740797249.5572884,-0.3124250398780885,0.6296724009288712,0.29050211568679035,-0.5075147467710919,nan
1740797249.5611944,-0.13413027119678764,-0.1566864642470789,0.45085680046733345,-0.1525531159055082,nan
1740797249.5651004,0.0810971179165881,-0.5922021426912638,0.3425034358142913,0.35297383018619455,nan
1740797249.5690064,0.0729542756443746,-0.45075151836043714,0.15707085732183684,0.5240017069106803,nan
1740797249.5729122,-0.07852216358592867,-0.09868906524016957,0.0623454181960097,0.26352626238424365,nan
1740797249.5768182,-0.05614823917594719,0.07153339697919085,0.01214781065409048,-0.08168024712593784,nan
1740797249.5807242,0.2477126699908363,0.07910343540113642,-0.14502579391798695,-0.17592707863584525,nan
1740797249.58463,0.5235797598174932,0.14997707636195237,-0.40620230679182445,-0.066938569467734,nan
1740797249.588536,0.3836489530090433,0.25645412382677046,-0.5415904301769431,-0.03464737016263035,nan
1740797249.5924456,-0.14485093466914808,0.11079734230824129,-0.32716572174199576,-0.16632567446533902,nan
1740797249.5963514,-0.5938888932487458,-0.34849618392596493,0.16932035310013188,-0.23733870894937104,nan
1740797249.6002574,-0.5606470811651598,-0.6833806728961114,0.584789836890172,-0.04315970277290595,nan
1740797249.6041634,-0.14849309027484633,-0.3834914931140887,0.5776377727613786,0.27727387531073355,nan
1740797249.6080692,0.18346222577078272,0.4586380247596754,0.15506448075191648,0.3725839847947897,nan
1740797249.6119752,0.16615750824211195,1.1004956049514714,-0.32056047044152225,0.10933879340008662,nan
1740797249.6158812,-0.007200802111744853,0.8943261715538969,-0.45865921105822344,-0.24836093215758986,nan
1740797249.6197872,0.010082633672774528,-0.006098782035369276,-0.18802013026589182,-0.3411915003691721,nan
1740797249.623693,0.2492297827935971,-0.8107533351578243,0.19975215649576206,-0.12026402513433343,nan
1740797249.627599,0.39460087136951627,-0.9341504341675357,0.33970678606491145,0.13725439581069207,nan
1740797249.631505,0.20916810285503612,-0.5225412663122627,0.13397175578778783,0.188277351791976,nan
1740797249.6354108,-0.14560450906676786,-0.10767246585778024,-0.1767978720617933,0.08595541104958233,nan
1740797249.6393201,-0.3070371961941739,0.08314436194641248,-0.26988520429289026,0.03706724752228181,nan
1740797249.6432261,-0.16517214936042268,0.26716135569622,-0.06937610497903064,0.08943271777988528,nan
1740797249.6471322,0.012434935143810126,0.5961899639094116,0.1801758160433789,0.0813991991593606,nan
1740797249.651038,-0.05792354786792918,0.7786542280240729,0.17451172878762042,-0.09604674948559819,nan
1740797249.654944,-0.29501890794837277,0.4202221166107763,-0.11584195586647528,-0.3020738113198481,nan
1740797249.65885,-0.34154277189361304,-0.34341941639921814,-0.38890319846144616,-0.29638703075573547,nan
1740797249.6627557,-0.016163992375152713,-0.8221468091169796,-0.31061104889256075,-0.04529858634142366,nan
1740797249.6666617,0.43358752380442367,-0.5160049510658173,0.12749925334844933,0.220497413905476,nan
1740797249.6705678,0.5905762484259404,0.24377083375699418,0.5697791684765446,0.2734309932094989,nan
1740797249.6744738,0.3264367892466604,0.5993597091785264,0.6303196090877382,0.13707677852521163,nan
1740797249.6783795,-0.07866604739246388,0.13183169320990137,0.2584254652723062,0.010375867489465652,nan
1740797249.6822855,-0.2671841869872113,-0.6377871930478614,-0.23686435948492449,-0.003770412900137507,nan
1740797249.6861944,-0.17447151298294175,-0.8222434729459019,-0.5052699890315882,0.00252494158931518,nan
1740797249.6901004,-0.029136488015429465,-0.15997363122502412,-0.46072964098149327,-0.0758953666057574,nan
1740797249.6940064,-0.0437729166133579,0.7137399353927574,-0.27080117901968714,-0.17445921227052907,nan
1740797249.6979125,-0.18876780567273635,0.9868212219346801,-0.10737943014924901,-0.1425792321108427,nan
1740797249.7018182,-0.27497542765974403,0.5114396204757242,0.01690275090405186,0.02428082309900125,nan
1740797249.7057242,-0.1836628048783758,-0.16092114261903373,0.16445453019823714,0.14161972445934393,nan
1740797249.7096303,0.03632389969251087,-0.4685908461044556,0.3121801132790034,0.06514151824214838,nan
1740797249.713536,0.25774476093316456,-0.37805702088216,0.3569006632089236,-0.10727962874437887,nan
1740797249.717442,0.3859151779869376,-0.2201516110790807,0.266986131897445,-0.14312482866650925,nan
1740797249.721348,0.37662065462689537,-0.18248832640385704,0.14045270172554672,0.03210588789418396,nan
1740797249.725254,0.21861815817245733,-0.14239630083993093,0.0633792943501482,0.23424927746393776,nan
1740797249.7291598,-0.04122305485006799,0.038476126711984374,-0.03170443993746611,0.24364899156796727,nan
1740797249.7330687,-0.2794713420412949,0.2515826143148207,-0.27047179965344553,0.06319620064379151,nan
1740797249.7369747,-0.36995301707602307,0.2803035456636764,-0.5906228254379903,-0.11424180517511995,nan
1740797249.7408805,-0.2980756875948242,0.10814254784364219,-0.6921284355410205,-0.1629377199379548,nan
1740797249.7447865,-0.16543501488187506,-0.05413006975201051,-0.3350344046542974,-0.15057704640822203,nan
1740797249.7486925,-0.05825520404955053,-0.048207091482015824,0.3231667811618038,-0.1781409941575441,nan
1740797249.7525983,0.0503171097189056,0.04853752128567493,0.7884240234956493,-0.18574379125383692,nan
1740797249.7565043,0.21935480852465103,0.07488483951547797,0.6968680820875363,-0.025985590874219432,nan
1740797249.7604103,0.38531275847820046,0.02037978248436285,0.19041218108081182,0.2786922591363421,nan
1740797249.7643163,0.3722891844409673,-0.0076427168130044805,-0.23676998958442091,0.46759647353269157,nan
1740797249.768222,0.10428041369095493,-0.008527078226083395,-0.261532563576648,0.31073998266182923,nan
1740797249.772128,-0.24166046466882138,-0.11820433389240835,-0.034742954593331606,-0.09672337315348584,nan
1740797249.776034,-0.37801654797711953,-0.34881081364562605,0.06095172586124068,-0.4009860504543687,nan
1740797249.7799425,-0.21669535058868114,-0.43171981969197437,-0.12047555156707969,-0.36392005637479935,nan
1740797249.7838485,0.028412867438310514,-0.09676663936960185,-0.3524736885864214,-0.09915202646724174,nan
1740797249.7877545,0.09492539340787162,0.495607360908587,-0.3511855312184105,0.10443961485330461,nan
1740797249.7916605,-0.016315545027853397,0.7841579826190014,-0.11213949341925672,0.12711722183331164,nan
1740797249.7955663,-0.06314107995061581,0.40308790387080723,0.1368053986510926,0.09528414649381049,nan
1740797249.7994723,0.1006327763570546,-0.32625685759313894,0.24558861935149887,0.13352020543888504,nan
1740797249.8033783,0.3011980316006546,-0.6729111241217356,0.2756767399340754,0.16560526627709377,nan
1740797249.807284,0.23837764443083276,-0.3058683019547906,0.30951603787400506,0.04565676806323103,nan
1740797249.8111901,-0.12426841608347923,0.3104795163128758,0.26286666196981273,-0.17934775194191685,nan
1740797249.8150961,-0.46093114569735644,0.44722442954707725,0.015604566563858807,-0.2737544671874588,nan
1740797249.8190022,-0.4221079335053943,-0.034852926338800126,-0.3135733479753967,-0.1142288461702133,nan
1740797249.822908,-0.02092285963393312,-0.5317771392344801,-0.39578487739536206,0.11827551393469675,nan
1740797249.8268163,0.38316541596299625,-0.4316994447497092,-0.09076854398313541,0.1481387859075031,nan
1740797249.8307223,0.4692274759230491,0.15627182943666218,0.28081121647539153,-0.03260986605767728,nan
1740797249.8346283,0.25144804512575125,0.5594154473458807,0.23419693016494394,-0.13810580177396398,nan
1740797249.8385344,-0.021551265139362032,0.36611443176944586,-0.2774600518864138,0.03365113696823758,nan
1740797249.8424401,-0.17684586794181187,-0.10979534101181952,-0.7001441264358957,0.30204910293318016,nan
1740797249.8463461,-0.2404122284676356,-0.2722303198494486,-0.45569188326970644,0.3004130014835372,nan
1740797249.8502522,-0.28114859107011375,0.0008985001097473931,0.3534431148463922,-0.05268158299705971,nan
1740797249.854158,-0.25615116205759064,0.243632818847135,0.9693679590958747,-0.41188855545673925,nan
1740797249.858064,-0.08755210976291439,0.04104797697256942,0.7798180555133447,-0.39972831266740483,nan
1740797249.86197,0.16293544125127638,-0.4156838355724655,-0.0010795437102220267,-0.05423871829305001,nan
1740797249.865876,0.30672439062572465,-0.5560779896003242,-0.5749781413155175,0.23469394100888516,nan
1740797249.8697817,0.24252008254941684,-0.13297712828308453,-0.4554731841151457,0.21274109041193234,nan
1740797249.8736901,0.08301472006003734,0.4769547094471463,0.027070420174036946,0.041296405689839034,nan
1740797249.877596,0.007439535199186567,0.7085727080476637,0.18752838416152706,0.021307429730039164,nan
1740797249.881502,0.030807564335792008,0.4068890086041611,-0.16753110034738633,0.15372864663870062,nan
1740797249.885408,0.006671524095300347,-0.10392037647208018,-0.5332977881882806,0.14592492690291786,nan
1740797249.8893137,-0.1369153578180999,-0.4472658377875809,-0.3623715733570788,-0.13716346095218124,nan
1740797249.8932197,-0.2613544999471767,-0.5183316095692097,0.24513401154771686,-0.406859480207877,nan
1740797249.8971257,-0.19116145388103667,-0.38854880440258943,0.659202722175942,-0.28251643319820663,nan
1740797249.9010317,0.025806238062124065,-0.09716817857416103,0.4765280815214811,0.17676210551067217,nan
1740797249.9049375,0.14354946571356947,0.29892317634957466,-0.0227967038916512,0.464885459198901,nan
1740797249.9088435,0.031224484173068674,0.5645584346549375,-0.2540262044335369,0.22682447264129268,nan
1740797249.9127495,-0.13288961380264325,0.42103620184145996,-0.03951473510923485,-0.27111316236689265,nan
1740797249.9166553,-0.07301164524930102,-0.06770858332460541,0.2241454423385697,-0.4309711893591961,nan
1740797249.9205635,0.21187579568868198,-0.41330296623451956,0.10689067722438333,-0.05646338104786707,nan
1740797249.9244695,0.4045746649304092,-0.20880625543365638,-0.31316710791833646,0.38535631317425834,nan
1740797249.9283752,0.24547651768936654,0.3149253939756017,-0.5646626476055269,0.332786223013076,nan
1740797249.9322813,-0.13286410079888894,0.457280981195811,-0.3634250964900946,-0.16098847156861898,nan
1740797249.9361873,-0.34814177443992683,-0.11692725751699704,0.0799324957015962,-0.4743456441521139,nan
1740797249.940093,-0.22405162693738934,-0.8609498171925206,0.3594028455865279,-0.18521284380938274,nan
1740797249.943999,0.013607849748459102,-0.8833743414025826,0.34067190824462457,0.3882034787275196,nan
1740797249.947905,0.048123125924803854,-0.0025336529078480875,0.2122834013257033,0.5571950294783522,nan
1740797249.951811,-0.11603216763005618,0.9515977603146845,0.14190478847742266,0.09701674866006793,nan
1740797249.9557168,-0.1783748389832849,1.0310185175267919,0.06291504268211849,-0.47924506638885006,nan
1740797249.9596229,0.030985483558479198,0.24183701603183738,-0.13194164477818593,-0.5366525654177112,nan
1740797249.9635289,0.29462135120633204,-0.4941332979553945,-0.32285232192637486,-0.05959822795042922,nan
1740797249.9674382,0.27786419974676657,-0.4496821523912713,-0.2626035900317093,0.37441530508054677,nan
1740797249.9713442,-0.016365691875672796,0.08144728497601327,0.056561555615681484,0.31220922256234507,nan
1740797249.97525,-0.2170246870502524,0.24505493142162285,0.29800107168103496,-0.07142998722837152,nan
1740797249.979156,-0.051101322158356915,-0.23425370199509993,0.1564774051241135,-0.26379329006756114,nan
1740797249.983062,0.2804328046657271,-0.6932179772874634,-0.2312429341247201,-0.06743050260501769,nan
1740797249.9869678,0.31979896870674773,-0.41025695411396174,-0.4001934968372608,0.21411872699458695,nan
1740797249.9908738,-0.07971962393575766,0.40665998856105273,-0.10988728030650621,0.22664440093801289,nan
1740797249.9947798,-0.5383895918412519,0.8162815810701196,0.33922672935326237,0.010393483729433347,nan
1740797249.9986858,-0.5680509154140324,0.3153695572499457,0.4445630547901971,-0.12234092605176441,nan
1740797250.0025916,-0.12475932912029368,-0.48998797934905963,0.1002487076929508,-0.0465975945899051,nan
1740797250.0064976,0.35987565102938435,-0.5947513444825083,-0.28045024873161717,0.030413558043307472,nan
1740797250.0104036,0.47572412502801814,0.16274104085520524,-0.27161570782742106,-0.08858353567237613,nan
1740797250.0143127,0.24307770602446244,0.8694276002500486,0.05952294654809159,-0.27272176587435215,nan
1740797250.0182188,-0.01595210391356612,0.6275578053161315,0.2681771055864978,-0.22982908472076552,nan
1740797250.0221248,-0.10014884000983072,-0.35501731326172087,0.10377862644043534,0.07236115944507876,nan
1740797250.0260305,-0.08996813904378052,-0.9998835560054391,-0.19083505692228048,0.32706305783914547,nan
1740797250.0299366,-0.11235126515439094,-0.6262705795558156,-0.21684183863899048,0.27882462047841605,nan
1740797250.0338426,-0.11367798843745018,0.27618646793952284,0.055166773678492265,0.05403944934144141,nan
1740797250.0377483,0.023156404360551438,0.6629881731595146,0.2449264772632041,-0.028676550426264713,nan
1740797250.0416543,0.21739650468242097,0.15657450506878207,0.050903602779714716,0.08728618493283688,nan
1740797250.0455604,0.21451027335717193,-0.5711320294768594,-0.3537917558401947,0.11443234947362232,nan
1740797250.0494661,-0.08026414000339793,-0.628870120267996,-0.506033856853611,-0.15131568193844358,nan
1740797250.0533721,-0.4078314211216964,0.09400752779325135,-0.1783174161057702,-0.4757568170079684,nan
1740797250.0572782,-0.41044180143042613,0.8795166724432636,0.3833187170526912,-0.4306503617941494,nan
1740797250.061187,-0.05229934429081396,1.00599378604876,0.7401886371214986,0.03664791626659416,nan
1740797250.065093,0.3264305828945703,0.43198978372124797,0.6716699627680993,0.4638173231538101,nan
1740797250.068999,0.40011290049418974,-0.3236578655668312,0.26596048774879893,0.40005505904933625,nan
1740797250.0729048,0.20330455715959989,-0.7685446902549536,-0.27465986134062725,-0.04159367176457735,nan
1740797250.0768108,0.015186656209848113,-0.7767025098604552,-0.7613308127522673,-0.3173940950370106,nan
1740797250.0807168,-0.02210781958546523,-0.483322884032168,-0.9691330410180568,-0.11952808084357519,nan
1740797250.0846229,-0.030220784039472197,-0.08069830861217413,-0.6686467391178456,0.2638867076321518,nan
1740797250.0885286,-0.1334097574737207,0.23484245660329683,0.1121280742340839,0.341545590102038,nan
1740797250.0924346,-0.2267376010859162,0.3014721564778725,0.9014480817840845,0.040404084621812504,nan
1740797250.0963407,-0.13155929715966236,0.14653963513340418,1.0697823178572703,-0.24585692597135989,nan
1740797250.1002464,0.08804141880303926,0.045984007615489327,0.4421964563770271,-0.20967093209477047,nan
1740797250.1041524,0.1450564332316336,0.2534879275847772,-0.43292758806065595,-0.02087058693002009,nan
1740797250.1080613,-0.07998456757529068,0.6313476076872896,-0.7678766426846492,-0.03739790583201314,nan
1740797250.111967,-0.31304915584484905,0.6998718802522003,-0.32689423741948276,-0.25792365179101984,nan
1740797250.115873,-0.199339450613194,0.17583978041376883,0.3444675567130013,-0.29676060121062736,nan
1740797250.119779,0.2111850069817663,-0.6158484980104686,0.5275407440303251,0.06152506654890422,nan
1740797250.1236851,0.47696965429976806,-1.02806852558925,0.09583191465063674,0.4954839875419167,nan
1740797250.127591,0.3212288931235453,-0.795324144829689,-0.4169650755221898,0.515592009695389,nan
1740797250.131497,0.006401293904427547,-0.29412076310583474,-0.4741283731551415,0.11058911000829902,nan
1740797250.135403,-0.02373691475832798,-0.0212552275788499,-0.11656935982574493,-0.21290885707009058,nan
1740797250.1393087,0.20013097766635518,0.03221497544839902,0.1817198718571354,-0.09786113615758386,nan
1740797250.1432147,0.14360559852109864,0.27450748589474866,0.12978234477520043,0.16853029844248327,nan
1740797250.1471207,-0.4796805001112028,0.8137140687820404,-0.0716341950032725,0.03868398868345945,nan
1740797250.1510267,-1.1315071956889218,1.1468261782377767,-0.05560588734445534,-0.4976647812380554,nan
1740797250.1549354,-0.9339828369958502,0.7460954468136733,0.22304501276164573,-0.7879271864730024,nan
1740797250.1588411,0.2259381638700165,-0.18053369084794152,0.45038775474261034,-0.3205167099358867,nan
1740797250.1627471,1.3492615285303518,-0.8133285674385968,0.35706249052327244,0.5419059244406425,nan
1740797250.1666532,1.3266390184940267,-0.6753853278660084,0.017787839596027408,0.9038542732321199,nan
1740797250.170559,0.20613548307188137,-0.2139623995245747,-0.29136815085406587,0.4051916308822219,nan
1740797250.174465,-0.8138371578939382,-0.19972737314670425,-0.41822604381599654,-0.32153805650282047,nan
1740797250.178371,-0.7385256638326454,-0.6698863234671212,-0.40794447894766545,-0.4260152526940152,nan
1740797250.182277,0.11055524382295057,-0.8167018072554834,-0.3107449211936979,0.1036856575489828,nan
1740797250.1861827,0.5641810268565012,-0.052010760195071545,-0.08304068219154136,0.453534592851237,nan
1740797250.1900887,0.06687832615117016,1.096546228932681,0.2545157954655557,0.06486461895420179,nan
1740797250.1939948,-0.6817941693813409,1.4874704711784212,0.48323106345787753,-0.6082257339456348,nan
1740797250.1979005,-0.6781330785821634,0.7266132555404714,0.37032099733500473,-0.6682585272486097,nan
1740797250.2018092,0.0856017362976205,-0.3218676701376222,-0.009127060414088636,0.04330414261238248,nan
1740797250.205715,0.6411552345591794,-0.5696918674514083,-0.27249786413732574,0.6918651985964593,nan
1740797250.209621,0.3343775116680018,-0.009817481204265063,-0.14191862119904336,0.48923420732015005,nan
1740797250.213527,-0.31873093970227917,0.3560651859530063,0.21244729773503196,-0.29531583889858504,nan
1740797250.2174327,-0.345263578024569,-0.14132526988200048,0.3561106715344267,-0.6694849763793803,nan
1740797250.2213387,0.342746268667272,-0.9726217666953719,0.10611601402403006,-0.1826965108890973,nan
1740797250.2252448,0.7840105057241957,-1.125071877772254,-0.26204283653413035,0.5140772746575546,nan
1740797250.2291508,0.25586173493604386,-0.41824461114922035,-0.3790286782645836,0.5414025841013177,nan
1740797250.2330565,-0.6741913832452223,0.3335130427551612,-0.2400793289103665,-0.052297265425585326,nan
1740797250.2369626,-0.7983822401266616,0.47913626301955625,-0.15394746854740496,-0.38402106490944143,nan
1740797250.2408686,0.1335184142903497,0.3657377767275948,-0.25940461679438015,0.03718666293824164,nan
1740797250.2447743,0.9636177697853836,0.6670292036300767,-0.28245390106094187,0.5948727577094828,nan
1740797250.2486827,0.5296105087646205,1.181523913324621,0.09509497642353307,0.3635187346623306,nan
1740797250.2525885,-0.7980605418143655,0.9393552267874397,0.7178291604485617,-0.5964902190536612,nan
1740797250.2564945,-1.4641693616808062,-0.3333988569887612,1.0083220978992418,-1.1929659841310878,nan
1740797250.2604005,-0.6275943394804034,-1.4418775018510708,0.6027643333662224,-0.6530954968293478,nan
1740797250.2643063,0.7680968780271369,-1.0394179003224777,-0.19110456793135527,0.455740837826845,nan
1740797250.2682123,1.16222795021872,0.43470122191317806,-0.699204756596852,0.9071732513565871,nan
1740797250.2721183,0.3365782387829028,0.9287575586839781,-0.6005110014837831,0.36132236804238177,nan
1740797250.276024,-0.3592551432945552,-0.6662672873688225,-0.20781952996355932,-0.24380461165668788,nan
1740797250.27993,0.14939185210309375,-2.660579626503708,-0.022122482898753695,0.003928065054325426,nan
1740797250.2838361,1.1400027954328598,-2.17011821772769,-0.16169101582384293,0.7152484841996541,nan
1740797250.2877421,0.9628047257714638,1.2583741353952715,-0.34121158075577807,0.7059094175884065,nan
1740797250.291648,-0.7143365597974513,4.449948954230715,-0.3040685263454503,-0.3217974803157793,nan
1740797250.295556,-2.2190347734399563,3.8521999947315106,-0.06938893959737093,-1.203628425732459,nan
1740797250.2994618,-1.810962293350319,-0.21054523542728815,0.25879995939983474,-0.7738651064752932,nan
1740797250.3033679,0.10309340979876302,-3.4983029272373978,0.6866923614009566,0.46608868534194037,nan
1740797250.3072739,1.3627234624626032,-2.571562932240693,1.1443770853020465,0.7977168835235736,nan
1740797250.3111799,0.7163711122804717,1.0862550768361598,1.2450712726670126,-0.47777656059703694,nan
1740797250.3150856,-0.5809927604567169,2.650932312128032,0.5699810930826322,-1.8535821451126002,nan
1740797250.3189917,-0.38505525600294044,-0.2732526018864794,-0.6857910755882474,-1.2586509408606659,nan
1740797250.3228977,1.4368672722819913,-4.4812113350563285,-1.6223711185850416,1.2721049366727042,nan
1740797250.3268034,2.578562991407478,-4.645809366714279,-1.5180641089074007,3.2772508127495454,nan
1740797250.3307095,1.1278578542420752,0.3683069902690003,-0.7475803327572094,2.5801461192439756,nan
1740797250.3346155,-1.7823763205082963,5.809182564505579,-0.4166600663385732,-0.12124845069894137,nan
1740797250.3385215,-3.018765983942178,6.1815176896192385,-0.8636373049232083,-2.032270403358109,nan
1740797250.3424308,-1.2099121898653546,1.3676533422093853,-0.873985001231234,-1.5981652833867435,nan
1740797250.3463366,1.3564756993195675,-3.3894633781216084,1.003832508281981,-0.30523903520878987,nan
1740797250.3502426,1.3139354894517221,-3.5513628540819315,4.202433198032731,-0.5985225421609854,nan
1740797250.3541486,-1.568097855968451,-0.2169587455281145,5.769563646122023,-2.4308755411167517,nan
1740797250.3580546,-3.6842793721213645,1.7464358789300891,3.042912906460133,-2.911106098074675,nan
1740797250.3619604,-1.6186065146026412,-0.17179647537488263,-3.082370576214716,0.13611650061052066,nan
1740797250.3658664,3.5930488367723292,-3.2429989341010366,-8.07075466058549,4.883320864817095,nan
1740797250.3697724,7.045025450180164,-3.1594825973298786,-7.6164696125986975,6.772873353888802,nan
1740797250.3736782,5.0248555645581945,0.5066090193451955,-1.8413344449608116,3.365483706935877,nan
1740797250.3775842,-0.998674622697717,3.8061828632441053,4.588744714122247,-2.680563188945103,nan
1740797250.3814902,-5.865023651947803,3.3251247694756603,6.765311216057062,-6.09986757919123,nan
1740797250.3853962,-5.945839021773064,0.2709708661780787,3.945852752826009,-4.381388890615126,nan
1740797250.389307,-2.3620942293373557,-1.303433178473437,-0.32442488459964147,-0.09113177282421683,nan
1740797250.393213,0.9541435510793751,0.2475807453498657,-2.1718251861680185,2.268429700513165,nan
1740797250.3971188,1.643702927738681,2.1285174037245262,-1.0517868904105292,1.1131532791785563,nan
1740797250.4010248,0.7621195300009218,0.8431344156737944,0.5243293257774909,-1.0717161215955484,nan
1740797250.4049308,0.6056468495962345,-3.055234941797934,0.29009775097778634,-1.1413268176404334,nan
1740797250.4088366,1.721775662791855,-5.278873253931962,-1.4056178354568343,1.0701195659588967,nan
1740797250.4127426,2.6490719871168187,-2.935367023378958,-2.5061868150369073,3.0018614137519424,nan
1740797250.4166486,2.122504731411563,1.832015470349266,-1.8310789190629337,2.6899161048086846,nan
1740797250.4205546,0.5854816624468223,4.231408258150374,-0.16107740663583206,0.8632306189475413,nan
1740797250.4244604,-0.7531719995240629,2.382116941448029,1.0861696716424434,-0.504166907902187,nan
1740797250.4283664,-1.6512056820356367,-0.6841495093453891,1.5485039128243347,-0.911308732770107,nan
1740797250.4322724,-2.8132178228505813,-0.9303083723442644,1.8678278843483298,-1.6622036358205716,nan
1740797250.4361813,-4.20617428065464,1.7130497289912687,2.296064400016485,-3.491595007031015,nan
1740797250.4400873,-4.2583872377537615,3.3479273593873584,2.0505135360943147,-4.795184332132808,nan
1740797250.4439933,-1.4491165350677666,0.9872813937509488,0.34347567703754145,-3.07796646197224,nan
1740797250.447899,3.425013401602554,-3.6559643053765423,-2.285492008637975,1.8681034557392908,nan
1740797250.451805,7.219948202058806,-5.982780230659606,-4.118402586799225,6.900820195373916,nan
1740797250.4557111,7.089204774348898,-3.65562928540203,-3.793977754769293,8.111096882478671,nan
1740797250.459617,3.084142620316786,0.9913842752275558,-1.480262290983097,4.4161220010594615,nan
1740797250.463523,-2.0131379006788643,3.8176799752723536,1.466762028627654,-1.563873531627671,nan
1740797250.467429,-5.256184171927545,3.307648424583269,3.654165063548567,-5.991768342931575,nan
1740797250.471335,-5.68564662050238,1.4486369242336654,4.265875358284198,-6.845483362137589,nan
1740797250.4752407,-4.1664375307272925,0.619765645206648,2.962319259008854,-4.675415689965061,nan
1740797250.4791467,-1.8243025511892055,0.7417218184493549,-0.04198776720885098,-1.1802705940598748,nan
1740797250.483057,0.7932058010601749,0.05210631137619327,-3.4690023240567323,2.2264463313884884,nan
1740797250.486963,3.2196086048130477,-1.9689058306897984,-5.0977039971448885,4.570307787327865,nan
1740797250.490869,4.534375132660429,-3.5327827728643912,-3.328088603386338,4.987987394170784,nan
1740797250.4947748,3.9112099210582074,-2.6758648607640354,0.9573999171729725,3.111714592347493,nan
1740797250.4986808,1.6171959278290122,0.21574417121323958,4.51006086691884,-0.1594265016092551,nan
1740797250.5025868,-0.9649217422371767,2.6710208076125195,4.393307137707103,-2.856298800359295,nan
1740797250.5064926,-2.4933157947420392,2.7889443595551873,0.8242860267068768,-3.4165658093033717,nan
1740797250.5103986,-2.6808669893002124,1.051218860781221,-2.8959789535711398,-2.004845537974689,nan
1740797250.5143046,-2.07904788874066,-0.6344056104796706,-3.5614021278853962,-0.18745480977045836,nan
1740797250.5182106,-1.157064582307546,-1.136447239894673,-1.1299142797920936,0.6882318141040402,nan
1740797250.5221164,0.0178319268738272,-0.8492445601656922,1.5297128361004428,0.608828175999468,nan
1740797250.5260224,1.2368629474328567,-0.5305975640589042,1.834531719682324,0.42045386883562613,nan
1740797250.529931,1.8112414432015909,-0.1867803007400717,0.0848720888531965,0.5944826398337861,nan
1740797250.533837,1.2138161706592496,0.5181088606603584,-1.2529065764231004,0.7857822956198013,nan
1740797250.5377429,-0.058092243890312964,1.232701046535927,-0.5141173707520277,0.5241019764659864,nan
1740797250.5416489,-0.7400335733232722,1.0399606615730783,1.3793334189076945,-0.06084826141942516,nan
1740797250.5455549,-0.16531421509767955,-0.2628482179599647,2.1510122384420463,-0.4362682223736508,nan
1740797250.5494606,0.8679326417302928,-1.5479725586750666,0.7731975202717133,-0.3929400095065397,nan
1740797250.5533667,0.9450046695810888,-1.491686868448489,-1.5203095929896862,-0.24528690074691514,nan
1740797250.5572727,-0.27161091223878137,-0.16842073273735125,-2.6900282069858643,-0.28134831058713666,nan
1740797250.5611787,-1.5505356916677904,0.9694286614089137,-1.9314286075212028,-0.31718481898387396,nan
1740797250.5650845,-1.491908376810736,0.8146842296213458,-0.1251974998862832,-0.024119328929979953,nan
1740797250.5689905,-0.18536903160586832,-0.09778959869640778,1.370579406703932,0.4542399574169665,nan
1740797250.5728965,0.8946856084474137,-0.3640712417639117,1.9220247785860947,0.5486826180078455,nan
1740797250.5768049,0.656293392597723,0.43510921553691523,1.6576693946009136,0.01937275920995402,nan
1740797250.580711,-0.32676132985936296,1.1827670887021091,0.84629170860462,-0.5914556722911091,nan
1740797250.5846167,-0.5824612335249735,0.6905219616283882,-0.313193398510557,-0.5246732074740549,nan
1740797250.5885227,0.39173675453657714,-0.7066381733052353,-1.3935645180834098,0.23588497787624604,nan
1740797250.5924287,1.463810990390085,-1.4953954544589396,-1.7305326663198028,0.8468893589718547,nan
1740797250.5963345,1.2267695826378706,-0.8564504383994246,-1.0272392526697043,0.5714910019467394,nan
1740797250.6002405,-0.27488851630307115,0.31607071382139784,0.17127618073768922,-0.3199708205382131,nan
1740797250.6041465,-1.5441797181342705,0.5577561070925259,0.9098163681050909,-0.8411290207492695,nan
1740797250.6080523,-1.341979954279581,-0.2987329136299138,0.7851878345107283,-0.4441840131788122,nan
1740797250.6119583,-0.05585200891923068,-0.9007024747674788,0.2874506004573935,0.3597333691214476,nan
1740797250.6158643,0.8465802375440566,-0.10219787484311592,0.0947342488251692,0.6467642910295097,nan
1740797250.6197703,0.5336100109719404,1.502857611498459,0.22835921863566125,0.16941998522384186,nan
1740797250.6236784,-0.3587948828594214,2.1562692441325204,0.15015121287991418,-0.43194651466754447,nan
1740797250.6275845,-0.6432126344363351,0.9494966267728853,-0.3658506455344507,-0.4762773670323759,nan
1740797250.6314902,-0.008286489904884635,-1.1161363493258512,-0.7962065406816864,-0.0355782111081904,nan
1740797250.6353962,0.7395114409538655,-2.2167826258742727,-0.5097023392033073,0.27559516247231447,nan
1740797250.6393023,0.7479615910483278,-1.5943260264566,0.32671204885483357,0.14292949029279808,nan
1740797250.643208,0.09234717159919699,-0.11371908452295902,0.8168363024418375,-0.09748327486219337,nan
1740797250.647114,-0.4583565539960453,0.9032517847672875,0.39312788230029155,-0.0003526807068198383,nan
1740797250.65102,-0.4218315333547712,1.0003022838423048,-0.44363077917133675,0.34000992036608285,nan
1740797250.654926,-0.06438740519763182,0.6339427421838072,-0.6860510815106687,0.4099568052394393,nan
1740797250.6588318,0.0979636566415003,0.2759046667424524,-0.04464505838582864,-0.01422076216823472,nan
1740797250.6627378,-0.026851663909391494,-0.08252688666557897,0.6772599513639387,-0.5253226971673879,nan
1740797250.6666439,-0.11823020888912775,-0.5270682101445137,0.5530661560724,-0.5665629544040374,nan
1740797250.6705518,0.011002673142381288,-0.754750544337752,-0.32383892299826783,-0.1092625101897496,nan
1740797250.6744578,0.15203960025394256,-0.36759382890925807,-0.9257194544463445,0.33338345324265606,nan
1740797250.6783638,0.048532391777288936,0.46321803340571366,-0.5080163362901521,0.3397137788697162,nan
1740797250.6822696,-0.19177353263075464,0.9817774233978624,0.5110728685417286,0.03632134195767905,nan
1740797250.6861756,-0.22349105278485754,0.6511149228366209,1.044824394142239,-0.15491976775396368,nan
1740797250.6900816,0.051777028827852456,-0.20658084565008755,0.5756281929245386,-0.07255346710922371,nan
1740797250.6939874,0.3266689881160258,-0.7731819286520362,-0.3336713320369802,0.06347614297584539,nan
1740797250.6978934,0.2849720461337625,-0.6619775816158368,-0.7723893597492548,0.04673757949221485,nan
1740797250.7017994,0.016675042791703794,-0.2525447582003618,-0.4892487586633332,-0.019294514794635946,nan
1740797250.7057054,-0.11391332109205321,-0.07060898777104882,-0.0006024161899089511,0.06450148066345122,nan
1740797250.7096112,0.03009969110643482,-0.09169655320058256,0.17086093267106847,0.2223754709414174,nan
1740797250.7135172,0.16615182486710486,0.10778557900401671,0.07968302066452894,0.16257470170336988,nan
1740797250.7174268,-0.022753872189249416,0.6122194741989859,0.09833137323772345,-0.1799198821555647,nan
1740797250.7213326,-0.43045623070659533,0.9092025204924002,0.2996536006177844,-0.45840995509931287,nan
1740797250.7252386,-0.6070377131474117,0.5243241161603144,0.35657453584184273,-0.317903487411307,nan
1740797250.7291446,-0.29032710330886696,-0.2801165650387819,0.04801308172396672,0.11233322217363644,nan
1740797250.7330503,0.2737311926517473,-0.7195994106044337,-0.3729229747863241,0.3310594578558374,nan
1740797250.7369564,0.6065799722950612,-0.4150564341757184,-0.46896736457547006,0.10094354442753561,nan
1740797250.7408624,0.5065011044711973,0.13374454639498223,-0.1694147073435357,-0.21378334260249188,nan
1740797250.7447684,0.1827194745368657,0.16232871868414323,0.16300871737876935,-0.10181829488347988,nan
1740797250.7486742,-0.07192203498058454,-0.40070257781342666,0.22197213081490175,0.39041712558240876,nan
1740797250.7525802,-0.19174756704653845,-0.8280368244520575,0.1233394134384211,0.6358930558358223,nan
1740797250.7564862,-0.26788816734889925,-0.47538640930973747,0.15598320740079283,0.1883948202910945,nan
1740797250.760392,-0.29689379419322787,0.4386075743987664,0.29067691238998433,-0.5986967354002474,nan
1740797250.7643013,-0.16421991558785531,1.0904770540326603,0.17113428412579446,-0.9084879547302246,nan
1740797250.768207,0.11829554368229679,0.9838810119601769,-0.3473983347112639,-0.3939758951659787,nan
1740797250.772113,0.311037032752009,0.4065459576873453,-0.8396654689790722,0.41259672778130774,nan
1740797250.776019,0.19537407957432867,-0.06118128723902925,-0.6976875415616294,0.7117855376014398,nan
1740797250.779925,-0.13054932048129048,-0.25931125293886415,0.12901291282014493,0.3244755520533922,nan
1740797250.783831,-0.3288031066246616,-0.4709022103561157,0.9545249517313089,-0.1987997331654947,nan
1740797250.787737,-0.21071664988988267,-0.8298716511894562,1.0266504056878323,-0.30825878474741447,nan
1740797250.791643,0.056227333213551556,-0.9974481053900374,0.30996126679768643,-0.06976909049628643,nan
1740797250.7955487,0.19342936871850658,-0.5781206392480869,-0.5043709711232036,0.0638195054332017,nan
1740797250.7994547,0.17414918632132706,0.28536168559780434,-0.7422614583251723,-0.06899870890510883,nan
1740797250.8033607,0.20592907819312173,0.9584308996471977,-0.38012976205645604,-0.14716908950207522,nan
1740797250.8072667,0.35630528660915434,0.9828620683887721,0.0829147198919123,0.10906096494148612,nan
1740797250.8111756,0.36236648300670793,0.5355495373618557,0.2367369601903389,0.45562390509545264,nan
1740797250.8150816,-0.04821820988897002,0.12777275361827786,0.10255875516828206,0.385833977294011,nan
1740797250.8189876,-0.7001618367457699,-0.025552583084393773,-0.07494493858530328,-0.17647111816870892,nan
1740797250.8228934,-1.0133471850010283,-0.15293782402822675,-0.16599487077754133,-0.6819255206219739,nan
1740797250.8267994,-0.5980704920641103,-0.46185160966016064,-0.17663691088465236,-0.5719725990004145,nan
1740797250.8307054,0.2672956154338924,-0.7495132035300368,-0.06401514865578024,0.04210380971974427,nan
1740797250.8346112,0.8710849917857747,-0.6403582969436231,0.2496128855157027,0.5010765853091893,nan
1740797250.8385172,0.7835875554035573,-0.12515416267869472,0.6343181646951892,0.3814734172199469,nan
1740797250.8424232,0.2488354165434037,0.3504714043945097,0.7041298280366974,-0.03450798312034517,nan
1740797250.846329,-0.16178284022995487,0.40412051366693325,0.1968413424274004,-0.17218604390297754,nan
1740797250.850235,-0.18314525124323988,0.17614489388005367,-0.6157121427591538,0.09331117472942271,nan
1740797250.854141,-0.04226197033284404,0.11968942702778428,-1.069192431571016,0.31623528939076695,nan
1740797250.8580499,-0.06291608136291155,0.3811120290643332,-0.7623480506726912,0.10684087080219534,nan
1740797250.8619556,-0.24928046801150835,0.5771560461177819,-0.0025707868491124434,-0.3332251324970312,nan
1740797250.8658617,-0.34711470893779034,0.27588229022724603,0.5147075150775102,-0.46651818277780366,nan
1740797250.8697677,-0.22010766931997156,-0.4163064812696137,0.4553312661871242,-0.12364654524032354,nan
1740797250.8736734,-0.00835630808692295,-0.9055528454766663,0.15520545803381622,0.2692363682578995,nan
1740797250.8775795,0.10459602715056864,-0.7505884617768217,0.136721846738359,0.23688006799158298,nan
1740797250.8814855,0.14224437270522042,-0.12619828674209874,0.4357321170765874,-0.13563808042421444,nan
1740797250.8853915,0.24143886301472958,0.4096140672079034,0.5615664048297502,-0.3196616436196241,nan
1740797250.8892972,0.37341354647020425,0.5111632009295807,0.1281441519406172,-0.030677662989580804,nan
1740797250.8932033,0.32019827090370395,0.2962941357920961,-0.6231445353590774,0.4030898753741239,nan
1740797250.8971093,-0.013668246074043922,0.05934331698306078,-1.0424618279788023,0.46015729932931326,nan
1740797250.901015,-0.3807244287267781,-0.08328742168504794,-0.7640581475263013,0.0833743183851276,nan
1740797250.9049237,-0.4192730839344566,-0.17631901774930558,-0.06272785679855998,-0.26918586901634484,nan
1740797250.9088297,-0.09499853466548178,-0.1899685005584197,0.4910106917494255,-0.2275610978478954,nan
1740797250.9127357,0.21339738356627097,-0.006602253848383609,0.6128932769594798,0.02814151354248205,nan
1740797250.9166417,0.1435029551603022,0.32165190686931927,0.4605741884405679,0.04274951935367622,nan
1740797250.9205475,-0.2077108577391822,0.4704371992622434,0.29458604716979175,-0.2750530584877417,nan
1740797250.9244535,-0.3831361984314178,0.16277325972920914,0.155930194164088,-0.49659018964247725,nan
1740797250.9283595,-0.10926715037739784,-0.43345022263498806,-0.060124201178315774,-0.21701235350788117,nan
1740797250.9322653,0.3676409236986306,-0.7822425437382176,-0.33148208562917153,0.394257493536803,nan
1740797250.9361713,0.5591548002877689,-0.5324945230404391,-0.46574504284349544,0.7465677460205775,nan
1740797250.9400773,0.28814716534026014,0.08322940312499638,-0.3422903453794884,0.5041489097377213,nan
1740797250.943983,-0.1391705744911052,0.5015313672945995,-0.08261552400614539,-0.04764867833507001,nan
1740797250.947889,-0.3159973402762134,0.44813096010346015,0.09704551300374069,-0.3737325086109956,nan
1740797250.9517977,-0.18137285016197355,0.18536392302938243,0.1438558111887234,-0.30401830792743756,nan
1740797250.9557035,-0.01005283481824258,0.10992190389926669,0.17948249507817374,-0.13438089673917775,nan
1740797250.9596095,-0.021549417339756273,0.23110879380351462,0.2629131205513125,-0.15132912153638478,nan
1740797250.9635155,-0.1289910008711784,0.19356602069559325,0.26191815722408096,-0.24506588959561434,nan
1740797250.9674213,-0.11214190002581068,-0.198404721864221,0.04151313304673378,-0.1104193558568667,nan
1740797250.9713273,0.06160129479954744,-0.6447023622198185,-0.2815341935748208,0.2669290966318892,nan
1740797250.9752333,0.1989569759504124,-0.6574124699714967,-0.39942367784817057,0.5164990969391755,nan
1740797250.9791393,0.14848827427029826,-0.15206756923581236,-0.16536292747803868,0.33025477057576896,nan
1740797250.983045,-0.002163859479230864,0.40833814967997967,0.1994230493995258,-0.12451680471647733,nan
1740797250.986951,-0.05518360711638601,0.5095517344706041,0.3324108662873867,-0.3739769692542267,nan
1740797250.9908571,0.03132981534675239,0.14311084426755405,0.13507966454136017,-0.19419126779143006,nan
1740797250.994763,0.09715467753415045,-0.21783805505884346,-0.1362699214104458,0.13516219779278793,nan
1740797250.9986713,0.003373302371003117,-0.16881679029142313,-0.1979576717339746,0.1903728190803202,nan
1740797251.002577,-0.17667261438971074,0.19869317242835033,-0.06543719134825751,-0.07726607436886618,nan
1740797251.006483,-0.2407242993230485,0.44771384463751757,0.02340593046658584,-0.300745727127703,nan
1740797251.010389,-0.09526864396283237,0.29172643347368543,-0.04067699564902423,-0.16545247152667591,nan
1740797251.014295,0.1479938339063706,-0.1379899282025604,-0.09286506290843355,0.20302574640981785,nan
1740797251.0182009,0.30238257590238216,-0.48629255528392196,0.05119991337413449,0.3939849956752781,nan
1740797251.022107,0.2715750735820101,-0.5309237477015726,0.2906641758379732,0.19596333075862435,nan
1740797251.026013,0.07534837007335102,-0.3114359462767623,0.31668946820257954,-0.17675191602541088,nan
1740797251.0299187,-0.2100236004620464,0.007530078633030605,0.005771737560322766,-0.35114458445293617,nan
1740797251.0338247,-0.46154259421726984,0.2895548185118242,-0.37119732851253245,-0.200733119196583,nan
1740797251.0377307,-0.4976447260066535,0.44194211259789495,-0.420697596109198,0.07447825434641442,nan
1740797251.0416367,-0.18384111696329167,0.3885905283791111,-0.07675293483237679,0.21846321537046912,nan
1740797251.0455446,0.3723967015158823,0.12639965953824603,0.3108648154985978,0.17313943905250992,nan
1740797251.0494506,0.7902819749716878,-0.1983496916388137,0.36193280109536485,0.052809279511060216,nan
1740797251.0533566,0.7016952842550562,-0.3509146939921586,0.07154468222688373,-0.041205147682346545,nan
1740797251.0572627,0.12214088671104158,-0.20500207164743472,-0.22469135981717736,-0.09946808719798128,nan
1740797251.0611684,-0.5119628175736616,0.12081846152223949,-0.2489391232597692,-0.12767602804864397,nan
1740797251.0650744,-0.7357237487743814,0.3453917901675261,-0.05634671599816717,-0.08915466882553068,nan
1740797251.0689805,-0.47953948321200796,0.25643306186898446,0.10144840047343219,0.02914745578178106,nan
1740797251.0728862,-0.0700581094196187,-0.11830388763362013,0.09867796440822772,0.14245785909056521,nan
1740797251.0767922,0.16238427909453165,-0.5264930077797157,0.03575383709532146,0.1306754641220788,nan
1740797251.0806983,0.196179044244347,-0.6554734135482456,0.04214949708971003,-0.017694653827909915,nan
1740797251.0846043,0.21529941281072182,-0.3368826157913083,0.08571127185310244,-0.16944305322407388,nan
1740797251.08851,0.28902307206558,0.3074235134225641,0.04077331662828813,-0.17876485962328018,nan
1740797251.0924196,0.2790991962837508,0.8784522502414344,-0.10314935209463691,-0.033102269706301306,nan
1740797251.0963256,0.07781491637307238,0.9390982699909531,-0.19331537801001833,0.15088173633699994,nan
1740797251.1002314,-0.17984671723573786,0.3746509319628746,-0.099793583261322,0.24920841962530532,nan
1740797251.1041374,-0.25018099574724934,-0.4339223138105833,0.1065201767113703,0.21367810071602014,nan
1740797251.1080434,-0.09890589034879477,-0.8728162394841216,0.21574109776396852,0.05729427453723619,nan
1740797251.1119492,0.03344777791787465,-0.6374677789935097,0.10800795038487965,-0.17046839819076487,nan
1740797251.1158552,-0.062283386537705716,-0.03318572740923085,-0.12063290528325016,-0.36088461599858634,nan
1740797251.1197612,-0.2711913755762025,0.3243280122440683,-0.26438418104251443,-0.35923168113256365,nan
1740797251.1236672,-0.27387443016895346,0.1446915859018333,-0.2038131975577018,-0.09472761980024828,nan
1740797251.127573,0.04521056358054643,-0.24037069505383968,0.014110378593002647,0.282645755986409,nan
1740797251.131479,0.41427081115682685,-0.26453325793781574,0.24556717138911516,0.469224625386488,nan
1740797251.135385,0.46678317814333403,0.21684003877768207,0.35336127952178076,0.2886550037374251,nan
1740797251.1392941,0.16410100020885385,0.7403142665282083,0.26565058266876784,-0.09951201752732816,nan
1740797251.1432002,-0.16873419534720258,0.7346459384118237,0.00978305971363002,-0.3347974679227179,nan
1740797251.1471062,-0.23108298507276548,0.14246881077396395,-0.2719501418737599,-0.22629827932820218,nan
1740797251.1510122,-0.07402886670910747,-0.5304558681816459,-0.38739329328825145,0.05205175335472818,nan
1740797251.154918,0.02200651315606913,-0.7615955850004764,-0.2517063432672291,0.17472574200505614,nan
1740797251.158824,-0.06948891648740342,-0.5097990985425033,0.006304502332159445,0.0404486524995177,nan
1740797251.16273,-0.1790902147287014,-0.13559810751772614,0.14941735201957823,-0.13394519654861556,nan
1740797251.1666358,-0.10278794252637223,0.0735058868278352,0.08351589618612772,-0.1042094449125352,nan
1740797251.1705418,0.10296144390435784,0.16530960420813487,-0.028227054998986482,0.09317198839253794,nan
1740797251.1744478,0.19067902990194666,0.3093112464024132,0.04040866931534819,0.19599331859123173,nan
1740797251.1783538,0.0573245066907439,0.4672480437202248,0.27655625191483396,0.05592263010444794,nan
1740797251.1822596,-0.10907225431355377,0.4133529119948339,0.39576664520228,-0.16941706729500636,nan
1740797251.1861687,-0.07349157498008314,0.06570365875096368,0.16509103272521883,-0.21026915827419682,nan
1740797251.1900744,0.13131487930065167,-0.3354078801678287,-0.2806747134077528,-0.015317685500128355,nan
1740797251.1939805,0.2376606967497672,-0.46203869860619173,-0.5330293372414392,0.1927545045036333,nan
1740797251.1978865,0.08649761510326688,-0.26035539414752273,-0.3492901506975906,0.1924836546131818,nan
1740797251.2017922,-0.163693094971071,0.012191059491357457,0.06174540974292213,0.01632407320366848,nan
1740797251.2056983,-0.23383563722413495,0.10705496169246073,0.26027435439728014,-0.12062901722729838,nan
1740797251.2096043,-0.07165590008192628,0.049112887458914734,0.06842974346430586,-0.09580452035145794,nan
1740797251.2135103,0.09587234065479652,0.03207263273831049,-0.22894596092040223,-0.00012373063098934645,nan
1740797251.217416,0.06231786175237877,0.12164600392101385,-0.21001418807642921,0.021306994738173497,nan
1740797251.221322,-0.10109752785366341,0.17264235135906736,0.20275098347919024,-0.034020102405510136,nan
1740797251.225228,-0.15581516618963112,0.053047859988292,0.6433775959452241,-0.05330891432755741,nan
1740797251.2291338,-0.012665116986472423,-0.14783574316875622,0.6743590066946802,0.006675847727658546,nan
1740797251.2330427,0.16332415375937864,-0.21546406051621533,0.2056629073060851,0.05524925801386525,nan
1740797251.2369487,0.18132270184382496,-0.07933104016833009,-0.4571303485399338,0.014350608616440271,nan
1740797251.2408547,0.06645544982579607,0.1050207755567926,-0.9038313206235543,-0.04571017656563348,nan
1740797251.2447605,-0.004053863708328909,0.16081692756662525,-0.9007560685416425,0.004407978293889746,nan
1740797251.2486665,0.036198299616611924,0.09663980836339339,-0.45168920379495325,0.1479972421007722,nan
1740797251.2525725,0.054253745292823397,0.04427609376850309,0.2616723270386183,0.1988581841441933,nan
