timestamps,TP9,AF7,AF8,TP10,Right AUX
1740788765.0097384,0.03442788933000307,0.8494624280216491,0.3683199063176333,-0.05561790899394515,nan
1740788765.013643,0.022331664367078643,0.8388007774659331,0.36017261802702527,-0.057597338984105205,nan
1740788765.0175474,0.011736949473563919,0.8231804537995607,0.35377772523048745,-0.057200717659333426,nan
1740788765.021452,0.0027767853306184392,0.8026558808839771,0.34921169720083434,-0.05435281124989281,nan
1740788765.0253565,-0.004434799391340825,0.7773195133189061,0.34652500545367587,-0.04900400798820597,nan
1740788765.029261,-0.009803970415463464,0.7473010780901955,0.345741749005857,-0.04113100172820269,nan
1740788765.0331657,-0.013258058882503143,0.7127664795954752,0.3468595583129166,-0.03073721020971281,nan
1740788765.0370703,-0.014746311453409922,0.6739163785123221,0.349849778287488,-0.017852923114496717,nan
1740788765.0409749,-0.014240412196732569,0.6309844580738021,0.3546579279806682,-0.002535177782879914,nan
1740788765.0448794,-0.011734771306221312,0.584235394283066,0.36120443171337296,0.015132636793651155,nan
1740788765.0487838,-0.007246578079298453,0.533962549403303,0.3693856137026312,0.03504144434599368,nan
1740788765.0526884,-0.0008156179945011777,0.48048541067485445,0.3790749455659065,0.05705740799782457,nan
1740788765.0566142,0.00749614386912029,0.42414679861236265,0.39012453353182586,0.08102311051090082,nan
1740788765.0605187,0.017605208449414093,0.3653098713984671,0.40236682976341276,0.1067589768158182,nan
1740788765.0644233,0.0294074104069171,0.30435495379594135,0.415616549934712,0.13406492508259737,nan
1740788765.068328,0.04277899871756627,0.2416762206291279,0.42967277711599366,0.16272223026503885,nan
1740788765.0722325,0.05757791879519877,0.17767826622250543,0.4443212301377711,0.19249558189186713,nan
1740788765.076137,0.07364528274966477,0.11277259221660485,0.459336672938441,0.22313531589774568,nan
1740788765.0800414,0.090807012488877,0.04737404689961903,0.4744854399713921,0.25437979850863734,nan
1740788765.083946,0.10887563863384865,-0.01810275040975199,0.48952805156929735,0.2859579386363885,nan
1740788765.0878506,0.1276522366524814,-0.08324696631975045,0.5042218922480259,0.317591803912976,nan
1740788765.0917552,0.14692848024588895,-0.14765505830659661,0.5183239242894265,0.3489993144187138,nan
1740788765.0956597,0.16648879085434196,-0.21093419485587767,0.5315934085779244,0.3798969873421729,nan
1740788765.0995643,0.1861125611997838,-0.27270555891033893,0.5437946045840826,0.4100027052607494,nan
1740788765.1035,0.20557643005790724,-0.33260750392603206,0.5546994215902082,0.4390384804556153,nan
1740788765.1074045,0.22465658496191976,-0.39029853332938,0.5640899937368156,0.4667331876760919,nan
1740788765.111309,0.24313106928708436,-0.4454600759379128,0.5717611522296562,0.4928252380464853,nan
1740788765.1152136,0.2607820701522448,-0.4977990319398154,0.577522769077761,0.5170651673606701,nan
1740788765.1191182,0.2773981638015783,-0.5470500663015998,0.5812019480232672,0.5392181128306498,nan
1740788765.1230228,0.2927764955942832,-0.5929776289668466,0.5826450398611341,0.5590661534372449,nan
1740788765.1269274,0.3067248724266919,-0.6353776838973055,0.5817194611158151,0.5764104903630152,nan
1740788765.130832,0.3190637463332027,-0.6740791318642977,0.5783152970252107,0.5910734455566434,nan
1740788765.1347363,0.32962806914965254,-0.7089449148951132,0.5723466719597934,0.6029002582684905,nan
1740788765.1386409,0.3382689994637144,-0.7398727933866476,0.5637528727553203,0.6117606613914011,nan
1740788765.1425455,0.3448554446075053,-0.7667957900861728,0.5524992129372426,0.6175502216189461,nan
1740788765.14645,0.34927542215234925,-0.7896822983759483,0.5385776284391742,0.6201914297738041,nan
1740788765.1503718,0.35143722722670756,-0.808535855552303,0.5220069981400216,0.6196345301382477,nan
1740788765.1542764,0.35127039397691695,-0.8233945850295045,0.5028331853376995,0.6158580802123029,nan
1740788765.158181,0.34872644160574845,-0.834330314592065,0.4811287991133753,0.6088692350069047,nan
1740788765.1620855,0.34377939763457893,-0.8414473809355083,0.45699267739085964,0.598703752722732,nan
1740788765.16599,0.3364260933182607,-0.8448811337442186,0.430549096332008,0.5854257214427335,nan
1740788765.1698947,0.32668622847451884,-0.8447961554270165,0.4019467135026741,0.5691270092499953,nan
1740788765.173799,0.31460220534786437,-0.8413842153383818,0.37135725496633604,0.5499264429445623,nan
1740788765.1777036,0.3002387334876928,-0.8348619798297559,0.3389739590868198,0.5279687232454878,nan
1740788765.1816082,0.2836822099572584,-0.8254685017767841,0.30500979232074515,0.5034230870004424,nan
1740788765.1855128,0.26503988148084523,-0.8134625152924787,0.2696954546293246,0.4764817294582773,nan
1740788765.1894174,0.24443879735730456,-0.7991195631434359,0.2332771943138416,0.4473580020644109,nan
1740788765.193322,0.22202456409660432,-0.7827289859190757,0.19601445405757545,0.41628440349071605,nan
1740788765.1972423,0.19795991475046795,-0.764590803247955,0.15817737171867907,0.38351038368785556,nan
1740788765.2011468,0.17242310778807382,-0.745012518298819,0.12004416094561776,0.3492999826279537,nan
1740788765.2050514,0.1456061720940186,-0.724305877438562,0.08189839796331712,0.3139293270698979,nan
1740788765.208956,0.11771301622077776,-0.7027836172389854,0.04402624189095738,0.27768401011169935,nan
1740788765.2128603,0.08895742139591474,-0.6807562310266647,0.00671361669059069,0.24085637947951935,nan
1740788765.216765,0.059560938951399287,-0.658528786855946,-0.029756616698408022,0.20374276142913664,nan
1740788765.2206695,0.02975071379678443,-0.6363978281577859,-0.06510746931584722,0.1666406477932015,nan
1740788765.224574,-0.00024274371004069339,-0.6146483873836743,-0.09907058562660415,0.12984587408979997,nan
1740788765.2284787,-0.030187814638668837,-0.5935511417338962,-0.13138892926522877,0.09364981671045941,nan
1740788765.2323833,-0.05985403398539498,-0.573359738545785,-0.1618193655851979,0.05833663702750782,nan
1740788765.2362878,-0.08901433564295727,-0.5543083161356853,-0.1901351144946801,0.024180599803156615,nan
1740788765.2401924,-0.11744725689589976,-0.5366092438563369,-0.21612804830673332,-0.008556507449954587,nan
1740788765.2440894,-0.14493907994028474,-0.5204511028697486,-0.23961081083604618,-0.03962782850752819,nan
1740788765.247994,-0.1712858886010542,-0.5059969266672414,-0.260418735722224,-0.06880374148130193,nan
1740788765.2518985,-0.19629551931896397,-0.4933827177178559,-0.2784115439340668,-0.09587398798985355,nan
1740788765.255803,-0.21978938659243458,-0.48271625382050903,-0.2934748025910663,-0.12064960730238579,nan
1740788765.2597075,-0.24160416437641494,-0.47407619480197594,-0.30552112960594857,-0.14296465625481694,nan
1740788765.263612,-0.2615933064469742,-0.46751149717144197,-0.31449113118219546,-0.16267769788151965,nan
1740788765.2675166,-0.27962839042127313,-0.4630411412431273,-0.32035406186799026,-0.1796730440232059,nan
1740788765.2714212,-0.2956002719606779,-0.460654172102192,-0.3231081996465744,-0.1938617396387677,nan
1740788765.2753258,-0.309420037661108,-0.4603100526469983,-0.3227809314047977,-0.20518227914169454,nan
1740788765.2792304,-0.32101974722896703,-0.46193932382399133,-0.31942854703822593,-0.21360104777405117,nan
1740788765.283135,-0.33035295773181034,-0.46544456411083196,-0.31313574339334044,-0.21911248379609927,nan
1740788765.2870395,-0.3373950249775334,-0.4707016373294032,-0.3040148421855714,-0.22173896007962496,nan
1740788765.2909687,-0.3421431793912795,-0.4775612150121236,-0.29220472893667987,-0.22153038651981352,nan
1740788765.2948732,-0.344616376101466,-0.48585055683106687,-0.2778695228169847,-0.21856353749563814,nan
1740788765.2987778,-0.344854921291319,-0.49537553005629975,-0.26119699002842545,-0.21294111138384914,nan
1740788765.3026824,-0.34291987919591055,-0.5059228466627343,-0.2423967159955354,-0.2047905318388703,nan
1740788765.306587,-0.3388922664029472,-0.5172624945766437,-0.22169805411631363,-0.1942625031627875,nan
1740788765.3104913,-0.33287204232495443,-0.529150337664682,-0.1993478711382827,-0.1815293345798413,nan
1740788765.314396,-0.32497690682827973,-0.5413308574382244,-0.17560811134303608,-0.16678305057308623,nan
1740788765.3183005,-0.3153409180084629,-0.5535400080899004,-0.15075320362336037,-0.15023330661341003,nan
1740788765.322205,-0.30411294497140584,-0.5655081554105456,-0.125067337200868,-0.13210513159073575,nan
1740788765.3261096,-0.29145497219581357,-0.5769630693634861,-0.09884163314153875,-0.11263652002377429,nan
1740788765.3300142,-0.2775402735969144,-0.5876329396266025,-0.07237123996668364,-0.0920758986599987,nan
1740788765.3339188,-0.26255147576821936,-0.5972493832549509,-0.04595238251530843,-0.07067949336574031,nan
1740788765.3378465,-0.24667853103295564,-0.6055504137691471,-0.019879393781193067,-0.04870862323411607,nan
1740788765.341751,-0.23011662187757598,-0.6122833414352573,0.005558240282511627,-0.02642694959503935,nan
1740788765.3456557,-0.2130640190565187,-0.6172075752654148,0.030078793030340615,-0.00409770808881539,nan
1740788765.34956,-0.1957199161423468,-0.6200972983269534,0.05341113683652856,0.01801904784255268,nan
1740788765.3534646,-0.1782822635433775,-0.620743989290312,0.07529748125927022,0.039669163786630386,nan
1740788765.3573692,-0.16094562501892315,-0.6189587647585977,0.09549598159296861,0.06060703363571799,nan
1740788765.3612738,-0.14389907948984315,-0.6145745187880266,0.11378319095886273,0.08059815409157126,nan
1740788765.3651783,-0.12732419047149038,-0.6074478381092406,0.1299563305740406,0.09942155812674974,nan
1740788765.369083,-0.11139306475149008,-0.597460673873675,0.14383535458952576,0.11687210233929234,nan
1740788765.3729875,-0.09626652100339163,-0.584521753252906,0.15526478788311832,0.13276258460343338,nan
1740788765.376892,-0.08209238787804084,-0.5685677168870686,0.16411531741297206,0.14692567012727842,nan
1740788765.3807967,-0.06900394975918879,-0.5495639709839585,0.17028512016198658,0.15921560596200376,nan
1740788765.3847234,-0.057118556822027135,-0.527505245784861,0.1737009133073781,0.16950970614704966,nan
1740788765.388628,-0.04653641430867184,-0.5024158551071458,0.17431871500895912,0.1777095920009237,nan
1740788765.3925326,-0.03733956405057184,-0.47434965471695084,0.17212430709645937,0.183742174554391,nan
1740788765.3964372,-0.02959106924373846,-0.4433897003471361,0.16713339392234625,0.1875603687472863,nan
1740788765.4003417,-0.023334411339120616,-0.4096476092252412,0.15939145470237262,0.18914353174572238,nan
1740788765.4042463,-0.018593105669417086,-0.3732626319827166,0.14897328976124757,0.18849762055563857,nan
1740788765.408151,-0.015370540118221407,-0.334400444749848,0.1359822642044333,0.18565506698320122,nan
1740788765.4120553,-0.013650038771345982,-0.2932516740710608,0.12054925561809364,0.1806743708934828,nan
1740788765.4159598,-0.013395150098045556,-0.25003016997412203,0.10283131542667884,0.17363941561695648,nan
1740788765.4198644,-0.01455015681639092,-0.20497104506697478,0.08301005648097852,0.16465851221919697,nan
1740788765.423769,-0.01704080222705296,-0.15832849989196035,0.06128978227883738,0.15386318215374592,nan
1740788765.4276736,-0.020775225478026956,-0.11037345691527632,0.03789537590734924,0.141406690532872,nan
1740788765.431599,-0.025645095973554063,-0.061391027448046,0.013069969311650411,0.12746234484808558,nan
1740788765.4355035,-0.03152693498735688,-0.011677837465005577,-0.01292758418451649,0.11222157642526724,nan
1740788765.439408,-0.038283610505902586,0.03846076030923673,-0.03982540908148586,0.09589182418282637,nan
1740788765.4433126,-0.045765989433397124,0.08871355955229508,-0.06734145174721017,0.07869424235174417,nan
1740788765.4472172,-0.053814729556656705,0.13876642940744133,-0.09518644082376035,0.06086125569210223,nan
1740788765.4511218,-0.06226219211355822,0.1883052695979033,-0.12306693420255066,0.042633987381877216,nan
1740788765.4550264,-0.07093445445023375,0.23701896150301174,-0.15068842175127717,0.024259586143245904,nan
1740788765.458931,-0.0796534011043758,0.2846022851857711,-0.17775845225796708,0.00598848029437044,nan
1740788765.4628353,-0.08823887072772092,0.3307587727463732,-0.20398975265365354,-0.011928412741516752,nan
1740788765.46674,-0.09651083557050606,0.3752034690635245,-0.2291033074906833,-0.029242492382490663,nan
1740788765.4706445,-0.10429158980244056,0.41766557196823473,-0.25283136689071917,-0.04571026694206134,nan
1740788765.474549,-0.11140792274436584,0.4578909251629783,-0.2749203517344984,-0.06109610248157863,nan
1740788765.4784725,-0.11769325313520741,0.495644338739968,-0.2951336257401429,-0.07517489948892622,nan
1740788765.482377,-0.12298970086080122,0.53071171395009,-0.3132541052613216,-0.08773466904604106,nan
1740788765.4862816,-0.12715007312259113,0.5629019509105557,-0.32908667912038275,-0.09857898107391187,nan
1740788765.4901862,-0.13003974282046532,0.5920486201938984,-0.34246041256151255,-0.1075292584532115,nan
1740788765.4940908,-0.13153839795803177,0.6180113816905667,-0.35323051144879114,-0.1144268923003472,nan
1740788765.4979954,-0.13154164214081013,0.6406771367572996,-0.3612800251247646,-0.1191351554186608,nan
1740788765.5019,-0.12996242771610897,0.6599609024268986,-0.36652126886527325,-0.121540892925995,nan
1740788765.5058043,-0.12673230478358513,0.6758063993338758,-0.3688969495918941,-0.12155597126397998,nan
1740788765.509709,-0.12180247117110236,0.688186347975394,-0.3683809814083097,-0.11911846919960214,nan
1740788765.5136135,-0.11514461050331165,0.6971024709477255,-0.36497898058339456,-0.11419359701255244,nan
1740788765.517518,-0.10675150766993238,0.7025852018441038,-0.35872843278198163,-0.10677433279701191,nan
1740788765.5214226,-0.0966374333054455,0.7046931045394522,-0.3496985286133221,-0.09688176766694569,nan
1740788765.5253446,-0.08483829129846991,0.703512009589659,-0.3379896668951213,-0.0845651546113533,nan
1740788765.5292492,-0.0714115258331363,0.6991538774071325,-0.32373262838488115,-0.06990165877057736,nan
1740788765.5331538,-0.05643578700105902,0.6917554007102024,-0.3070874260769637,-0.052995809966673926,nan
1740788765.5370584,-0.040010356585054474,0.6814763614522207,-0.2882418414700248,-0.033978661389059354,nan
1740788765.540963,-0.022254338178136168,0.6684977599890618,-0.2674096594420828,-0.013006661380249755,nan
1740788765.5448673,-0.003305618337125272,0.6530197366146792,-0.24482861749707333,0.0097397517453543,nan
1740788765.5487719,0.016680392046999434,0.6352593077588427,-0.2207580881355664,0.034057819014422244,nan
1740788765.5526764,0.0375322245761795,0.6154479410764633,-0.19547651592293802,0.059724378617629456,nan
1740788765.556581,0.05906401448448677,0.5938289953439361,-0.169278633451777,0.08649801397845219,nan
1740788765.5604856,0.08107734003355212,0.5706550524966418,-0.1424724827944383,0.11412141133315074,nan
1740788765.5643902,0.10336322208966738,0.5461851702782613,-0.11537627119131029,0.1423239038141154,nan
1740788765.5682948,0.12570426396322013,0.5206820848144046,-0.08831509159780877,0.17082417697703114,nan
1740788765.572215,0.1478769099403479,0.4944093929611311,-0.06161754029805004,0.19933310890378453,nan
1740788765.5761197,0.16965379949831902,0.4676287445068064,-0.035612265068106816,0.22755671646727194,nan
1740788765.5800242,0.19080619298637663,0.4405970742205074,-0.01062447832227144,0.2551991780780853,nan
1740788765.5839288,0.21110644358672034,0.41356390334180304,0.013027529709670421,0.2819659022608807,nan
1740788765.5878334,0.23033048965757727,0.3867687393986187,0.03503584245561432,0.30756661074124747,nan
1740788765.591738,0.2482603411111261,0.3604386022283955,0.055106297884582336,0.33171840437064815,nan
1740788765.5956426,0.26468653329984587,0.3347857027725227,0.07296176398899727,0.3541487801826284,nan
1740788765.5995471,0.2794105219795589,0.3100052996276377,0.08834527483140524,0.37459856816024434,nan
1740788765.6034517,0.292246993287003,0.2862737564853579,0.1010229942412401,0.39282475690134255,nan
1740788765.6073563,0.30302606331256743,0.26374682149258083,0.11078697570138862,0.40860317829078296,nan
1740788765.611261,0.31159534276026907,0.24255814723854627,0.11745768874033222,0.4217310225193527,nan
1740788765.6151652,0.31782184335988645,0.2228180675456727,0.12088628422835507,0.4320291563175508,nan
1740788765.6190975,0.32159370412043026,0.2046126445340073,0.12095657334707866,0.43934421908487264,nan
1740788765.623002,0.32282171717722874,0.18800299657149064,0.11758669763914714,0.44355047367535233,nan
1740788765.6269064,0.3214406348716825,0.17302491474286116,0.11073047042497848,0.4445513909285349,nan
1740788765.630811,0.31741024179576377,0.15968877239938062,0.10037837296960117,0.44228094958998915,nan
1740788765.6347156,0.3107161778129019,0.1479797292208777,0.08655819206566472,0.4367046360226834,nan
1740788765.6386201,0.30137050051120934,0.13785822806305645,0.06933528913790442,0.42782013104364924,nan
1740788765.6425247,0.28941197813059355,0.1292607797091024,0.04881249453697041,0.41565767430109307,nan
1740788765.6464293,0.2749061067069558,0.12210102752788637,0.02512962434253448,0.40028009980558116,nan
1740788765.650334,0.2579448479678561,0.11627108099399804,-0.0015373792980739839,0.38178253951383384,nan
1740788765.6542385,0.23864608736717752,0.11164310407916367,-0.030977679544786627,0.360291795202754,nan
1740788765.658143,0.21715281453285815,0.10807114171128548,-0.06294713949554782,0.3359653822315596,nan
1740788765.6620476,0.1936320312928041,0.105393164846108,-0.09717026796258041,0.3089902521378205,nan
1740788765.6659768,0.16827339531021368,0.1034333122355997,-0.13334250072151546,0.27958120431535294,nan
1740788765.6698813,0.14128761017155725,0.10200430473296972,-0.17113279812405827,0.24797900024499642,nan
1740788765.673786,0.11290457549936994,0.100910005971141,-0.21018653668815995,0.21444819686062086,nan
1740788765.6776905,0.08337131327943469,0.09994810151161716,-0.25012866919613,0.17927471860051242,nan
1740788765.681595,0.052949689070473566,0.09891286710331064,-0.2905671249719322,0.14276319048802552,nan
1740788765.6854997,0.021913949077742464,0.09759799553296036,-0.3310964194036987,0.1052340571759795,nan
1740788765.6894042,-0.009451903804882728,0.0957994507038727,-0.3713014394532928,0.0670205152496395,nan
1740788765.6933088,-0.04085686996975896,0.09331831705856661,-0.41076136987606593,0.028465288188027047,nan
1740788765.6972134,-0.07200582239720367,0.08996361227099468,-0.4490537231828282,-0.01008272478983048,nan
1740788765.7011178,-0.10260245717203019,0.08555503127938047,-0.4857584350309421,-0.048271893238536,nan
1740788765.7050223,-0.13235229595099204,0.07992559021214776,-0.5204619857481761,-0.08575135939161324,nan
1740788765.708927,-0.1609657102497357,0.07292413957427367,-0.5527615080834752,-0.12217456660706022,nan
1740788765.712855,-0.18816093684599505,0.06441771720358601,-0.5822688410517701,-0.15720277695954643,nan
1740788765.7167597,-0.21366705332823335,0.05429371296668759,-0.60861448990049,-0.19050854239240878,nan
1740788765.7206643,-0.23722688286119284,0.04246181892961701,-0.6314514527745585,-0.2217790940025972,nan
1740788765.7245688,-0.2585997975945102,0.02885574079320083,-0.650458875592162,-0.25071961454618386,nan
1740788765.7284734,-0.27756439080714995,0.013434648708465228,-0.6653454979590725,-0.27705636011840046,nan
1740788765.732378,-0.29392098885526463,-0.003815651838321402,-0.6758528546350272,-0.3005395981745343,nan
1740788765.7362826,-0.30749397526751415,-0.02288184558277237,-0.6817581991079815,-0.3209463306070186,nan
1740788765.740187,-0.3181339009000936,-0.04372254299724775,-0.6828771182140002,-0.3380827724669079,nan
1740788765.7440915,-0.32571935591099216,-0.06626803611425719,-0.6790658094416285,-0.35178655909870266,nan
1740788765.747996,-0.3301585814237432,-0.09042038170670165,-0.6702229955562689,-0.36192865692696424,nan
1740788765.7519007,-0.3313908011067192,-0.1160538154656645,-0.6562914544456735,-0.36841495586927103,nan
1740788765.7558053,-0.3293872554739972,-0.14301549733749788,-0.6372591455928115,-0.37118752432791025,nan
1740788765.7597327,-0.3241519244945633,-0.17112658466643468,-0.6131599182952339,-0.37022551090491584,nan
1740788765.7636373,-0.3157219270526508,-0.2001836262723134,-0.5840737906365728,-0.36554568036179486,nan
1740788765.767542,-0.30416758890577095,-0.22996026711089404,-0.5501267922399485,-0.35720257487500856,nan
1740788765.7714465,-0.2895921740093588,-0.26020924975229104,-0.5114903679574261,-0.34528829528732297,nan
1740788765.775351,-0.27213127738720927,-0.2906646956064785,-0.4683803438354172,-0.32993190078881734,nan
1740788765.7792554,-0.251951881093302,-0.3210446456579978,-0.42105546090358287,-0.311298429243577,nan
1740788765.78316,-0.22925107820054452,-0.3510538374782887,-0.36981548652422624,-0.2895875441722971,nan
1740788765.7870646,-0.2042544731322519,-0.380386692495231,-0.3149989171703481,-0.26503181817006555,nan
1740788765.7909691,-0.17721426998944817,-0.4087304849456241,-0.25698029053344823,-0.23789466624542535,nan
1740788765.7948737,-0.14840706378805577,-0.43576866164544853,-0.1961671287577662,-0.20846794617459286,nan
1740788765.7987783,-0.1181313526719024,-0.4611842797102984,-0.1329965383177082,-0.17706924643746452,nan
1740788765.8026829,-0.0867047921781308,-0.48466352766745363,-0.06793149556297225,-0.14403888560461992,nan
1740788765.8066077,-0.05446121547006628,-0.5058992940415258,-0.0014568502164751494,-0.10973665014336934,nan
1740788765.8105123,-0.021747446089224805,-0.5245947464845547,0.0659249179093956,-0.0745383004739878,nan
1740788765.814417,0.011080067814983925,-0.5404668838723231,0.1336981510427273,-0.03883187770481438,nan
1740788765.8183215,0.043658766668122954,-0.5532500235117389,0.2013386341610182,-0.0030138457792695398,nan
1740788765.822226,0.0756236070847735,-0.5626991857059772,0.2683183420430523,0.032514894245828894,nan
1740788765.8261306,0.10661076936135472,-0.5685933384075139,0.3341102688430809,0.0673530794250508,nan
1740788765.8300352,0.1362614090435839,-0.5707384655534454,0.398193295184266,0.10110320999939802,nan
1740788765.8339398,0.16422541584758163,-0.568970423917967,0.46005704700238886,0.13337568375619657,nan
1740788765.8378444,0.1901651426441475,-0.5631575549252332,0.5192067000316056,0.16379289858250803,nan
1740788765.841749,0.2137590670030024,-0.553203019830068,0.5751676839180956,0.1919932819900785,nan
1740788765.8456535,0.23470534794368092,-0.5390468289785176,0.627490240477115,0.21763520665910077,nan
1740788765.8495579,0.25272524105485145,-0.5206675384859885,0.6757537915725217,0.2404007517181805,nan
1740788765.8534813,0.26756633602311986,-0.4980835905952944,0.7195710734895439,0.2599992705460233,nan
1740788765.8573859,0.27900558185134516,-0.47135427717488243,0.7585919964814908,0.2761707273396233,nan
1740788765.8612905,0.2868520666371784,-0.44058030926037794,0.7925071903853839,0.2886887665336647,nan
1740788765.865195,0.29094952071352476,-0.4059039791994022,0.8210511998024206,0.29736348136212515,nan
1740788765.8690996,0.29117851420901514,-0.3675089057969656,0.8440052953051391,0.3020438504077421,nan
1740788765.8730042,0.28745832265041543,-0.3256193568411219,0.8611998704392023,0.30261981386675413,nan
1740788765.8769088,0.2797484370788794,-0.2804991474788753,0.8725163979052429,0.2990239644403744,nan
1740788765.8808134,0.26804969826403763,-0.2324501170719099,0.8778889222038307,0.2912328312231203,nan
1740788765.884718,0.25240503794717517,-0.18181019135104026,0.8773050701698296,0.27926773866075166,nan
1740788765.8886225,0.23289981359790982,-0.12895104086699985,0.8708065651743565,0.26319522656396216,nan
1740788765.892527,0.20966172689609947,-0.07427535086289447,0.8584892352941338,0.24312702125274857,nan
1740788765.8964317,0.18286032001875138,-0.01821372172981261,0.8405025103982536,0.219219552133055,nan
1740788765.9003532,0.15270604778514876,0.03877877688813247,0.8170484078388544,0.19167301233291667,nan
1740788765.9042578,0.11944892775570684,0.09622637153868253,0.7883800112114528,0.16072996640963252,nan
1740788765.9081624,0.08337677445364723,0.15363663962942434,0.7547994514284405,0.12667351254128048,nan
1740788765.912067,0.044813027945163245,0.21050481971019333,0.7166554040810966,0.08982501099359609,nan
1740788765.9159715,0.004114191034849783,0.26631834075771177,0.6743401217071012,0.05054139496508391,nan
1740788765.919876,-0.03833310672978707,0.32056153115702934,0.6282860240880583,0.009212084117727564,nan
1740788765.9237807,-0.08211539623591893,0.37272046572034345,0.578961874032259,-0.03374447484286879,nan
1740788765.9276853,-0.1267959815006453,0.4222879070953324,0.5268685702102543,-0.07788461230547387,nan
1740788765.9315896,-0.17191884875936367,0.46876829631507677,0.47253459246513063,-0.12274355273429857,nan
1740788765.9354942,-0.21701283959278742,0.5116827460494939,0.4165111385780933,-0.16783980923800182,nan
1740788765.9393988,-0.261596052771201,0.5505739893497613,0.3593669946979409,-0.21267981738810818,nan
1740788765.9433033,-0.3051804368213255,0.5850112363443586,0.30168318450809156,-0.2567627671934154,nan
1740788765.9472244,-0.3472765329697978,0.6145948914560758,0.2440474446778196,-0.29958558973948596,nan
1740788765.951129,-0.38739832611339353,0.6389610842674128,0.18704857619965498,-0.3406480529879754,nan
1740788765.9550335,-0.4250681598320311,0.6577859681669017,0.13127072283049893,-0.3794579196218679,nan
1740788765.9589381,-0.4598216702157204,0.6707897423564585,0.07728762901188699,-0.41553611863833884,nan
1740788765.9628427,-0.4912126924366351,0.6777403546811279,0.02565693033094053,-0.44842188164603264,nan
1740788765.9667473,-0.5188180935746771,0.6784568450447138,-0.02308547021167467,-0.47767779452898135,nan
1740788765.9706519,-0.5422424852076148,0.6728122918807474,-0.06843088714251612,-0.5028947153020645,nan
1740788765.9745564,-0.5611227697097787,0.6607363272372425,-0.10990314645026024,-0.5236965096055896,nan
1740788765.978461,-0.5751324750668763,0.6422171894810225,-0.1470636375538747,-0.5397445563675469,nan
1740788765.9823656,-0.5839858343055238,0.6173032864049858,-0.17951607407305195,-0.5507419776956957,nan
1740788765.9862702,-0.5874415673471262,0.5861042455978712,-0.20691091636329695,-0.556437549037614,nan
1740788765.9901748,-0.5853063252155773,0.5487914332764414,-0.22894941141836883,-0.5566292480510405,nan
1740788765.9941063,-0.5774377590416501,0.5055979273471788,-0.24538720880893589,-0.55116740344087,nan
1740788765.9980106,-0.5637471791950885,0.45681793521877634,-0.2560375147934359,-0.5399574082207514,nan
1740788766.0019152,-0.5442017731156774,0.40280565178625066,-0.2607737505764154,-0.5229619654203871,nan
1740788766.0058198,-0.5188263539810235,0.34397355800869334,-0.25953168486868705,-0.5002028381547576,nan
1740788766.0097244,-0.487704616212235,0.2807901655609104,-0.2523110153869567,-0.4717620801657876,nan
1740788766.013629,-0.4509798779469627,0.2137772181085528,-0.23917637867939015,-0.43778272740452495,nan
1740788766.0175335,-0.40885529496744766,0.14350636479074358,-0.22025777263678264,-0.39846893590427984,nan
1740788766.0214381,-0.36159353512209236,0.07059532644735363,-0.19575038120298854,-0.35408555606139086,nan
1740788766.0253427,-0.30951590698316955,-0.0042964200460223825,-0.16591379608762055,-0.30495713844752437,nan
1740788766.0292473,-0.25300094129958206,-0.08047240931864348,-0.13107063566191499,-0.2514663713811795,nan
1740788766.0331519,-0.1924824286895148,-0.1572043724666165,-0.09160456663703409,-0.1940519556406568,nan
1740788766.0370564,-0.12844692192999813,-0.23373780080319176,-0.04795773953440927,-0.13320592685967214,nan
1740788766.0409856,-0.06143071609461872,-0.309297845884098,-0.0006276543111825908,-0.06947044126318538,nan
1740788766.0448902,0.007983675377306002,-0.3830955097510827,0.0498365222481407,-0.003434045428077329,nan
1740788766.0487947,0.07917152587102183,-0.45433407616498966,0.1028381606679141,0.06427254435534598,nan
1740788766.0526993,0.15147035466108244,-0.5222157308315764,0.15773786284470995,0.13298112283475833,nan
1740788766.0566037,0.22418480808185948,-0.5859483162874008,0.21385860978740742,0.20199110188881067,nan
1740788766.0605083,0.29659192688492997,-0.6447521652343585,0.27049132242224116,0.2705750029728822,nan
1740788766.0644128,0.36794675998697773,-0.6978669547107764,0.32690079081886975,0.3379842930190159,nan
1740788766.0683174,0.4374882812443763,-0.7445585225810111,0.38233192352853035,0.4034555173272143,nan
1740788766.072222,0.5044455626677956,-0.7841255874267844,0.43601626546254474,0.46621667980130393,nan
1740788766.0761266,0.5680441546439117,-0.8159063130397867,0.4871787299103157,0.5254938181105582,nan
1740788766.0800312,0.6275126212903251,-0.839284659349801,0.5350444879283079,0.5805177190262955,nan
1740788766.0839357,0.6820891770594519,-0.853696462774417,0.57884595644905,0.6305307173150109,nan
1740788766.0878634,0.7310283691490749,-0.8586351906392593,0.6178298250815907,0.6747935201866656,nan
1740788766.091768,0.7736077491892573,-0.8536573164810394,0.6512640607170398,0.7125919984144452,nan
1740788766.0956726,0.8091344770710874,-0.8383872656944209,0.6784448287255189,0.7432438848724195,nan
1740788766.0995772,0.8369517996717817,-0.812521884098015,0.6987032697397386,0.7661053213871115,nan
1740788766.1034815,0.856445347618123,-0.7758343855509982,0.7114120717666886,0.7805771954705026,nan
1740788766.107386,0.8670491941168792,-0.7281777387216688,0.7159917786487955,0.7861112096934126,nan
1740788766.1112907,0.8682516212629718,-0.6694874574609938,0.7119167777009036,0.7822156281624961,nan
1740788766.1151953,0.8596005411057296,-0.5997837639322771,0.6987209116663644,0.7684606467699563,nan
1740788766.1190999,0.8407085210979528,-0.5191730986536474,0.6760026629465664,0.7444833365763898,nan
1740788766.1230044,0.8112573663550451,-0.4278489568814836,0.6434298613410837,0.7099921128435317,nan
1740788766.126909,0.7710022143911136,-0.32609203625560423,0.6007438702637632,0.6647706858303022,nan
1740788766.1308136,0.7197751016507083,-0.21426968629457885,0.5477632105427727,0.6086814534737349,nan
1740788766.1347404,0.6574879651900266,-0.09283465612337996,0.48438658543560775,0.5416683004634294,nan
1740788766.138645,0.5841350472475714,0.03767685731405023,0.4105952753551972,0.4637587729480144,nan
1740788766.1425495,0.4997946751457112,0.17664785240860495,0.3264548759696472,0.37506560314523857,nan
1740788766.146454,0.40463039394282024,0.32338384338686393,0.2321163587616939,0.2757875634215745,nan
1740788766.1503587,0.2988914344691475,0.4771168383458925,0.12781643876843424,0.16620963491761584,nan
1740788766.1542633,0.1829125047848212,0.6370099493427853,0.013877240018828797,0.046702481475239116,nan
1740788766.1581678,0.05711289864968889,0.8021626035714422,-0.10929474490403865,-0.0822787745773115,nan
1740788766.1620724,-0.07800507975503937,0.9716163193971146,-0.24121039877810718,-0.22019647235552517,nan
1740788766.165977,-0.2218583699124316,1.1443610060307168,-0.3813004187566594,-0.36643301974669534,nan
1740788766.1698816,-0.37378607721923274,1.3193417409544006,-0.5289184361657171,-0.5202941739599762,nan
1740788766.1737862,-0.5330530471004643,1.4954659748996653,-0.6833447969250057,-0.6810129753466275,nan
1740788766.1776905,-0.6988540691323472,1.67161111026839,-0.8437909767350886,-0.8477543088963824,nan
1740788766.1816154,-0.8703186839035845,1.846632395411508,-1.009404599671141,-1.0196200623569753,nan
1740788766.1855197,-1.0465165601247137,2.019371074171738,-1.1792750235657066,-1.1956548446967497,nan
1740788766.1894243,-1.2264634045136646,2.1886627275839072,-1.3524394505953015,-1.3748522236813348,nan
1740788766.1933289,-1.4091273622871496,2.3533457426330213,-1.5278895168527806,-1.5561614367090253,nan
1740788766.1972334,-1.5934358617138729,2.5122698415157343,-1.7045783104301886,-1.7384945247872197,nan
1740788766.201138,-1.778282852176162,2.664304603950025,-1.8814277636933725,-1.9207338356726549,nan
1740788766.2050426,-1.9625363815778123,2.8083479147408967,-2.05733636203437,-2.1017398387764263,nan
1740788766.2089472,-2.145046455760539,2.9433342690416158,-2.231187108471022,-2.2803591914822268,nan
1740788766.2128518,-2.3246531198790272,3.0682428685509042,-2.4018556810519613,-2.455432994070455,nan
1740788766.2167563,-2.500194699460324,3.1821054432514906,-2.5682187181410514,-2.625805168504903,nan
1740788766.220661,-2.670516137158768,3.2840137352149523,-2.729162165316097,-2.790330894941355,nan
1740788766.2245655,-2.834477360029645,3.3731265834571427,-2.8835896168348913,-2.94788503897269,nan
1740788766.228489,-2.990961611495725,3.448676551808367,-3.0304305844054324,-3.097370502342193,nan
1740788766.2323935,-3.1388836820787174,3.5099760452388864,-3.1686486263492712,-3.237726430140082,nan
1740788766.236298,-3.2771979734154404,3.5564228640249005,-3.2972492711656636,-3.3679362083472353,nan
1740788766.2402027,-3.404906331074648,3.5875051495205095,-3.415287670982332,-3.4870351869992096,nan
1740788766.2441072,-3.521065583228473,3.6028056800808277,-3.521875922404623,-3.594118066202403,nan
1740788766.2480118,-3.624794724301289,3.6020054808205533,-3.616189994831875,-3.6883458847274984,nan
1740788766.2519162,-3.715281685302745,3.5848867163477727,-3.6974762093767954,-3.768952553913091,nan
1740788766.2558208,-3.7917896356305056,3.551334841338742,-3.7650572150747106,-3.8352508831102448,nan
1740788766.2597253,-3.8536627646772836,3.5013399897672293,-3.8183374130749494,-3.8866380468577937,nan
1740788766.26363,-3.900331495567466,3.4349975897217435,-3.8568077839322497,-3.922600448365764,nan
1740788766.2675345,-3.9313170877482944,3.3525081969832873,-3.8800500779244254,-3.9427179386634927,nan
1740788766.271439,-3.9462355899330914,3.2541765468423627,-3.887740333472699,-3.9466673558999887,nan
1740788766.2753618,-3.944801109999884,3.1404098299531253,-3.8796516941890364,-3.934225354723304,nan
1740788766.2792664,-3.926828373845538,3.0117152043009012,-3.8556565007742125,-3.90527050136748,nan
1740788766.283171,-3.892234550838129,2.8686965615432816,-3.815727639892156,-3.859784615991329,nan
1740788766.2870755,-3.841040329351459,2.7120505720219588,-3.759939138200373,-3.7978533498930327,nan
1740788766.29098,-3.773370231856424,2.542562038580841,-3.688465995870573,-3.7196659914162145,nan
1740788766.2948847,-3.6894521651338543,2.3610985949159753,-3.601583260136052,-3.6255145006143357,nan
1740788766.2987893,-3.5896162073111286,2.168604789476781,-3.499664345599267,-3.5157917789974125,nan
1740788766.3026938,-3.4742926395586395,1.9660956008909836,-3.383178614171951,-3.3909891868949864,nan
1740788766.3065982,-3.3440092363599287,1.7546494354552369,-3.2526882335483087,-3.251693327078848,nan
1740788766.3105028,-3.199387834239904,1.5354006613810314,-3.108844338978187,-3.098582119246124,nan
1740788766.3144073,-3.041140204648153,1.309531738175863,-2.9523825287613548,-2.9324201957171163,nan
1740788766.318312,-2.8700632622999347,1.0782650027417726,-2.784117729278627,-2.7540536542036675,nan
1740788766.3222327,-2.6870336456283463,0.8428541764602434,-2.604938470464159,-2.5644042087059042,nan
1740788766.3261373,-2.49300171105217,0.6045756596817627,-2.415800617363417,-2.3644627844536426,nan
1740788766.3300416,-2.2889849874721016,0.36471968163236046,-2.2177206077727427,-2.1552826072822913,nan
1740788766.3339462,-2.0760611417338173,0.12458137477523201,-2.011768249882832,-1.937971841883743,nan
1740788766.3378508,-1.8553605097028347,-0.1145481568846932,-1.7990591373169862,-1.713685836966278,nan
1740788766.3417554,-1.6280582510505772,-0.351390706194706,-1.5807467419370418,-1.483619038463609,nan
1740788766.34566,-1.395366188824358,-0.5846896992944336,-1.3580142472609609,-1.2489966345258783,nan
1740788766.3495646,-1.158524397341159,-0.8132187327257113,-1.1320661872762912,-1.0110659980830927,nan
1740788766.3534691,-0.9187926038856199,-1.0357898456694443,-0.9041199568277776,-0.7710879942773234,nan
1740788766.3573737,-0.6774414710904745,-1.2512614641411115,-0.675397260594799,-0.5303282210018523,nan
1740788766.3612783,-0.4357438277214598,-1.4585459568702066,-0.4471155679494461,-0.2900482511562447,nan
1740788766.3651829,-0.19496591587190215,-1.6566167459757215,-0.22047964069812054,-0.05149694502381546,nan
1740788766.3691137,0.04364127770704547,-1.8445149193995078,0.003326800137260518,0.1840980995950897,nan
1740788766.3730183,0.2788505392529824,-2.021355296337692,0.22314920373906047,0.4155388931963144,nan
1740788766.3769228,0.5094667291180077,-2.1863319015794906,0.437870052288183,0.6416651319199148,nan
1740788766.3808274,0.7343348028045606,-2.3387228096814843,0.6464163967568445,0.8613619444399364,nan
1740788766.384732,0.9523474907923357,-2.477894325229567,0.8477670082695096,1.0735672493324513,nan
1740788766.3886366,1.162452578987106,-2.603304471023757,1.0409590910151503,1.277278667272275,nan
1740788766.3925412,1.363659735045811,-2.7145057618139727,1.225094506544389,1.471559936276653,nan
1740788766.3964458,1.5550468296996067,-2.8111472471673618,1.399345463537754,1.6555467825016024,nan
1740788766.4003503,1.73576570647379,-2.892975813108036,1.5629596317479886,1.8284522037655038,nan
1740788766.404255,1.9050473578533669,-2.9598367382856914,1.7152646437591539,1.989571127983859,nan
1740788766.4081595,2.0622064709252155,-3.0116735065478175,1.8556719534242863,2.138284414004763,nan
1740788766.412064,2.2066453107989847,-3.0485268838583464,1.9836800252956592,2.27406216789007,nan
1740788766.4159935,2.3378569156235796,-3.0705332734717943,2.0988768349993507,2.3964663534440107,nan
1740788766.419898,2.4554275827267933,-3.0779223690852033,2.200941666279653,2.5051526816988847,nan
1740788766.4238026,2.5590386312630655,-3.071014131301278,2.2896461962984986,2.599871770075186,nan
1740788766.4277072,2.6484674327083995,-3.0502151180975776,2.36485486666994,2.680469567989078,nan
1740788766.4316118,2.7235877065410703,-3.0160142050635494,2.4265245435888376,2.7468870517312856,nan
1740788766.4355164,2.784369084440731,-2.9689777358973486,2.47470347622587,2.799159197436141,nan
1740788766.439421,2.830875952275899,-2.9097441480087416,2.5095295682582646,2.8374132468464923,nan
1740788766.4433255,2.863265584980196,-2.8390181220174164,2.5312279829387214,2.86186628630904,nan
1740788766.44723,2.8817855950919298,-2.757564307435847,2.540108107427319,2.8728221649570225,nan
1740788766.4511347,2.886770721201813,-2.666200679854905,2.5365599071781957,2.8706677833062195,nan
1740788766.4550393,2.878638987774112,-2.5657915874850876,2.521049705942233,2.8558687884617906,nan
1740788766.4589438,2.8578872727338145,-2.4572405469277214,2.494115431379731,2.8289647167661953,nan
1740788766.4628727,2.8250863238057042,-2.341482849544423,2.4563613703370315,2.7905636289739686,nan
1740788766.4667773,2.7808752688128737,-2.2194780407498342,2.4084524814954777,2.7413362868826443,nan
1740788766.470682,2.725955668957896,-2.0922023349675123,2.35110831632139,2.6820099237497446,nan
1740788766.4745865,2.6610851674888716,-1.9606410288617977,2.285096602006784,2.6133616637563524,nan
1740788766.478491,2.5870707890682856,-1.8257809747944367,2.211226542371803,2.536211648215725,nan
1740788766.4823956,2.504761947592323,-1.6886031752632245,2.13034189448501,2.4514159281523904,nan
1740788766.4863002,2.4150432221338662,-1.5500755573752094,2.043313880034806,2.3598591842795273,nan
1740788766.4902048,2.318826962090051,-1.4111459842077791,1.9510339912471164,2.262447336271147,nan
1740788766.4941094,2.2170457834957813,-1.27273555724017,1.854406751388451,2.1601001035564886,nan
1740788766.498014,2.1106450188134445,-1.135732260922706,1.7543424896212598,2.0537435796575894,nan
1740788766.5019186,2.0005751823264335,-1.0009849969222335,1.6517501891967976,1.944302881352542,nan
1740788766.5058231,1.8877845125546577,-0.8692980516740394,1.5475304666902487,1.8326949326864206,nan
1740788766.5097504,1.7732116518834207,-0.7414260366207232,1.4425687382189767,1.7198214420837796,nan
1740788766.513655,1.6577785218666967,-0.6180693359671698,1.337728626356887,1.6065621285600107,nan
1740788766.5175595,1.542383450450108,-0.4998700919709025,1.233845658789372,1.4937682503067404,nan
1740788766.521464,1.4278946046801644,-0.3874087527633969,1.1317213066713772,1.3822564857661415,nan
1740788766.5253687,1.3151437793508236,-0.28120120250687547,1.0321174071863422,1.272803213741352,nan
1740788766.5292733,1.2049205885162058,-0.1816964883803455,0.9357510109899998,1.16613923514951,nan
1740788766.5331779,1.0979671029026197,-0.0892751535065078,0.8432896910968112,1.0629449747476587,nan
1740788766.5370824,0.9949729720205589,-0.004248179526409652,0.7553473453674842,0.963846196590187,nan
1740788766.540987,0.8965710652471156,0.07314346285014664,0.6724805201246936,0.8694102621521116,nan
1740788766.5448916,0.8033336613630038,0.14272866229539852,0.5951852776039432,0.7801429550200049,nan
1740788766.5487962,0.7157692110297924,0.2044054264766838,0.5238946249818266,0.6964858908578351,nan
1740788766.5527008,0.6343196915271375,0.2581395700105571,0.45897651766005176,0.6188145260457794,nan
1740788766.5566256,0.5593585677833581,0.30396285274435897,0.400732444366374,0.5474367730141873,nan
1740788766.5605302,0.4911893683727685,0.3419705949077298,0.34939659650891863,0.4825922249006573,nan
1740788766.5644348,0.43004487976736777,0.37231879994216516,0.3051356191339355,0.42445198679374163,nan
1740788766.5683393,0.37608695676631804,0.395220819756003,0.26804893583364237,0.37311910553977357,nan
1740788766.572244,0.32940694173112295,0.410943600732417,0.23816963507430589,0.3286295849261532,nan
1740788766.5761485,0.2900266800736005,0.4198035520099773,0.2154659007072759,0.29095396806034546,nan
1740788766.5800529,0.25790011442249133,0.42216208033367186,0.19984296492762743,0.2599994639820011,nan
1740788766.5839574,0.23291543507578777,0.41842083811761477,0.19114555769462796,0.2356125910172227,nan
1740788766.587862,0.21489775977067838,0.4090167332516593,0.1891608226607089,0.2175823051473557,nan
1740788766.5917666,0.20361231150980244,0.3944167506098817,0.19362166600388167,0.20564357775554037,nan
1740788766.5956712,0.19876805920706747,0.3751126361707901,0.20421050125186,0.19948138356485245,nan
1740788766.5995758,0.2000217822912053,0.35161549513294393,0.2205633502507188,0.19873505642109188,nan
1740788766.6034992,0.20698251715984578,0.3244503554057789,0.24227425788919976,0.20300296782629962,nan
1740788766.6074038,0.2192163405367533,0.29415074737846014,0.26889997606034377,0.21184748081704402,nan
1740788766.6113083,0.23625144237198148,0.2612533499285648,0.29996487063982746,0.2248001299215225,nan
1740788766.615213,0.25758343895673813,0.22629275124059473,0.33496600399582493,0.24136697653444125,nan
1740788766.6191175,0.28268087541565284,0.18979637117902884,0.37337834472503556,0.2610340881269092,nan
1740788766.623022,0.31099086569819706,0.15227958972305342,0.41466005593614735,0.2832730892644433,nan
1740788766.6269267,0.3419448176236535,0.11424112334518761,0.4582578134738208,0.3075467324392745,nan
1740788766.6308312,0.37496419044096807,0.07615868823191209,0.503612105987501,0.3333144372289455,nan
1740788766.6347358,0.40946623274290544,0.03848498593265115,0.5501624696903331,0.3600377472627249,nan
1740788766.6386404,0.4448696494153327,0.0016440434181473292,0.5973526120105341,0.3871856558976106,nan
1740788766.642545,0.4806001475956672,-0.03397206433287234,0.6446353800935581,0.4142397533594827,nan
1740788766.6464493,0.5160958133436295,-0.06800608518000283,0.6914775322474015,0.44069915037140145,nan
1740788766.6503713,0.5508122728730339,-0.10013803431942067,0.7373642729114526,0.4660851359454749,nan
1740788766.654276,0.5842275947321228,-0.1300871970464537,0.7818035145441665,0.4899455300292397,nan
1740788766.6581805,0.6158468922254471,-0.15761367888106903,0.8243298329367934,0.5118586950409912,nan
1740788766.662085,0.6452065886126997,-0.1825194966906734,0.8645080858369462,0.5314371739671607,nan
1740788766.6659896,0.6718783111668185,-0.2046492089865299,0.9019366683725945,0.548330926592318,nan
1740788766.6698942,0.6954723839899107,-0.22389008807491004,0.9362503825678196,0.5622301395503095,nan
1740788766.6737988,0.7156408935340173,-0.24017184116943585,0.9671229021986298,0.5728675901832085,nan
1740788766.6777034,0.7320803050152545,-0.2534658918754879,0.9942688183116163,0.5800205486317562,nan
1740788766.681608,0.7445336123040693,-0.26378423760122127,1.0174452548806985,0.5835122071142322,nan
1740788766.6855125,0.7527920083795249,-0.27117790239455314,1.0364530482678487,0.5832126299373106,nan
1740788766.6894171,0.7566960680095531,-0.2757350084156472,1.0511374883428846,0.5790392223792039,nan
1740788766.6933217,0.7561364389193295,-0.2775784926965275,1.0613886232656324,0.5709567211493703,nan
1740788766.697242,0.7510540422939619,-0.2768634989830458,1.0671411340027426,0.5589767136180187,nan
1740788766.7011464,0.7414397879875873,-0.27377447727200227,1.068373788603534,0.5431566973813352,nan
1740788766.705051,0.7273338142376203,-0.26852202612372034,1.0651084900588397,0.5235986959450005,nan
1740788766.7089555,0.7088242659705345,-0.2613395149271962,1.057408935179599,0.5004474503310941,nan
1740788766.71286,0.6860456298959436,-0.2524795250042468,1.0453789053262124,0.4738882102060094,nan
1740788766.7167647,0.6591766484825894,-0.24221014974781052,1.0291602129656687,0.4441441516560798,nan
1740788766.7206693,0.6284378385592211,-0.2308111948886736,1.0089303309045392,0.41147345197244445,nan
1740788766.7245739,0.5940886436537587,-0.2185703204693356,0.9848997336179616,0.3761660547196174,nan
1740788766.7284784,0.5564242522470412,-0.20577916617239989,0.9573089823469844,0.33854016092875905,nan
1740788766.732383,0.5157721168473993,-0.19272950130683486,0.9264255875514379,0.29893848445571963,nan
1740788766.7362876,0.472488211166962,-0.17970944000555356,0.8925406838687397,0.25772431135823587,nan
1740788766.7401922,0.42695306468144983,-0.1669997610428797,0.8559655539300092,0.21527740456246855,nan
1740788766.7441242,0.379567615467026,-0.15487037015506155,0.8170280382165264,0.17198979609671897,nan
1740788766.7480288,0.3307489234192691,-0.14357694085929595,0.7760688685985074,0.1282615097637167,nan
1740788766.7519333,0.2809257867630642,-0.13335776753809211,0.7334379632844699,0.08449625730059018,nan
1740788766.755838,0.2305343051544033,-0.12443086201104116,0.68949072062701,0.041097150839444416,nan
1740788766.7597423,0.1800134326561371,-0.11699132198256279,0.6445843485868233,-0.0015375261624846997,nan
1740788766.7636468,0.12980056344355248,-0.11120899666228383,0.5990742656620077,-0.043018448396173824,nan
1740788766.7675514,0.08032719227022514,-0.10722647153668019,0.5533106077580786,-0.08296923887729413,nan
1740788766.771456,0.032014690511379215,-0.10515739076107182,0.5076348738228857,-0.12103028191951125,nan
1740788766.7753606,-0.014729762983935695,-0.10508513197597742,0.4623767411196794,-0.15686232313944806,nan
1740788766.7792652,-0.059517058940742835,-0.10706184456862562,0.41785107878382616,-0.190149823192788,nan
1740788766.7831697,-0.10197980758784102,-0.1111078585373114,0.3743551858292474,-0.22060403470278686,nan
1740788766.7870743,-0.14177572903199887,-0.11721146721210216,0.3321662770670358,-0.24796577487220603,nan
1740788766.791004,-0.1785907545011126,-0.12532908317906336,0.2915392375001874,-0.2720078695360564,nan
1740788766.7949085,-0.21214181199372936,-0.13538576288542312,0.25270466269599035,-0.2925372478821284,nan
1740788766.7988129,-0.24217927320464974,-0.147276091608018,0.2158671994434513,-0.3093966707039077,nan
1740788766.8027174,-0.268489042114332,-0.16086541678415542,0.18120419771064605,-0.32246607881979467,nan
1740788766.806622,-0.29089426929854456,-0.1759914141684748,0.14886468155962218,-0.33166355215604215,nan
1740788766.8105266,-0.30925667979780264,-0.19246596792565498,0.11896864328893267,-0.33694587391056796,nan
1740788766.8144312,-0.32347750624668953,-0.21007734262910946,0.09160666168984374,-0.33830869815234643,nan
1740788766.8183358,-0.3334980228636419,-0.22859262223996485,0.06683984195575743,-0.33578632312848294,nan
1740788766.8222404,-0.3392996798047975,-0.24776038851595317,0.04470007150824696,-0.329451076410397,nan
1740788766.826145,-0.340903841253686,-0.26731360897090667,0.02519058282953365,-0.3194123217751717,nan
1740788766.8300495,-0.33837113441540356,-0.28697270249365747,0.008286811350795596,-0.3058151013522369,nan
1740788766.833954,-0.3318004202737761,-0.3064487490586275,-0.006062466432414552,-0.28883843003511817,nan
1740788766.837882,-0.32132740051860254,-0.32544680863396586,-0.01793373213502315,-0.26869326243066965,nan
1740788766.8417866,-0.3071228784246324,-0.34366931342801094,-0.02742708193903649,-0.24562015566388118,nan
1740788766.8456912,-0.2893906946338118,-0.36081949701886773,-0.03466436256024719,-0.21988665414722214,nan
1740788766.8495958,-0.2683653617288227,-0.3766048236888099,-0.03978711093296789,-0.19178442493458667,nan
1740788766.8535004,-0.24430942416308551,-0.3907403814354123,-0.04295432352561123,-0.16162617448891384,nan
1740788766.8574047,-0.2175105725066703,-0.4029522026513399,-0.044340082615721955,-0.12974237958050774,nan
1740788766.8613093,-0.18827854305846833,-0.4129804773474911,-0.0441310679683468,-0.09647786658401279,nan
1740788766.8652139,-0.156941835645109,-0.4205826250290933,-0.04252398316813212,-0.06218827464348496,nan
1740788766.8691185,-0.12384428386216775,-0.42553619290739836,-0.03972292634813955,-0.02723643901806695,nan
1740788766.873023,-0.08934151310230348,-0.4276415500234262,-0.03593673523517637,0.00801126860010732,nan
1740788766.8769276,-0.05379732245056862,-0.42672434905442613,-0.0313763362937329,0.04318860589080054,nan
1740788766.8808322,-0.017580026905263016,-0.4226377300450163,-0.026252127302926285,0.0779330951791247,nan
1740788766.8847587,0.018941203597345538,-0.41526424302746157,-0.0207714219506581,0.11188959213299736,nan
1740788766.8886633,0.05539997221134105,-0.4045174694408906,-0.015135983987125085,0.14471375279989418,nan
1740788766.8925679,0.09143621480367334,-0.3903433253971458,-0.00953967715925457,0.17607536519631398,nan
1740788766.8964725,0.1266996567356329,-0.3727210331391435,-0.004166255564805644,0.2056615132844097,nan
1740788766.900377,0.16085313371829263,-0.35166375046258896,0.0008126827616298693,0.23317954309604597,nan
1740788766.9042816,0.19357574531789395,-0.32721885138884027,0.0052395582675549045,0.2583598029738847,nan
1740788766.9081862,0.22456581164025013,-0.2994678549501691,0.008972469791831337,0.28095813236833056,nan
1740788766.9120908,0.253543605946913,-0.26852600254273346,0.011886635872734594,0.3007580763320845,nan
1740788766.9159954,0.2802538384263502,-0.23454148788122556,0.013875603934186593,0.3175728057624617,nan
1740788766.9199,0.3044678690346178,-0.19769434711671707,0.014852216520561477,0.33124672652547726,nan
1740788766.9238045,0.3259856302039373,-0.1581950201206514,0.014749326532475914,0.34165676382339705,nan
1740788766.927709,0.3446372432645798,-0.11628259725910768,0.013520256259461207,0.34871331150621476,nan
1740788766.931635,0.3602843156044376,-0.0722227691496796,0.011138997880235852,0.3523608394437465,nan
1740788766.9355395,0.3728209088696082,-0.02630549987740723,0.007600155977251889,0.35257815553445737,nan
1740788766.939444,0.3821741718552928,0.02115755308305359,0.002918635459267516,0.3493783223954359,nan
1740788766.9433486,0.38830463511622876,0.06983584646130925,-0.0028709189256294018,0.34280823222079576,nan
1740788766.9472532,0.39120616770628264,0.11938295825782537,-0.009714922602603792,0.33294784667944544,nan
1740788766.9511578,0.39090559980469775,0.16943976426083435,-0.017541879237605466,0.31990911201458555,nan
1740788766.9550624,0.38746201826929694,0.2196377523176439,-0.026263622943668876,0.3038345626746241,nan
1740788766.958967,0.38096574534296074,0.26960244131224603,-0.03577675843013373,0.28489562981792543,nan
1740788766.9628716,0.37153701379848075,0.318956870782868,-0.04596428080800264,0.26329067386320265,nan
1740788766.9667761,0.359324354709386,0.3673251264379713,-0.05669735488334285,0.23924276287659776,nan
1740788766.9706807,0.3445027167531733,0.41433586650307996,-0.06783723211733561,0.21299722097106005,nan
1740788766.9745853,0.327271338463307,0.4596258138559213,-0.07923728202257917,0.18481897302138886,nan
1740788766.9785087,0.3078513971241959,0.5028431792826603,-0.09074511361382225,0.15498971384985896,nan
1740788766.9824133,0.28648346002846403,0.5436509819087867,-0.1022047616483916,0.12380493159608753,nan
1740788766.9863179,0.26342476557012123,0.5817302339165121,-0.11345891178506537,0.09157081623708675,nan
1740788766.9902225,0.238946363115387,0.616782958044964,-0.12435113846505676,0.058601085158842665,nan
1740788766.994127,0.2133301417626299,0.6485350080654968,-0.13472812927729994,0.025213758291887503,nan
1740788766.9980316,0.18686577896463602,0.6767386644144834,-0.14444186981155438,-0.008272084393865021,nan
1740788767.0019362,0.15984764053403785,0.7011749794295405,-0.1533517635232303,-0.04153953028606163,nan
1740788767.0058408,0.13257166378296648,0.7216558491491635,-0.16132666192670866,-0.07427701404264278,nan
1740788767.0097454,0.10533225546087344,0.7380257913746717,-0.16824678148995326,-0.10618141833838954,nan
1740788767.01365,0.07841923575296941,0.7501634126294876,-0.17400548491026438,-0.13696106476946943,nan
1740788767.0175545,0.0521148588921552,0.7579825497545142,-0.17851090599457045,-0.16633856554668147,nan
1740788767.021459,0.02669093992863194,0.7614330751185815,-0.18168739913069254,-0.19405350820022008,nan
1740788767.0253808,0.0024061159057942945,0.7605013577671038,-0.18347679629931962,-0.21986494737888834,nan
1740788767.0292854,-0.020496731876870265,0.7552103762469004,-0.18383945671881585,-0.24355367993487506,nan
1740788767.03319,-0.04179286965587706,0.7456194822964956,-0.18275509651352415,-0.26492428181894484,nan
1740788767.0370946,-0.061277894250634374,0.7318238180448534,-0.18022338822625095,-0.2838068878456226,nan
1740788767.0409992,-0.07876968683587562,0.7139533927831464,-0.1762643225314917,-0.3000586980973701,nan
1740788767.0449038,-0.09411011937060423,0.6921718287299462,-0.17091832712071617,-0.3135651975927726,nan
1740788767.0488083,-0.10716649823820464,0.6666747884670458,-0.16424614039716123,-0.32424107881712577,nan
1740788767.052713,-0.11783273241265219,0.6376880998487969,-0.15632844030699494,-0.33203085977414337,nan
1740788767.0566175,-0.12603021633413483,0.6054655971517623,-0.14726523131830538,-0.3369091933338706,nan
1740788767.060522,-0.13170842062481203,0.5702867000044701,-0.13717499521088947,-0.3388808667927588,nan
1740788767.0644267,-0.13484518677204702,0.5324537541920554,-0.12619361393072237,-0.3379804936957463,nan
1740788767.068331,-0.13544672492217136,0.4922891607426338,-0.11447307526613788,-0.3342719030658367,nan
1740788767.0722518,-0.13354731693254193,0.45013232174893575,-0.1021799744922142,-0.32784723421330697,nan
1740788767.0761564,-0.1292087297934917,0.40633643314021217,-0.08949382738065102,-0.3188257482243351,nan
1740788767.080061,-0.1225193474255379,0.36126515607879384,-0.07660521206133394,-0.30735237002880583,nan
1740788767.0839655,-0.11359303165244508,0.31528919979896847,-0.0637137591269654,-0.2935959775919215,nan
1740788767.0878701,-0.10256772582022634,0.2687828495223238,-0.051026011074074604,-0.2777474572383026,nan
1740788767.0917747,-0.089603817050039,0.2221204735658138,-0.03875317365451846,-0.26001754637672736,nan
1740788767.0956793,-0.07488227545492718,0.17567304390228702,-0.027108782956134527,-0.24063448692695294,nan
1740788767.0995839,-0.05860259079425181,0.12980470423736928,-0.016306313026524178,-0.21984151453783338,nan
1740788767.1034884,-0.04098052896506192,0.08486941913368834,-0.0065567495896886934,-0.19789421021154563,nan
1740788767.107393,-0.02224573241869827,0.04120773684944288,0.0019338441261526548,-0.17505774219807085,nan
1740788767.1112976,-0.002639190028063956,-0.0008563026276846954,0.008966743234717222,-0.15160402698591022,nan
1740788767.1152022,0.01758939689675182,-0.04101808436615406,0.014352932574595844,-0.12780883888114822,nan
1740788767.119134,0.03818432484965669,-0.07899513190096591,0.017915407842864464,-0.10394889803193322,nan
1740788767.1230385,0.05888664641708818,-0.1145295911408024,0.01949138131434358,-0.0802989668171628,nan
1740788767.126943,0.07943694807704921,-0.14739046096611916,0.01893436786620072,-0.057128984277175436,nan
1740788767.1308477,0.09957811893323346,-0.17737554926675012,0.016116128167023847,-0.03470126772457056,nan
1740788767.134752,0.11905808205809482,-0.20431313592849573,0.010928447272087576,-0.013267809841491144,nan
1740788767.1386566,0.13763246065166,-0.22806332721796704,0.0032847284782277163,0.006932301544436194,nan
1740788767.1425612,0.15506715203281352,-0.24851908910436346,-0.006878615883871514,0.025675315197390046,nan
1740788767.1464658,0.17114078355706247,-0.26560695026505166,-0.01960099302358854,0.042755075554675365,nan
1740788767.1503704,0.18564702588737048,-0.2792873688169136,-0.03489669174187918,0.05798508685908499,nan
1740788767.154275,0.19839674061781964,-0.28955476016476067,-0.05275418972822084,0.07120036214286422,nan
1740788767.1581795,0.20921994104669708,-0.29643718672837693,-0.07313571539975589,0.08225903915277329,nan
1740788767.162084,0.21796754689701522,-0.2999957136676926,-0.09597707100595895,0.0910437477661844,nan
1740788767.166013,0.2245129159673926,-0.30032343803796435,-0.1211877210724649,0.097462716054673,nan
1740788767.1699176,0.22875313804183692,-0.29754420204086646,-0.14865114755887293,0.1014506048771186,nan
1740788767.1738222,0.2306100788691056,-0.29181100416138206,-0.17822547038464065,0.10296906370127508,nan
1740788767.1777267,0.2300311646152962,-0.2833041249633253,-0.20974432926244863,0.10200700323198837,nan
1740788767.1816313,0.22698989987075854,-0.2722289871290475,-0.24301802009726828,0.09858058333672588,nan
1740788767.185536,0.22148611502701654,-0.25881377194376787,-0.2778348765890368,0.09273291767516348,nan
1740788767.1894405,0.21354594160346552,-0.24330681681624325,-0.31396288514411247,0.08453349932985683,nan
1740788767.193345,0.20322151686930223,-0.22597382057190105,-0.35115151878139156,0.07407735457040232,nan
1740788767.1972497,0.19059042184575475,-0.20709488513114072,-0.389133773437731,0.06148393463557549,nan
1740788767.2011542,0.17575485945976477,-0.18696142377587235,-0.4276283879575042,0.046895758059159055,nan
1740788767.2050588,0.1588405822261564,-0.16587296749623778,-0.4663422271144584,0.03047681856927829,nan
1740788767.2089634,0.13999558133522902,-0.14413390188427253,-0.5049728052802573,0.012410775933241658,nan
1740788767.212891,0.11938855139196997,-0.12205016769281293,-0.54321092684116,-0.00710105072304002,nan
1740788767.2167957,0.09720714726845685,-0.09992595849991634,-0.5807434181877031,-0.027841865641132023,nan
1740788767.2207003,0.07365605157099715,-0.07806044890876095,-0.6172559250752983,-0.04958173199622041,nan
1740788767.2246048,0.048954873068326445,-0.056744586370717935,-0.652435748387,-0.07208003561437383,nan
1740788767.2285094,0.023335898059035916,-0.03625797904865189,-0.6859746908315856,-0.09508805092471495,nan
1740788767.232414,-0.0029582819401359644,-0.01686591114557635,-0.7175718868857246,-0.11835158227095675,nan
1740788767.2363186,-0.029677241641581337,0.0011834841795205515,-0.7469365883412877,-0.1416136530240779,nan
1740788767.2402232,-0.0565652671165586,0.017661865788384114,-0.7737908781474894,-0.16461721453817732,nan
1740788767.2441278,-0.08336394850498911,0.03236311279608869,-0.797872285839761,-0.18710784687773988,nan
1740788767.2480323,-0.10981479381961852,0.04510551556987454,-0.8189362787173614,-0.2088364234171629,nan
1740788767.251937,-0.13566183724421382,0.05573370739356349,-0.8367586040614436,-0.22956171186974408,nan
1740788767.2558415,-0.16065421547964087,0.06412031730400804,-0.8511374590636235,-0.24905288503811823,nan
1740788767.259768,-0.18454868611206332,0.07016732740547502,-0.8618954667486796,-0.26709191558297163,nan
1740788767.2636726,-0.2071120626589463,0.07380712093189357,-0.8688814380080248,-0.283475830371109,nan
1740788767.2675772,-0.22812354188301714,0.07500321042596399,-0.8719719018949653,-0.2980188014737942,nan
1740788767.2714818,-0.2473769001418025,0.07375063860786539,-0.8710723885486071,-0.3105540526261095,nan
1740788767.2753863,-0.26468253694773247,0.0700760477827018,-0.8661184514885499,-0.32093556190942596,nan
1740788767.2792907,-0.27986934553639503,0.0640374169527442,-0.8570764185338958,-0.3290395435617782,nan
1740788767.2831953,-0.29278639206105794,0.05572346912512271,-0.8439438632226698,-0.3347656941328053,nan
1740788767.2870998,-0.3033043870310589,0.045252754605054187,-0.8267497913155155,-0.3380381906570375,nan
1740788767.2910044,-0.31131693476946753,0.03277241930648031,-0.8055545397337145,-0.3388064310965501,nan
1740788767.294909,-0.3167415489590812,0.01845667026414906,-0.7804493880786335,-0.33704550997485444,nan
1740788767.2988136,-0.3195204247520153,0.0025049535626306195,-0.7515558856799847,-0.33275642486117346,nan
1740788767.3027182,-0.31962096041206606,-0.014860137221326014,-0.7190248998957719,-0.32596601213995985,nan
1740788767.3066432,-0.3170360240154735,-0.03339520126464472,-0.6830353941101495,-0.31672661328648366,nan
1740788767.3105478,-0.31178396332860175,-0.05283859613700885,-0.6437929465192688,-0.3051154756373008,nan
1740788767.3144524,-0.303908359584237,-0.07291320327170756,-0.6015280233334139,-0.2912338943662414,nan
1740788767.318357,-0.2934775284654792,-0.09332936569255944,-0.5564940224309677,-0.2752061050249101,nan
1740788767.3222616,-0.2805837741515046,-0.1137879686791964,-0.5089651057519342,-0.25717793855463766,nan
1740788767.3261662,-0.2653424047573552,-0.13398363260008606,-0.4592338407935717,-0.23731525309884893,nan
1740788767.3300707,-0.2478905198856916,-0.1536079859933406,-0.40760867344724144,-0.2158021592165185,nan
1740788767.3339753,-0.228385583278297,-0.17235298614070074,-0.35441125607525187,-0.1928390571959123,nan
1740788767.33788,-0.2070037956866377,-0.1899142538684441,-0.29997365615255817,-0.1686405070723231,nan
1740788767.3417845,-0.1839382850529324,-0.2059943891251917,-0.2446354719764316,-0.14343295364480343,nan
1740788767.345689,-0.15939713288650792,-0.22030623403263283,-0.18874088286571963,-0.11745233024825402,nan
1740788767.3495936,-0.13360125731736708,-0.23257605057944047,-0.13263566192090057,-0.09094156625417377,nan
1740788767.353517,-0.1067821746941679,-0.2425465809265985,-0.07666417979009076,-0.06414802423381623,nan
1740788767.3574214,-0.07917966275412212,-0.24997995940604237,-0.021166427980708634,-0.03732089341214642,nan
1740788767.361326,-0.051039349316443834,-0.25466044671305127,0.03352490992951389,-0.010708566463100535,nan
1740788767.3652306,-0.022610251130421345,-0.2563969585023673,0.08708731129336651,0.015443973157762747,nan
1740788767.3691351,0.005857712062185393,-0.2550253625815836,0.13921116445723855,0.040897726279052124,nan
1740788767.3730397,0.03411620301660191,-0.2504105211338168,0.18960238974334537,0.06542218882164072,nan
1740788767.3769443,0.061920926873788404,-0.24244805687276924,0.23798490647176015,0.08879777237232218,nan
1740788767.380849,0.08903404063117645,-0.23106582471308126,0.2841029226516922,0.11081810949014127,nan
1740788767.3847535,0.1152264879631231,-0.21622507340095884,0.3277230257103325,0.1312922199108124,nan
1740788767.388658,0.14028023598708578,-0.19792128456643104,0.3686360545793626,0.15004651525505658,nan
1740788767.3925626,0.16399039163405224,-0.17618467979987082,0.40665873560489935,0.1669266215144716,nan
1740788767.3964672,0.1861671765670935,-0.15108038959059236,0.4416350670646444,0.18179900046642644,nan
1740788767.4003892,0.20663774108657793,-0.1227082812630821,0.47343743954385176,0.1945523532384637,nan
1740788767.4042938,0.22524779914892065,-0.09120244637423904,0.5019674820146667,0.2050987914814785,nan
1740788767.4081984,0.24186306849018316,-0.056730351360494216,0.5271566261560067,0.21337476399688804,nan
1740788767.412103,0.2563705018671418,-0.019491658514267055,0.5489663842166864,0.2193417291716971,nan
1740788767.4160075,0.26867929758582143,0.02028327240712955,0.5673883385356193,0.22298656618147067,nan
1740788767.419912,0.2787216797587557,0.062335188511988195,0.582443843661747,0.22432172059807912,nan
1740788767.4238167,0.2864534410943243,0.10637803761983146,0.5941834448349573,0.2233850827598345,nan
1740788767.4277213,0.291854243450123,0.1521013323600663,0.6026860193695388,0.22023959999834225,nan
1740788767.4316258,0.2949276738530843,0.1991727626097156,0.6080576501963262,0.21497262654176522,nan
1740788767.4355304,0.2957010561766183,0.24724103191613356,0.6104302434415508,0.20769501760021847,nan
1740788767.439435,0.29422502114445287,0.2959388913462151,0.6099599044235902,0.1985399767588909,nan
1740788767.4433396,0.29057283977701903,0.34488634225610976,0.6068250888084975,0.18766166833146336,nan
1740788767.4472601,0.28483952778450683,0.39369397780413756,0.6012245478579118,0.1752336087350631,nan
1740788767.4511647,0.27714073071718526,0.44196643165048727,0.5933750887070238,0.1614468532139717,nan
1740788767.4550693,0.26761140188506893,0.4893059012139062,0.5835091724057472,0.14650799633970862,nan
1740788767.458974,0.25640428713354946,0.5353157120983015,0.5718723740253339,0.1306370066287137,nan
1740788767.4628785,0.2436882324885537,0.5796038898683763,0.558720730459789,0.11406491732635166,nan
1740788767.466783,0.2296463324448939,0.6217867052471532,0.5443180026234165,0.09703139689008898,nan
1740788767.4706876,0.21447393824748295,0.6614921590306843,0.5289328795519845,0.07978222395043696,nan
1740788767.4745922,0.1983765468912787,0.6983633735638785,0.5128361524474114,0.06256669252312898,nan
1740788767.4784968,0.18156759272890635,0.7320618584911652,0.49629788695915655,0.04563497397974659,nan
1740788767.4824014,0.16426616451341933,0.7622706196776942,0.4795846219672214,0.029235462749465115,nan
1740788767.486306,0.1466946714086907,0.7886970816797975,0.46295662282209304,0.013612132916725134,nan
1740788767.4902105,0.12907648196477522,0.8110757959126155,0.44666521640916995,-0.0009980672032242096,nan
1740788767.4941413,0.1116335602760584,0.8291709087011683,0.43095023454506626,-0.014367755786307751,nan
1740788767.498046,0.09458412351437073,0.8427783656885628,0.41603759108926835,-0.02628156742259243,nan
1740788767.5019505,0.07814034475824737,0.8517278315893622,0.40213701677812275,-0.03653848703633858,nan
1740788767.505855,0.06250612452636667,0.8558843069927384,0.3894399741727483,-0.044954043747459885,nan
1740788767.5097597,0.047874953673593436,0.8551494268125556,0.37811777327432433,-0.051362342011033214,nan
