timestamps,TP9,AF7,AF8,TP10,Right AUX
1740789283.9625037,-0.009185026527612949,0.08177205228556314,0.14563499161409463,0.1839636661942587,nan
1740789283.9664094,0.0010342870978807277,0.045890165167755306,0.18656047492637765,0.2023080221182873,nan
1740789283.9703152,0.010445849921611692,0.010583163703804585,0.22696859835420913,0.2197790954957792,nan
1740789283.9742212,0.01890581843537902,-0.023809259901749844,0.2664993145810588,0.23615639732529323,nan
1740789283.978127,0.026282398999409283,-0.056958087419755214,0.30480365587636493,0.2512307659446848,nan
1740789283.9820328,0.03245747599183347,-0.08854815245005423,0.3415468777535245,0.26480660303416237,nan
1740789283.9859385,0.0373280887921489,-0.1182811626021713,0.3764114464455287,0.27670396332538894,nan
1740789283.9898443,0.0408077407169912,-0.14587853709080248,0.40909984230808283,0.2867604764914098,nan
1740789283.9937503,0.0428275248316706,-0.17108403283757467,0.43933715321567424,0.29483308148644144,nan
1740789283.997656,0.0433370535292207,-0.19366613442770378,0.46687343421668265,0.30079955559688687,nan
1740789284.0015619,0.042305180879455326,-0.21342018575702898,0.49148581213628995,0.304559822634542,nan
1740789284.0054677,0.03972050898155166,-0.23017024389566007,0.5129803164356733,0.3060370270271241,nan
1740789284.009377,0.03559167188152422,-0.24377063856140987,0.5311934204258796,0.3051783630158676,nan
1740789284.0132828,0.02994739301612303,-0.2541072236100024,0.5459932798664084,0.3019556507295438,nan
1740789284.0171885,0.0228363145920436,-0.261098310079257,0.5572806590222412,0.29636565354249855,nan
1740789284.0210943,0.014326599778105766,-0.2646952735394602,0.5649895373781493,0.2884301338139954,nan
1740789284.0250003,0.004505311052302787,-0.26488283176973715,0.569087393384222,0.27819564681969783,nan
1740789284.028906,-0.006522429520534984,-0.2616789920679109,0.5695751647999806,0.2657330753957696,nan
1740789284.0328119,-0.01863448992692634,-0.2551346707764877,0.5664868883845127,0.25113691049412573,nan
1740789284.0367177,-0.03169297730850849,-0.2453329908377816,0.5598890248152054,0.23452428546654847,nan
1740789284.0406237,-0.04554567388973098,-0.2323882663450505,0.5498794777770893,0.21603377442907368,nan
1740789284.0445294,-0.060027645024861055,-0.21644468610324205,0.5365863191184549,0.19582396748050032,nan
1740789284.0484352,-0.07496300274705683,-0.1976747111228903,0.520166234787599,0.17407183783567476,nan
1740789284.052341,-0.09016680646025743,-0.17627720371588076,0.500802708922779,0.15097091806207852,nan
1740789284.0562499,-0.10544708086182944,-0.15247530841602228,0.4787039659372876,0.1267293045559773,nan
1740789284.0601559,-0.1206069298369618,-0.1265141072862784,0.45410069270023257,0.1015675111422027,nan
1740789284.0640616,-0.13544672393916668,-0.09865807427625502,0.4272435649398097,0.07571619421222565,nan
1740789284.0679674,-0.14976633817731788,-0.06918835513851698,0.3984006037704929,0.0494137731131266,nan
1740789284.0718732,-0.16336741617823775,-0.03839990098363347,0.36785438975227724,0.022903970552573902,nan
1740789284.075779,-0.1760556363923291,-0.006598484837519343,0.3358991631152405,-0.00356670141832494,nan
1740789284.079685,-0.18764295586306118,0.02590236845068802,0.3028378397153464,-0.029751483749316104,nan
1740789284.0835907,-0.1979498071914025,0.058784507924313056,0.2689789729198179,-0.055405914702914366,nan
1740789284.0874965,-0.20680722469305568,0.09172830646696596,0.23463369194785813,-0.08029034978075993,nan
1740789284.0914023,-0.21405887636673293,0.12441580353974925,0.2001126472129536,-0.10417243118819965,nan
1740789284.0953083,-0.21956297915975506,0.15653380952666004,0.16572299292818074,-0.1268294813050652,nan
1740789284.099214,-0.22319407612489472,0.18777694107732026,0.13176543664992274,-0.14805079543630173,nan
1740789284.1031287,-0.22484465539884294,0.21785055770792236,0.09853138455574564,-0.1676398101747068,nan
1740789284.1070344,-0.22442659248474794,0.24647357108421616,0.06630021008908706,-0.18541612500844978,nan
1740789284.1109402,-0.22187239907379327,0.2733810998514159,0.03533667216999684,-0.20121735633477605,nan
1740789284.114846,-0.21713626357603782,0.2983269445792903,0.005888507483171547,-0.21490080478248771,nan
1740789284.118752,-0.21019487062963388,0.3210858593381432,-0.021815780569878325,-0.22634491868152737,nan
1740789284.1226578,-0.2010479890987549,0.3414555985921883,-0.047568915807918645,-0.23545053862824222,nan
1740789284.1265635,-0.18971882043160276,0.35925872046827056,-0.07118660798322399,-0.2421419103581498,nan
1740789284.1304693,-0.17625410170680536,0.37434413000534517,-0.09250906066017692,-0.2463674555308995,nan
1740789284.1343753,-0.1607239602243924,0.3865883486872311,-0.11140221529351996,-0.24810029253025595,nan
1740789284.138281,-0.1432215190706025,0.3958964993803757,-0.12775872130108049,-0.24733850195967677,nan
1740789284.1421869,-0.12386225567779331,0.4022029987108897,-0.14149862477327468,-0.24410513414517945,nan
1740789284.1460927,-0.10278311798507436,0.40547195189141977,-0.15256977136700392,-0.23844795861467402,nan
1740789284.1500008,-0.08014140535547033,0.40569724801853185,-0.16094792186507792,-0.23043895817992785,nan
1740789284.1539066,-0.05611342389514044,0.40290235687492926,-0.16663658181413518,-0.22017357287643013,nan
1740789284.1578124,-0.030892928223621195,0.3971398312578601,-0.16966654955462723,-0.20776970159112187,nan
1740789284.1617184,-0.004689364036410925,0.3884905217858554,-0.17009518979644872,-0.19336647170185564,nan
1740789284.1656241,0.022274072041645797,0.37706251398136775,-0.1680054426448119,-0.17712278944026744,nan
1740789284.16953,0.0497625368141654,0.3629898001589015,-0.16350458061537537,-0.15921568594706811,nan
1740789284.1734357,0.07753178876354011,0.3464307012401453,-0.15672272866937628,-0.1398384760927615,nan
1740789284.1773415,0.10533055825248999,0.32756605604402594,-0.14781116462373756,-0.11919874906592041,nan
1740789284.1812475,0.13290301632853763,0.3065971978370787,-0.13694041942509036,-0.0975162114658699,nan
1740789284.1851532,0.15999131760684104,0.28374373995655133,-0.12429819869944778,-0.0750204051592309,nan
1740789284.189059,0.18633819177440183,0.2592411941157967,-0.11008714868216973,-0.05194832345478752,nan
1740789284.1929648,0.21168955758053842,0.23333844655201252,-0.09452249107979865,-0.028541950205348998,nan
1740789284.1968758,0.23579713276289574,0.20629511846557214,-0.07782955260237229,-0.005045747247895413,nan
1740789284.2007818,0.2584210132103026,0.17837883821667277,-0.060241215821255314,0.018295883863753137,nan
1740789284.2046876,0.2793321947865563,0.14986245347945595,-0.04199531864474886,0.04124113960204372,nan
1740789284.2085934,0.2983150116323228,0.12102121200044244,-0.023332030056877333,0.0635533254434801,nan
1740789284.2124991,0.3151694654234558,0.09212993976353036,-0.0044912298308889915,0.08500331409914018,nan
1740789284.2164052,0.32971342098744083,0.06346024522793972,0.014290080290987633,0.10537192554090884,nan
1740789284.220311,0.34178464485739585,0.03527777788085958,0.03278030696289055,0.1244522041519583,nan
1740789284.2242167,0.35124266476448657,0.007839568638770309,0.05075571093667935,0.1420515693684091,nan
1740789284.2281225,0.35797042972138593,-0.018608521351112028,0.0680027429371258,0.15799381745967642,nan
1740789284.2320285,0.36187575221621093,-0.0438342182041012,0.0843202458515705,0.1721209536051562,nan
1740789284.2359343,0.3628925161002835,-0.06762109527706925,0.09952150091863955,0.18429483514916647,nan
1740789284.23984,0.3609816359943769,-0.08977065355437648,0.11343609736932733,0.19439860883720844,nan
1740789284.2437537,0.3561317564351299,-0.1101042023073048,0.1259116069478274,0.20233792693516223,nan
1740789284.2476594,0.3483596815128104,-0.12846452203392045,0.13681504689812624,0.2080419293878788,nan
1740789284.2515655,0.3377105283886972,-0.1447172939990464,0.14603411732244623,0.21146398156187393,nan
1740789284.2554712,0.32425760079944843,-0.1587522831551421,0.15347820127477427,0.2125821596144991,nan
1740789284.259377,0.3081019814297205,-0.17048426380891737,0.15907911852098744,0.21139947811355905,nan
1740789284.2632828,0.28937184483591477,-0.17985368007873184,0.16279162654960624,0.20794385717098762,nan
1740789284.2671888,0.2682214954051546,-0.1868270359369712,0.16459366512629886,0.20226782902495144,nan
1740789284.2710946,0.24483013760653766,-0.1913970124212512,0.16448634342255333,0.19444798667961347,nan
1740789284.2750003,0.21940038850868807,-0.19358231240041565,0.1624936714861782,0.18458417986369283,nan
1740789284.278906,0.19215654517110092,-0.19342723606719242,0.1586620405298664,0.17279846617084801,nan
1740789284.2828119,0.1633426220402977,-0.1910009930709743,0.15305945916610786,0.15923382777041778,nan
1740789284.286718,0.13322017586966695,-0.18639675987398469,0.14577455528480007,0.14405266650051443,nan
1740789284.2906277,0.10206593790963264,-0.1797304934850405,0.1369153557274587,0.1274350924520358,nan
1740789284.2945335,0.07016927515965098,-0.1711395151718036,0.12660785823380905,0.1095770232986092,nan
1740789284.2984395,0.03782950431425747,-0.1607808800501627,0.11499441229877286,0.0906881136016437,nan
1740789284.3023453,0.005353083652701104,-0.14882955057566793,0.10223192755839876,0.0709895351014888,nan
1740789284.306251,-0.026949290501381805,-0.13547639389560004,0.08848993010185317,0.050711630576698696,nan
1740789284.3101568,-0.05876565500224802,-0.12092602474235638,0.07394848866500542,0.030091465197524713,nan
1740789284.3140628,-0.08978579018420665,-0.1053945170427067,0.05879603398372669,0.009370300402883435,nan
1740789284.3179686,-0.11970424006493614,-0.08910700866852538,0.04322709565821388,-0.011208983819216993,nan
1740789284.3218744,-0.14822331297882055,-0.07229522475107718,0.027439981692880963,-0.03140449177855802,nan
1740789284.3257802,-0.1750560331654736,-0.05519494571347373,0.011634426421403627,-0.05097791326628337,nan
1740789284.3296862,-0.19992901412478717,-0.0380434466378747,-0.003990767201869644,-0.06969709623468727,nan
1740789284.333592,-0.22258522512467688,-0.021076934771638564,-0.019240064967137108,-0.0873385643554417,nan
1740789284.3375018,-0.24278662310677732,-0.0045280118887819935,-0.033923492733755715,-0.10368995333193336,nan
1740789284.3414075,-0.26031662337150296,0.01137681213836036,-0.04785885656887459,-0.11855234060105985,nan
1740789284.3453133,-0.2749823838275061,0.02641952883310742,-0.060873867372926674,-0.13174244407866376,nan
1740789284.349219,-0.28661687924871926,0.040392938842423884,-0.07280814674016446,-0.14309466687080763,nan
1740789284.353125,-0.29508074388019906,0.05310283421204106,-0.08351509212383422,-0.15246296637815554,nan
1740789284.3570309,-0.30026386285398526,0.06437003290611071,-0.09286358092868639,-0.1597225279479638,nan
1740789284.3609366,-0.30208669519870684,0.07403224487802389,-0.10073949492215725,-0.1647712251607238,nan
1740789284.3648424,-0.30050131372966066,0.08194575081597727,-0.1070470483209272,-0.16753085095720355,nan
1740789284.3687482,-0.29549214976602123,0.08798687669259692,-0.11170990505105287,-0.16794810609552804,nan
1740789284.3726542,-0.28707643341328665,0.09205324942123687,-0.11467207297495548,-0.16599533385444015,nan
1740789284.37656,-0.275304323045427,0.0940648212400139,-0.11589856530312054,-0.16167099244367747,nan
1740789284.3804657,-0.2602587205945505,0.09396465288398931,-0.11537582193701447,-0.15499985922034226,nan
1740789284.384375,-0.24205477227761013,0.09171944814098894,-0.11311188609582631,-0.14603296351462167,nan
1740789284.3882809,-0.22083905743043916,0.08731983499120252,-0.10913633423601303,-0.1348472476124411,nan
1740789284.3921866,-0.19678847114962972,0.08078039117803132,-0.10349995995115188,-0.12154495819876991,nan
1740789284.3960927,-0.17010880943293355,0.07213941472057948,-0.09627421521245601,-0.10625277330600397,nan
1740789284.3999984,-0.14103306842955363,0.06145844252924197,-0.08755041494906657,-0.08912067250916854,nan
1740789284.4039042,-0.10981947223431969,0.04882152289805793,-0.07743871354446573,-0.0703205607367364,nan
1740789284.40781,-0.07674924635624904,0.03433425019408431,-0.06606686431368643,-0.05004465859581254,nan
1740789284.411716,-0.04212415653575826,0.018122572519056704,-0.05357877539928905,-0.028503674517848663,nan
1740789284.4156218,-0.0062638349503805115,0.00033138545707239725,-0.040132877757269717,-0.005924776291300359,nan
1740789284.4195275,0.030497081987495192,-0.01887707277981558,-0.025900322973429715,0.01745061836219152,nan
1740789284.4234333,0.06781197809737283,-0.0393250074606877,-0.011063030534380314,0.0413692106129466,nan
1740789284.4273393,0.10532541632196948,-0.06082101549977971,0.0041883941448928605,0.0655683255069999,nan
1740789284.4312484,0.14267640276763768,-0.08316217482524323,0.019656848181016526,0.08977852840674605,nan
1740789284.4351542,0.17950172545884138,-0.10613625267057385,0.03514100219947675,0.11372632697144587,nan
1740789284.43906,0.21543933650024677,-0.129524009307538,0.05043762889713235,0.1371369318017796,nan
1740789284.4429657,0.2501317457664728,-0.15310157278525577,0.06534396355971754,0.15973704818068132,nan
1740789284.4468718,0.28322939397056784,-0.17664285954012532,0.0796600704770333,0.18125767092509826,nan
1740789284.4507775,0.31439397300163385,-0.1999220153024844,0.0931911890479299,0.20143685422511404,nan
1740789284.4546833,0.34330166177054333,-0.2227158505523489,0.10575003349529111,0.22002242849008055,nan
1740789284.458589,0.3696462464581339,-0.2448062448697937,0.11715902051736245,0.23677463664540696,nan
1740789284.4624949,0.39314209501754804,-0.2659824948842114,0.12725239988251105,0.25146866302490734,nan
1740789284.4664009,0.41352695703321984,-0.2860435811468377,0.13587826392342303,0.2638970289759685,nan
1740789284.4703066,0.43056456157263384,-0.3048003301259387,0.142900413094764,0.2738718305290919,nan
1740789284.4742124,0.4440469874693658,-0.3220774486446461,0.1482000562135437,0.28122679496826763,nan
1740789284.4781208,0.45379678253082883,-0.33771540943582845,0.15167732568938574,0.2858191348596513,nan
1740789284.4820268,0.4596688104526237,-0.3515721680625571,0.15325258995581334,0.2875311800370285,nan
1740789284.4859326,0.46155180672206764,-0.36352469323017267,0.15286754741414582,0.28627177018439465,nan
1740789284.4898384,0.45936962748321947,-0.3734702944783848,0.150486088477641,0.2819773929782286,nan
1740789284.4937441,0.45308217818898083,-0.38132773336880665,0.1460949147317154,0.2746130552317263,nan
1740789284.4976501,0.4426860118559633,-0.38703810655295634,0.13970390678184147,0.26417287709636794,nan
1740789284.501556,0.4282145898362413,-0.3905654914945451,0.13134623501769108,0.2506804020968767,nan
1740789284.5054617,0.4097382011974948,-0.3918973481032124,0.12107821025307386,0.23418861857720538,nan
1740789284.5093675,0.3873635400290155,-0.3910446720891465,0.10897887397791603,0.21477969098993702,nan
1740789284.5132735,0.36123294323474087,-0.38804189844296594,0.09514933075220694,0.19256440234114677,nan
1740789284.5171793,0.3315232946047303,-0.3829465560560783,0.07971182805353637,0.1676813119788076,nan
1740789284.521085,0.29844460414219925,-0.37583867709659646,0.06280859163033652,0.14029563575649964,nan
1740789284.5249934,0.26223827473362915,-0.3668199673180709,0.04460042708379139,0.11059785838728088,nan
1740789284.5288992,0.22317507125439942,-0.3560127459762702,0.025265100974140187,0.07880209049709619,nan
1740789284.5328052,0.1815528100727162,-0.343558666437442,0.004995517194870277,0.04514418546610096,nan
1740789284.536711,0.13769378962225873,-0.3296172308550027,-0.016002293345187928,0.009879633583797072,nan
1740789284.5406168,0.09194198523253513,-0.31436411444677037,-0.03751134957111455,-0.026718746684822044,nan
1740789284.5445225,0.04466003371065768,-0.2979893168996212,-0.05930604153961898,-0.0643632984426629,nan
1740789284.5484283,-0.0037739647636761274,-0.28069516024191593,-0.08115457239994721,-0.10275417336228822,nan
1740789284.5523343,-0.05296979805719234,-0.2626941541378203,-0.10282149576863356,-0.1415821105526158,nan
1740789284.55624,-0.10252861590746994,-0.24420675095473182,-0.1240703220596049,-0.18053132050149825,nan
1740789284.5601459,-0.15204649399916054,-0.22545901412105968,-0.14466616637076543,-0.21928244617061857,nan
1740789284.5640516,-0.20111805519669718,-0.20668022421450563,-0.1643784098677229,-0.2575155724576755,nan
1740789284.5679576,-0.24934011420985425,-0.18810044789088556,-0.18298334623331694,-0.29491325466196605,nan
1740789284.5718656,-0.2963153116602021,-0.1699480951736448,-0.20026678467334988,-0.3311635362995127,nan
1740789284.5757713,-0.34165570353213587,-0.15244749076980418,-0.2160265811871516,-0.3659629266167742,nan
1740789284.579677,-0.3849862723322555,-0.1358164849577269,-0.23007507032556096,-0.3990193084483747,nan
1740789284.5835829,-0.42594832694309304,-0.1202641292065308,-0.24224137046534788,-0.43005474765223384,nan
1740789284.587489,-0.4642027591358444,-0.10598844104017158,-0.2523735367211806,-0.45880817622990955,nan
1740789284.5913947,-0.4994331259932683,-0.09317428175736293,-0.2603405369847626,-0.4850379223931078,nan
1740789284.5953004,-0.5313485290766888,-0.08199136947072976,-0.26603402821320743,-0.508524062258591,nan
1740789284.5992062,-0.55968626303541,-0.07259244854643505,-0.2693699119700361,-0.5290705695297149,nan
1740789284.6031122,-0.5842142084858062,-0.06511163492280159,-0.27028965033473534,-0.5465072414379023,nan
1740789284.607018,-0.6047329463607422,-0.059662954979635086,-0.26876132562026145,-0.5606913813530041,nan
1740789284.6109238,-0.6210775735258938,-0.05633909363708045,-0.2647804298500929,-0.5715092208075159,nan
1740789284.6148295,-0.6331192022532061,-0.05521036520442501,-0.258370372622653,-0.5788770661931781,nan
1740789284.6187403,-0.640766129107019,-0.056323918197126635,-0.24958269880517098,-0.5827421580554825,nan
1740789284.622646,-0.6439646619070303,-0.059703182917997276,-0.2384970104233637,-0.583083233705988,nan
1740789284.6265519,-0.6426995966547293,-0.06534756808075032,-0.22522059011867285,-0.5799107867668196,nan
1740789284.6304576,-0.6369943396156258,-0.07323241016661734,-0.2098877266012268,-0.5732670202281067,nan
1740789284.6343637,-0.6269106731066976,-0.08330917657413806,-0.19265874560326027,-0.5632254926080666,nan
1740789284.6382694,-0.6125481669151522,-0.0955059209754351,-0.17371875290356154,-0.5498904598275385,nan
1740789284.6421752,-0.5940432406381497,-0.1097279866564644,-0.1532760990172067,-0.5333959184160398,nan
1740789284.646081,-0.5715678855514597,-0.12585895102122693,-0.13156057809552585,-0.5139043586251613,nan
1740789284.649987,-0.5453280578560508,-0.14376180190723417,-0.10882137642857374,-0.4916052389079413,nan
1740789284.6538928,-0.5155617582840307,-0.16328033391819124,-0.08532478865665068,-0.4667131960009867,nan
1740789284.6577985,-0.4825368160389959,-0.1842407506548511,-0.06135172235045096,-0.4394660074919205,nan
1740789284.6617043,-0.44654839787156825,-0.20645345654077427,-0.03719501398412037,-0.4101223262414885,nan
1740789284.6656144,-0.4079162657212756,-0.22971501991889995,-0.01315658147674542,-0.3789592083324601,nan
1740789284.6695204,-0.36698180876546616,-0.2538102872585876,0.010455559607586273,-0.34626945831300365,nan
1740789284.6734262,-0.32410487788084413,-0.27851462668055105,0.0333303874541259,-0.3123588173690125,nan
1740789284.677332,-0.27966045242256643,-0.30359627759601576,0.05515704285841144,-0.2775430216790619,nan
1740789284.6812377,-0.23403517084069628,-0.32881878208163906,0.07562804433730373,-0.2421447595602519,nan
1740789284.6851437,-0.18762375796829583,-0.35394347268595655,0.09444251749002835,-0.20649055708919836,nan
1740789284.6890495,-0.1408253828164457,-0.37873199069639507,0.11130940614063733,-0.1709076226682597,nan
1740789284.6929553,-0.094039981388861,-0.4029488084959628,0.12595063264705642,-0.13572068149418806,nan
1740789284.696861,-0.04766457937551244,-0.42636372951029033,0.13810417494155003,-0.10124883106898458,nan
1740789284.700767,-0.00208964959697279,-0.4487543393909384,0.14752702837365145,-0.06780244876815762,nan
1740789284.7046728,0.042304461251522124,-0.4699083824990696,0.1539980212567723,-0.03568018205010048,nan
1740789284.7085786,0.0851510026624878,-0.4896260384412692,0.15732045416776644,-0.0051660511552492645,nan
1740789284.7124882,0.12610015427298588,-0.5077220743601873,0.15732453450572714,0.023473306888601615,nan
1740789284.7163942,0.16482219210295956,-0.5240278498879319,0.15386957956987293,0.049991225458654184,nan
1740789284.7203,0.2010104570670105,-0.5383931531180741,0.14684596345132464,0.0741634008269604,nan
1740789284.7242057,0.23438409764657234,-0.550687847628831,0.136176785331732,0.09579006590447649,nan
1740789284.7281115,0.2646905607769748,-0.5608033124788586,0.12181923932211167,0.11469792329616509,nan
1740789284.7320175,0.29170780742329644,-0.5686536591796241,0.10376566873458469,0.13074181804752316,nan
1740789284.7359233,0.3152462319671452,-0.5741767119037617,0.08204429063214044,0.1438061329874761,nan
1740789284.739829,0.3351502673782442,-0.5773347395946434,0.05671957961925946,0.15380589227389432,nan
1740789284.7437348,0.35129966117265954,-0.5781149311745672,0.027892303089622095,0.16068756159993486,nan
1740789284.7476408,0.36361041033461383,-0.576529607681964,-0.004300796494964121,0.16442953649426126,nan
1740789284.7515466,0.37203534667048915,-0.5726161678752365,-0.03968767329039463,0.16504231321694957,nan
1740789284.7554524,0.37656436744019034,-0.5664367665949199,-0.07806200124805159,0.1625683398855255,nan
1740789284.759362,0.377224309539847,-0.558077727948731,-0.11918454283824577,0.15708154863136076,nan
1740789284.7632678,0.37407846895775365,-0.5476486981474611,-0.16278485392883174,0.14868657275435487,nan
1740789284.7671735,0.36722577065907264,-0.5352815455453084,-0.20856331204780357,0.1375176559821948,nan
1740789284.7710793,0.35679959744081147,-0.5211290180981446,-0.2561934519751933,0.1237372640184072,nan
1740789284.7749853,0.34296628960406056,-0.5053631710197866,-0.305324589456281,0.10753441155017696,nan
1740789284.778891,0.3259233304831915,-0.48817357986323767,-0.35558471083691934,0.08912272075282705,nan
1740789284.7827969,0.3058972359205885,-0.46976535655533447,-0.40658360362312335,0.06873823004408473,nan
1740789284.7867026,0.28314116865060723,-0.4503569880453601,-0.45791620039002406,0.046636974380439476,nan
1740789284.7906086,0.2579323012297874,-0.4301780191684153,-0.5091661061363247,0.023092360724480974,nan
1740789284.7945144,0.230568953595476,-0.4094666030520497,-0.5599092771245371,-0.0016076355779891557,nan
1740789284.7984202,0.20136753352797276,-0.38846694389131753,-0.6097178174862043,-0.02716342591035284,nan
1740789284.802326,0.17065931021034042,-0.3674266581667581,-0.6581638584246144,-0.05326688579202416,nan
1740789284.806235,0.13878705270611355,-0.3465940813679921,-0.7048234837314193,-0.07960452407434027,nan
1740789284.8101408,0.10610156649195923,-0.32621554800133046,-0.7492806645614286,-0.1058607124079743,nan
1740789284.8140469,0.07295816217678054,-0.30653267309466303,-0.7911311659914892,-0.1317209427612777,nan
1740789284.8179526,0.03971309120046119,-0.2877796635609676,-0.8299863878315714,-0.15687508038321207,nan
1740789284.8218584,0.006719983627678264,-0.270180687640433,-0.8654771024618143,-0.18102057954096304,nan
1740789284.8257642,-0.0256736768688506,-0.25394733021032423,-0.8972570531381758,-0.20386562962276358,nan
1740789284.82967,-0.057130006105820405,-0.2392761610344336,-0.9250063772372831,-0.2251321997795653,nan
1740789284.833576,-0.08732406654267795,-0.22634644202609094,-0.9484348202908046,-0.2445589511803758,nan
1740789284.8374817,-0.11594707550514163,-0.21531799832913198,-0.9672847083800487,-0.26190398716764246,nan
1740789284.8413875,-0.14270944285685758,-0.20632927649129637,-0.9813336485083154,-0.2769474131102114,nan
1740789284.8452933,-0.16734360817243293,-0.19949561122877088,-0.9903969289240994,-0.28949367954832816,nan
1740789284.8491993,-0.1896066494362116,-0.19490772027548534,-0.9943295940118853,-0.29937368429121886,nan
1740789284.8531077,-0.2092826375393177,-0.19263044459573375,-0.9930281712753823,-0.3064466114436545,nan
1740789284.8570135,-0.2261847133510436,-0.19270174883494937,-0.986432031084149,-0.31060148788157105,nan
1740789284.8609195,-0.24015686687575385,-0.19513199431451614,-0.9745243632099714,-0.311758440444166,nan
1740789284.8648252,-0.2510754009464751,-0.1999034941673831,-0.9573327577129385,-0.30986964003450906,nan
1740789284.868731,-0.2588500650230089,-0.20697035738881037,-0.9349293814159656,-0.30491992189438283,nan
1740789284.8726368,-0.2634248479254094,-0.21625862566865856,-0.9074307449960475,-0.296927074512146,nan
1740789284.8765428,-0.2647784217113267,-0.22766670390723465,-0.874997059584829,-0.285941792903688,nan
1740789284.8804486,-0.2629242323650774,-0.24106608232558294,-0.8378311856734261,-0.2720472953440583,nan
1740789284.8843544,-0.25791023647366196,-0.25630234509316013,-0.7961771810194582,-0.25535860598834753,nan
1740789284.8882601,-0.24981828658586,-0.2731964574415007,-0.7503184581202065,-0.2360215091716825,nan
1740789284.8921661,-0.23876317145052334,-0.2915463203416037,-0.7005755656073588,-0.21421118448674437,nan
1740789284.896072,-0.22489132077484308,-0.3111285790249182,-0.647303611598845,-0.19013053497005192,nan
1740789284.8999803,-0.20837918749861536,-0.331700668951819,-0.5908893505756413,-0.16400822385313163,nan
1740789284.903886,-0.18943132381331157,-0.35300308030491395,-0.5317479587012336,-0.1360964383202948,nan
1740789284.9077919,-0.16827817023295044,-0.3747618197337161,-0.47031952563527735,-0.1066684015309669,nan
1740789284.9116976,-0.14517357991670898,-0.39669104592695315,-0.40706529377932565,-0.07601565678266106,nan
1740789284.9156034,-0.1203921031220274,-0.4184958536617377,-0.3424636785020125,-0.04444515008420934,nan
1740789284.9195094,-0.09422605910479245,-0.4398751792957357,-0.277006105196994,-0.012276139552890211,nan
1740789284.9234152,-0.06698242495536635,-0.4605247992476977,-0.21119270100517124,0.020163038078575043,nan
1740789284.927321,-0.038979572743731525,-0.4801403918690574,-0.145527880662137,0.052538311978367426,nan
1740789284.9312267,-0.01054388792453818,-0.4984206322578665,-0.0805158671947464,0.08451329961611768,nan
1740789284.9351327,0.017993696793012062,-0.5150702890163813,-0.016656189072623943,0.11575277295868046,nan
1740789284.9390385,0.046301216987979815,-0.529803291712503,0.045560804089373935,0.14592613375576358,nan
1740789284.9429443,0.0740492057897784,-0.542345737877182,0.10565836509046972,0.17471086293483543,nan
1740789284.9468522,0.10091420094839357,-0.5524388087560123,0.16317767008867273,0.2017959091949942,nan
1740789284.950758,0.1265821939402601,-0.5598415637315797,0.21768199576714337,0.226884982306419,nan
1740789284.954664,0.15075198583209384,-0.5643335843385503,0.2687607126684452,0.24969971738310084,nan
1740789284.9585698,0.17313841547207948,-0.5657174400977681,0.31603305614190746,0.2699826774961128,nan
1740789284.9624755,0.1934754267699625,-0.5638209499875129,0.35915163822549945,0.28750016342357115,nan
1740789284.9663813,0.21151894335419058,-0.5584992152354245,0.39780566602115175,0.3020448010793415,nan
1740789284.9702873,0.22704952074127288,-0.5496364012363144,0.43172383470220005,0.3134378792098605,nan
1740789284.974193,0.2398747483028562,-0.5371472487596128,0.4606768661908571,0.32153141227860255,nan
1740789284.9780989,0.2498313757494681,-0.520978297183333,0.48447966773660794,0.3262099060493573,nan
1740789284.9820046,0.25678714154346005,-0.5011088052548226,0.5029930880842944,0.327391806208396,nan
1740789284.9859107,0.2606422835816457,-0.47755135780571356,0.5161252526119628,0.325030613405304,nan
1740789284.9898164,0.2613307156225561,-0.4503521499112248,0.5238324627093688,0.3191156513139629,nan
1740789284.9937267,0.2588208562438853,-0.4195909431524928,0.526119648722387,0.3096724776882482,nan
1740789284.9976325,0.2531161005705682,-0.38538069188396945,0.5230403699686099,0.296762931879066,nan
1740789285.0015385,0.24425492857953163,-0.34786684069423635,0.514696359596014,0.28048481585681523,nan
1740789285.0054443,0.2323106474286844,-0.30722629754523545,0.501236616369426,0.26097120941150104,nan
1740789285.00935,0.21739076893958198,-0.26366609034920635,0.48285604978774327,0.2383894238462748,nan
1740789285.0132558,0.19963602704923383,-0.21742171796159557,0.45979368921721436,0.2129396021033355,nan
1740789285.0171616,0.17921904370035507,-0.16875520969953678,0.43233047193148616,0.18485297682834606,nan
1740789285.0210676,0.15634265522483864,-0.11795291050729141,0.40078662903701917,0.15438980135538313,nan
1740789285.0249734,0.13123791475669339,-0.06532301175159282,0.3655186921930616,0.12183697194435028,nan
1740789285.0288792,0.10416178955328684,-0.011192850311547767,0.3269161477703341,0.08750536279316921,nan
1740789285.032785,0.07539457527400294,0.044093998898196124,0.28539776859508337,0.051726898345661375,nan
1740789285.036691,0.04523705223117869,0.10018080959196084,0.24140765666045058,0.014851390192361253,nan
1740789285.0406008,0.014007411359344666,0.15670094060344078,0.19541103312276492,-0.02275683161302579,nan
1740789285.0445068,-0.01796201988269855,0.21328119113647878,0.1478898145066729,-0.060722460750440715,nan
1740789285.0484126,-0.050328219282147015,0.2695452423048346,0.0993380162932273,-0.09866289632484855,nan
1740789285.0523183,-0.08274104505085586,0.32511715139766395,0.05025702693556183,-0.13619202840764807,nan
1740789285.056224,-0.11484690861032386,0.3796248645423186,0.0011507968176470206,-0.17292409049731955,nan
1740789285.0601301,-0.14629250799073792,0.43270371300781485,-0.047479012273532475,-0.2084775410366435,nan
1740789285.064036,-0.1767285840229565,0.48399985830733666,-0.09513787096573302,-0.24247893555762642,nan
1740789285.0679417,-0.2058136610448553,0.5331736515197647,-0.14134317302306149,-0.2745667508326388,nan
1740789285.0718474,-0.23321773376390859,0.5799028728582665,-0.18562892683732993,-0.3043951225955283,nan
1740789285.0757532,-0.2586258622189518,0.6238858184648604,-0.22755030224842668,-0.33163745896020713,nan
1740789285.0796592,-0.2817416374649367,0.6648442026965464,-0.26668798838381136,-0.3559898926034362,nan
1740789285.083565,-0.3022904816605535,0.7025258457807776,-0.3026523197673686,-0.37717453608658175,nan
1740789285.0874746,-0.3200227476615547,0.7367071186420479,-0.3350871299248589,-0.3949425063576782,nan
1740789285.0913806,-0.33471658500060647,0.7671951189203847,-0.363673294090741,-0.4090766864863679,nan
1740789285.0952864,-0.3461805412520972,0.7938295546967196,-0.3881319253789644,-0.4193941950229829,nan
1740789285.0991921,-0.35425587021878613,0.8164843151868112,-0.4082271918944491,-0.4257485360186165,nan
1740789285.103098,-0.3588185211144183,0.8350687106392526,-0.42376872570478774,-0.42803140567193654,nan
1740789285.1070037,-0.35978078592751567,0.8495283668463715,-0.43461359833256946,-0.42617413475414995,nan
1740789285.1109097,-0.35709258540855704,0.8598457630196417,-0.4406678414336789,-0.4201487493768409,nan
1740789285.1148155,-0.3507423775953894,0.8660404052617552,-0.4418874955596059,-0.40996863627679214,nan
1740789285.1187212,-0.34075767644730526,0.8681686314524361,-0.43827917432326585,-0.3956888025637722,nan
1740789285.122627,-0.32720517196220883,0.8663230470197709,-0.4299001358572271,-0.37740572377618814,nan
1740789285.126533,-0.31019044706744103,0.8606315947576716,-0.41685785812806014,-0.35525677807861245,nan
1740789285.1304388,-0.28985729056562337,0.85125626553702,-0.3993091194069869,-0.32941926847653347,nan
1740789285.134348,-0.2663866094438844,0.8383914604065813,-0.37745858995055875,-0.3001090389785187,nan
1740789285.138254,-0.23999494787904177,0.8222620181536874,-0.3515569456706928,-0.2675786946652466,nan
1740789285.1421597,-0.21093262425338974,0.8031209258581059,-0.32189851922602464,-0.23211543958939343,nan
1740789285.1460655,-0.17948150139679,0.7812467332904593,-0.28881850850168894,-0.19403855029147887,nan
1740789285.1499712,-0.14595240905214787,0.7569406951451658,-0.252689766818484,-0.15369650643641405,nan
1740789285.153877,-0.11068224118556774,0.7305236680248118,-0.21391920338259135,-0.11146380361679521,nan
1740789285.157783,-0.07403075419318889,0.7023327917776189,-0.17294382641269762,-0.06773747669647201,nan
1740789285.1616888,-0.03637709525925863,0.6727179872037973,-0.13022646502393023,-0.02293336514799395,nan
1740789285.1655946,0.0018839069382326108,0.6420383042642569,-0.0862512092711146,0.02251784536126925,nan
1740789285.1695004,0.040345654327474674,0.610658156722915,-0.04151861072412248,0.06817476838631865,nan
1740789285.1734064,0.07859385716978656,0.5789434806115963,0.003459311464897249,0.11358961021796267,nan
1740789285.1773121,0.11621073824721562,0.547257855006917,0.04816421186560547,0.1583125707838611,nan
1740789285.181221,0.1527793227220797,0.5159586243378853,0.09207665856435912,0.20189630980443463,nan
1740789285.1851268,0.18788777164125964,0.4853930617908544,0.1346814212781061,0.24390043504081912,nan
1740789285.1890326,0.22113371621823916,0.45589461333831083,0.175472756791791,0.28389596884886975,nan
1740789285.1929386,0.25212854959580616,0.42777926148671636,0.2139596403783987,0.32146974904605247,nan
1740789285.1968443,0.2805016327791388,0.40134204701721676,0.2496708920000069,0.35622872031215314,nan
1740789285.20075,0.30590437183606534,0.37685378578589557,0.2821601467139839,0.38780407298127284,nan
1740789285.204656,0.32801412428786425,0.35455801606596454,0.3110106198179291,0.41585518713883834,nan
1740789285.208562,0.34653789385523426,0.33466820996485136,0.3358396188528154,0.44007334140650867,nan
1740789285.2124677,0.36121577437149405,0.31736528015033155,0.3563027566343063,0.4601851476692779,nan
1740789285.2163734,0.37182410571583935,0.3027954104909766,0.37209782198100094,0.47595567525794114,nan
1740789285.2202792,0.37817830703721966,0.2910682362797904,0.38296826773501313,0.48719123072822884,nan
1740789285.2241852,0.3801353553139271,0.2822553964918005,0.38870627899997484,0.4937417623530806,nan
1740789285.2280936,0.377595880401566,0.27638947705527794,0.38915538822580237,0.49550286174142977,nan
1740789285.2319994,0.3705058511357232,0.2734633604235048,0.38421260781597266,0.4924173385866828,nan
1740789285.2359054,0.35885783074528976,0.27342999285343417,0.3738300552860318,0.48447634839925946,nan
1740789285.2398112,0.3426917837650006,0.276202576765064,0.3580160506228154,0.471720057155657,nan
1740789285.243717,0.3220954207760051,0.28165519140845574,0.3368356703408593,0.454237831064902,nan
1740789285.2476227,0.29720407161340073,0.2896238408432359,0.31041074776194705,0.4321679440730483,nan
1740789285.2515285,0.26820008212022656,0.29990792397811045,0.2789193142097964,0.40569680025722027,nan
1740789285.2554345,0.2353117340573037,0.312272117166308,0.24259448106715592,0.3750576728606675,nan
1740789285.2593403,0.1988116923554866,0.3264486556479275,0.20172276793865024,0.3405289663466961,nan
1740789285.263246,0.159014988478319,0.34213999601298656,0.15664188745028446,0.302432012458841,nan
1740789285.2671518,0.11627655320570507,0.35902183786992947,0.10773800244640847,0.2611284158238052,nan
1740789285.2710578,0.07098831660973509,0.3767464790832364,0.05544247646779565,0.21701696907927015,nan
1740789285.2749658,0.02357589732959751,0.394946475328756,0.00022814336208611753,0.17053016180820577,nan
1740789285.2788718,-0.025505092578225058,0.41323857134335507,-0.05739487335729083,0.1221303116732451,nan
1740789285.2827775,-0.07577309697615033,0.43122786815105696,-0.1168837562709905,0.07230535002904682,nan
1740789285.2866833,-0.12672498521352624,0.4485121877634509,-0.17766796557514852,0.02156429790919515,nan
1740789285.290589,-0.17784070453865045,0.4646865944075142,-0.23915454311561685,-0.02956752839892596,nan
1740789285.2944949,-0.22858817485085767,0.47934802925583636,-0.30073370216658707,-0.08055353999610577,nan
1740789285.2984009,-0.2784283825217707,0.49210001394608055,-0.3617846530720832,-0.1308510814188072,nan
1740789285.3023067,-0.32682062762558683,0.5025573768983354,-0.4216816121941092,-0.1799167730578156,nan
1740789285.3062124,-0.373227876932213,0.510350955587151,-0.47979993940269267,-0.22721194110741094,nan
1740789285.3101182,-0.41712217345595715,0.5151322275118922,-0.5355223476241805,-0.272208084835317,nan
1740789285.3140242,-0.4579900522344289,0.5165778226429265,-0.5882451267543083,-0.31439233004787825,nan
1740789285.31793,-0.4953379113512441,0.5143938706063691,-0.6373843235562859,-0.3532728171746631,nan
1740789285.3218377,-0.5286972870220349,0.5083201368065858,-0.6823818190114672,-0.38838397241993916,nan
1740789285.3257437,-0.5576299818417398,0.49813390306917965,-0.7227112449760876,-0.419291610928886,nan
1740789285.3296494,-0.5817329960435111,0.4836535502092467,-0.7578836829222535,-0.4455978218932259,nan
1740789285.3335552,-0.6006432128427582,0.46474180217761046,-0.7874530890000556,-0.4669455869690918,nan
1740789285.337461,-0.6140417906264233,0.4413085940947089,-0.811021391640553,-0.48302308528985505,nan
1740789285.341367,-0.6216582168858307,0.4133135295270422,-0.8282432104119768,-0.49356764071451187,nan
1740789285.3452728,-0.6232739813653242,0.3807678957699704,-0.8388301478243031,-0.49836926974001367,nan
1740789285.3491786,-0.6187258288883689,0.34373620964497753,-0.8425546092265612,-0.4972737917015476,nan
1740789285.3530843,-0.6079085557037499,0.30233727036768226,-0.8392531098283836,-0.490185466462181,nan
1740789285.35699,-0.5907773169391565,0.25674470036012625,-0.8288290321699348,-0.4770691287228522,nan
1740789285.360896,-0.5673494168264945,0.20718695942972978,-0.8112548020259992,-0.4579517923322706,nan
1740789285.364802,-0.537705557738091,0.15394682247772393,-0.7865734557207233,-0.4329237025076994,nan
1740789285.3687122,-0.5019905287081088,0.09736031578973653,-0.7548995771060605,-0.4021388186526874,nan
1740789285.3726182,-0.4604133189687315,0.03781511195655792,-0.7164195879732758,-0.365814715435147,nan
1740789285.376524,-0.4132466470636939,-0.024251611471181756,-0.6713913813744914,-0.32423189492498844,nan
1740789285.3804297,-0.3608259012681278,-0.08835583942097835,-0.6201432931796242,-0.2777325078394779,nan
1740789285.3843355,-0.30354749229772976,-0.15396989761852684,-0.5630724131311552,-0.22671848725985214,nan
1740789285.3882415,-0.24186662458502764,-0.2205261216217591,-0.5006422426318287,-0.1716491035168844,nan
1740789285.3921473,-0.17629449768843708,-0.28742099156910844,-0.4333797124547942,-0.11303795424795038,nan
1740789285.396053,-0.10739495463313217,-0.3540197029823496,-0.36187157944809034,-0.05144940885556188,nan
1740789285.3999588,-0.035780599113867204,-0.41966113952072526,-0.28676022706206516,0.012505468300418985,nan
1740789285.4038649,0.037891591528163786,-0.48366320939860385,-0.20873890010680046,0.07817348671449514,nan
1740789285.4077706,0.11292512585544204,-0.5453285032945299,-0.1285464094954503,0.14486435657631352,nan
1740789285.4116764,0.1885892941647776,-0.6039502280337287,-0.04696134779907888,0.2118561352148316,nan
1740789285.4155865,0.26412486008661296,-0.6588183671546141,0.035204138818083125,0.2784010505728639,nan
1740789285.4194922,0.3387501034977985,-0.7092260167052066,0.11711097234172001,0.34373165533455663,nan
1740789285.423398,0.41166716670915104,-0.7544758422867497,0.1979001044276531,0.40706726190327175,nan
1740789285.427304,0.48206865269985877,-0.7938866014945658,0.2766997602883838,0.467620605414982,nan
1740789285.4312098,0.5491444214070385,-0.8267996745217615,0.3526329045099195,0.5246046794023861,nan
1740789285.4351156,0.6120885277680231,-0.8525855448068888,0.42482486585193974,0.5772396866236086,nan
1740789285.4390213,0.6701062433789035,-0.8706501712349017,0.4924110561131068,0.6247600459583298,nan
1740789285.4429274,0.7224211022949627,-0.880441193549877,0.554544716732536,0.6664213951714112,nan
1740789285.4468331,0.7682819106721149,-0.8814539133115535,0.6104046259637388,0.7015075287625063,nan
1740789285.450739,0.8069696596439865,-0.87323699392462,0.6592026992095515,0.7293372100685961,nan
1740789285.4546447,0.8378042810528892,-0.8553978249838649,0.7001914154510541,0.7492707972687374,nan
1740789285.4585507,0.8601511864061039,-0.8276074983991993,0.732671003640501,0.7607166239556931,nan
1740789285.4624603,0.8734275307082761,-0.7896053464768463,0.7559963244527633,0.7631370764820853,nan
1740789285.466366,0.8771081446183215,-0.7412029953167614,0.7695833848913343,0.7560543123488943,nan
1740789285.4702718,0.8707310806824115,-0.682287890517454,0.7729154259080677,0.7390555664665815,nan
1740789285.4741778,0.8539027221861488,-0.61282625622923,0.7655485263998701,0.7117979951643949,nan
1740789285.4780836,0.8263024064273776,-0.5328654530331851,0.7471166706650612,0.674013011327585,nan
1740789285.4819894,0.7876865179102269,-0.4425357049097723,0.7173362306068087,0.6255100679772891,nan
1740789285.4858952,0.7378920110713088,-0.3420511706580481,0.6760098186263648,0.5661798519416953,nan
1740789285.4898012,0.6768393266365407,-0.23171034049201114,0.623029472215922,0.4959968539640594,nan
1740789285.493707,0.6045346705350454,-0.11189574412868232,0.5583791366972654,0.41502128661413207,nan
1740789285.4976127,0.5210716294243711,0.016927037554084524,0.4821364183119572,0.3234003266724526,nan
1740789285.5015185,0.42663210226605564,0.15421105932293452,0.39447358590251325,0.2213686641969075,nan
1740789285.5054245,0.32148653298656293,0.29933039292650815,0.29565780568027294,0.10924834621091802,nan
1740789285.509337,0.20599343501840425,0.4515831930474508,0.18605060000061352,-0.012552091176428217,nan
1740789285.5132427,0.08059820439048553,0.6101954319943305,0.06610652760431993,-0.14353920244645532,nan
1740789285.5171485,-0.05416877602491294,0.7743252813841897,-0.06362891062135415,-0.28313691837062127,nan
1740789285.5210545,-0.19769473254986908,0.9430681133262846,-0.2025221297144798,-0.43068952597345417,nan
1740789285.5249603,-0.34928778255189896,1.1154620880632078,-0.34985506536007116,-0.5854653250752476,nan
1740789285.528866,-0.5081808818141367,1.2904942897070704,-0.5048295016584183,-0.7466609379246348,nan
1740789285.5327718,-0.6735364114480525,1.4671073666739196,-0.66657209208884,-0.9134062427921278,nan
1740789285.5366778,-0.8444513728799888,1.6442066287151762,-0.8341400377962389,-1.0847698969736954,nan
1740789285.5405836,-1.0199631541889418,1.8206675481138397,-1.0065273815865017,-1.259765409496246,nan
1740789285.5444894,-1.1990558261036222,1.9953436086959593,-1.1826718706063475,-1.4373577189701918,nan
1740789285.5483952,-1.3806669213258047,2.1670744428412347,-1.3614623356516582,-1.6164702275411922,nan
1740789285.5523012,-1.563694646575328,2.3346941936937453,-1.5417465304405287,-1.7959922377938633,nan
1740789285.5562103,-1.7470054728879107,2.4970400373038206,-1.7223393700444753,-1.9747867357915225,nan
1740789285.560116,-1.9294420462746806,2.652960797499565,-1.9020315040306879,-2.1516984602310876,nan
1740789285.5640218,-2.1098313579028107,2.801325584911819,-2.0795981567628496,-2.325562194980295,nan
1740789285.5679276,-2.286993110506559,2.9410323907745037,-2.2538081647661667,-2.495211220070437,nan
1740789285.5718336,-2.459748215809911,3.071016565903911,-2.423433139107285,-2.659485854562364,nan
1740789285.5757394,-2.6269273563537157,3.1902591156307993,-2.5872566793900953,-2.8172420236025193,nan
1740789285.5796452,-2.7873795442851432,3.2977947424182874,-2.7440835652370357,-2.967359781450297,nan
1740789285.583551,-2.939980609393931,3.3927195694416676,-2.892748851020142,-3.1087517222942966,nan
1740789285.5874567,-3.083641548971883,3.4741984805231194,-3.0321267901289772,-3.240371211284403,nan
1740789285.5913627,-3.2173166729282787,3.5414720144898864,-3.161139516210422,-3.361220369385128,nan
1740789285.5952685,-3.3400114790080444,3.5938627552385705,-3.278765410579329,-3.4703577473948717,nan
1740789285.5991743,-3.4507901949208266,3.6307811625160085,-3.384047087365326,-3.566905626761897,nan
1740789285.6030827,-3.548782926681765,3.651730792639128,-3.4760989309098753,-3.6500568876427057,nan
1740789285.6069887,-3.633192355468369,3.656312863038529,-3.554114123434876,-3.7190813879690223,nan
1740789285.6108944,-3.7032999287878696,3.6442301195854276,-3.6173711050400064,-3.773331801088483,nan
1740789285.6148002,-3.758471495696509,3.6152899711072197,-3.66523941261678,-3.8122488637897476,nan
1740789285.618706,-3.7981623401836555,3.569406861268722,-3.6971848492544033,-3.8353659911796774,nan
1740789285.622612,-3.8219215715926174,3.506603854045566,-3.7127739411137766,-3.8423132199092542,nan
1740789285.6265178,-3.8293958360565474,3.427013415293206,-3.7116776445152166,-3.8328204466038995,nan
1740789285.6304235,-3.820332318338888,3.3308773793665103,-3.693674272073579,-3.806719933997355,nan
1740789285.6343293,-3.7945810091376404,3.2185460963166945,-3.6586516130694036,-3.763948063148709,nan
1740789285.6382353,-3.7520962187934193,3.0904767618287563,-3.606608229812046,-3.704546316189577,nan
1740789285.642141,-3.692937324383111,2.9472309387072015,-3.537653918474486,-3.628661480251594,nan
1740789285.6460469,-3.6172687433327106,2.789471285314292,-3.452009329701844,-3.536545069510329,nan
1740789285.649955,-3.5253591328926106,2.617957512856726,-3.350004751158433,-3.4285519685974033,nan
1740789285.6538608,-3.417579821033681,2.4335415997483185,-3.232078061022416,-3.3051383069241607,nan
1740789285.6577666,-3.2944024804902505,2.2371622973932763,-3.0987718682045817,-3.1668585796743085,nan
1740789285.6616726,-3.156396063744615,2.029838967584765,-2.9507298617002777,-3.0143620373069187,nan
1740789285.6655784,-3.00422302266554,1.8126647972459646,-2.788692397924643,-2.8483883713131153,nan
1740789285.6694841,-2.8386348422306553,1.5867994414081876,-2.6134913610761044,-2.669762729640136,nan
1740789285.67339,-2.6604669232314535,1.353461150078021,-2.4260443374686584,-2.4793901005867283,nan
1740789285.677296,-2.470632854033955,1.113918438951706,-2.22734815031996,-2.278249109038973,nan
1740789285.6812017,-2.2701181163045945,0.8694813677526393,-2.0184718066324567,-2.067385273612566,nan
1740789285.6851075,-2.059973274069339,0.6214924932636473,-1.8005489125153857,-1.8479037775570675,nan
1740789285.6890132,-1.8413066995171903,0.37131756687087797,-1.5747696175266925,-1.6209618101236778,nan
1740789285.6929193,-1.61527689255396,0.12033604860652951,-1.3423721523305565,-1.3877605384686387,nan
1740789285.6968272,-1.383084454228876,-0.13006848874586266,-1.104634027137229,-1.149536773031598,nan
1740789285.700733,-1.1459637767699675,-0.37851799095138716,-0.8628629609913623,-0.9075543916685714,nan
1740789285.7046387,-0.9051745150534457,-0.6236495141450371,-0.6183876139818767,-0.6630955896137343,nan
1740789285.7085445,-0.6619929058810159,-0.8641247025590723,-0.3725481958447289,-0.4174520235788588,nan
1740789285.7124505,-0.4177030024356962,-1.0986390784283646,-0.12668702520939404,-0.1719159189645619,nan
1740789285.7163563,-0.17358789172436626,-1.3259310718441444,0.11786088610488075,0.0722287907507409,nan
1740789285.720262,0.06907903730807131,-1.544790720424005,0.35977714980544206,0.3137152238596172,nan
1740789285.7241678,0.30904270798951755,-1.7540679713447667,0.597769146004062,0.5513021419763776,nan
1740789285.7280738,0.5450747866850976,-1.9526805215222818,0.8305789250984359,0.783782307359922,nan
1740789285.7319796,0.7759818661139631,-2.139621135490945,1.0569917977833438,1.0099905422264912,nan
1740789285.7358854,1.0006133395086556,-2.313964384803681,1.2758445471703224,1.22881142893979,nan
1740789285.7397912,1.2178689066984179,-2.474872757504058,1.4860332003901415,1.4391865931332202,nan
1740789285.743702,1.4267056564632368,-2.621602091375731,1.6865203009594651,1.6401215154553328,nan
1740789285.7476077,1.626144673215372,-2.7535062902066323,1.8763416275763456,1.8306918217024277,nan
1740789285.7515135,1.8152771201862663,-2.8700412881691384,2.0546123098293267,2.0100490055754134,nan
1740789285.7554193,1.9932697557923564,-2.9707682335627275,2.220532296518672,2.1774255431319176,nan
1740789285.7593253,2.159369844683413,-3.055355869540084,2.3733911378493695,2.332139363156669,nan
1740789285.763231,2.312909430099205,-3.1235820959868996,2.512572048614652,2.4735976430982656,nan
1740789285.7671368,2.453308939529475,-3.1753347033939026,2.637555225594326,2.6012999058710755,nan
1740789285.7710426,2.580080101241521,-3.210611276290234,2.747920398690449,2.7148403986482013,nan
1740789285.7749484,2.6928281549609454,-3.2295182705430134,2.84334860175878,2.8139097407245535,nan
1740789285.7788544,2.7912533458145696,-3.2322692755114613,2.923623155611892,2.8982958335568023,nan
1740789285.7827601,2.8751516965202857,-3.219182478618811,2.988629862212285,2.9678840321374604,nan
1740789285.786666,2.9444150586862636,-3.190677356315739,3.0383564155847185,3.022656582881814,nan
1740789285.790576,2.999030449911411,-3.147270621601008,3.072891041400304,3.0626913391474995,nan
1740789285.7944818,3.0390786891108967,-3.089571464186488,3.0924203834656714,3.088159771316847,nan
1740789285.7983878,3.06473234807666,-3.0182761249948973,3.0972266614352058,3.099324294002686,nan
1740789285.8022935,3.076253042676307,-2.9341618519127075,3.087684129901462,3.096534938341808,nan
1740789285.8061993,3.0739880922499214,-2.838080288544195,3.064254874559337,3.080225402471784,nan
1740789285.810105,3.0583665806405493,-2.730950352085668,3.0274839863370375,3.0509085181038316,nan
1740789285.814011,3.029894856850671,-2.613750660325639,2.9779941591985293,3.009171175567496,nan
1740789285.8179169,2.989151517517123,-2.487511571145446,2.916479761708412,2.955668753775869,nan
1740789285.8218226,2.9367819172071545,-2.353306900718691,2.843700436375713,2.8911191052102536,nan
1740789285.8257284,2.8734922559288454,-2.212245388864547,2.7604742842267487,2.816296149222072,nan
1740789285.8296342,2.800043296194013,-2.0654619816822426,2.667670694972261,2.7320231296725876,nan
1740789285.8335402,2.717243764448995,-1.9141090026698373,2.5662028855085723,2.63916559515754,nan
1740789285.8374498,2.625943493680811,-1.7593472840027815,2.4570202113094677,2.538624161778217,nan
1740789285.8413556,2.527026365499655,-1.6023373295150416,2.3411003165129025,2.4313271196114288,nan
1740789285.8452616,2.42140311098489,-1.4442305801915338,2.2194411891775254,2.318222944692011,nan
1740789285.8491673,2.3100040300560836,-1.2861608516538705,2.0930531882766563,2.2002727784506177,nan
1740789285.8530731,2.1937716890936017,-1.1292360112161535,1.962951108515113,2.0784429361498056,nan
1740789285.856979,2.0736536559893177,-0.9745299596225212,1.8301463480056523,1.9536975049399188,nan
1740789285.860885,1.9505953307664492,-0.8230749795772421,1.6956392422401458,1.8269910907252909,nan
1740789285.8647907,1.8255329283815545,-0.6758545096695681,1.560411625654293,1.6992617711069018,nan
1740789285.8686965,1.6993866683291718,-0.5337963983120483,1.4254196794364804,1.5714243092708093,nan
1740789285.8726022,1.5730542232318176,-0.39776668788913316,1.2915871210987715,1.4443636808468134,nan
1740789285.876508,1.4474044757405349,-0.2685639744929933,1.1597987877422973,1.3189289624975675,nan
1740789285.880414,1.3232716298226865,-0.14691438344927446,1.0308946609458582,1.1959276273465795,nan
1740789285.8843234,1.2014497189063205,-0.033467195353341535,0.9056643768241267,1.0761202883495162,nan
1740789285.8882291,1.0826875494191368,0.07120884840330823,0.7848422600823143,0.9602159263949508,nan
1740789285.892135,0.9676841140424921,0.1666285375855134,0.6691029158822288,0.8488676353287435,nan
1740789285.8960407,0.8570845045367337,0.25239246561861245,0.5590574080772058,0.7426689112733906,nan
1740789285.8999467,0.7514763493251383,0.3281885719222773,0.4552500469192475,0.6421505086042931,nan
1740789285.9038525,0.6513867961929429,0.3937929496040802,0.3581558037411294,0.5477778797947908,nan
1740789285.9077582,0.5572800555096092,0.44906992028738074,0.26817836442036797,0.4599492110977129,nan
1740789285.911664,0.469555514361388,0.4939713840308475,0.18564882769248844,0.3789940607401739,nan
1740789285.9155698,0.3885464269325275,0.5285354583645042,0.110825048649668,0.3051726010177538,nan
1740789285.9194758,0.31451918144208446,0.5528844263675072,0.043891622088778476,0.23867546043077176,nan
1740789285.9233816,0.2476731389735833,0.5672220193955753,-0.015039505189553218,0.17962415685522468,nan
1740789285.9272873,0.18814103467018292,0.5718300654829324,-0.06592780943308336,0.12807210772897468,nan
1740789285.9311965,0.13598992705059826,0.5670645395492706,-0.1088023738416212,0.08400619840314369,nan
1740789285.9351025,0.09122267667114732,0.5533510562939751,-0.14375950777004282,0.04734888520072302,nan
1740789285.9390082,0.05377993105528168,0.5311798510185222,-0.1709598323330042,0.01796080537808313,nan
1740789285.942914,0.02354258876962607,0.5011002975480767,-0.1906248678360353,-0.004356137863440314,nan
1740789285.9468198,0.0003347117781521649,0.46371501589333214,-0.2030331624117535,-0.019855250886013427,nan
1740789285.9507258,-0.016073148216180395,0.41967362527632746,-0.2085160047934839,-0.028841124570193406,nan
1740789285.9546316,-0.025960246803252318,0.36966620061661376,-0.2074527672830416,-0.0316653506111677,nan
1740789285.9585373,-0.029651607326671076,0.31441649251855264,-0.20026592764061882,-0.028721923609464066,nan
1740789285.962443,-0.02751368712858154,0.2546749722034762,-0.1874158208226211,-0.020442375538259238,nan
1740789285.9663491,-0.019949793821014118,0.19121176368346815,-0.16939517320239614,-0.007290690854376458,nan
1740789285.970255,-0.00739529729049657,0.12480952577320564,-0.14672347311830056,0.010241948249561428,nan
1740789285.9741607,0.009687315825064413,0.05625634628405837,-0.11994123229714056,0.031642536185012705,nan
1740789285.978069,0.030813497851935347,-0.013661290053012391,-0.08960419289729145,0.05638168732641276,nan
1740789285.9819748,0.055481758493038186,-0.08416539972123287,-0.05627753460781181,0.083919097970916,nan
1740789285.9858809,0.08317879871388914,-0.15449320624423515,-0.020530135435465734,0.11370897709041569,nan
1740789285.9897866,0.11338461357497795,-0.22390359768870638,0.01707106147700879,0.145205397121222,nan
1740789285.9936924,0.1455775185928143,-0.29168328264881876,0.05596652441412081,0.17786751752072313,nan
1740789285.9975982,0.17923905571868512,-0.3571525947834075,0.09560940464785167,0.21116463571612173,nan
1740789286.0015042,0.21385873690963275,-0.4196708996541835,0.13547055723502494,0.24458102235606693,nan
1740789286.00541,0.2489385855083552,-0.47864156166607236,0.17504326831006287,0.27762050042664227,nan
1740789286.0093157,0.2839974382223288,-0.5335164332999477,0.21384764951091548,0.30981073078025345,nan
1740789286.0132215,0.31857497336965235,-0.5837998335114668,0.2514346638820557,0.3407071699185105,nan
1740789286.0171275,0.3522354342093583,-0.6290519871031574,0.2873897515933283,0.3698966694343674,nan
1740789286.0210333,0.3845710195645887,-0.6688919020139981,0.32133602805700556,0.3970006903188601,nan
1740789286.0249414,0.41520491754356215,-0.7029996667636932,0.35293703147560823,0.4216781093359418,nan
1740789286.0288472,0.443793961929517,-0.7311181556887674,0.3818990014661831,0.4436275988259587,nan
1740789286.032753,0.47003089470956316,-0.7530541350650345,0.4079726751379927,0.4625895655740113,nan
1740789286.036659,0.4936462222054789,-0.7686787686761795,0.43095459180446505,0.4783476387326338,nan
1740789286.0405648,0.5144096563183618,-0.7779275268118723,0.45068790234084216,0.4907297011776828,nan
1740789286.0444705,0.5321311364650074,-0.7807995080121972,0.4670626840106325,0.4996084630606075,nan
1740789286.0483763,0.5466614318285377,-0.7773561880709147,0.48001576633153137,0.5049015806585789,nan
1740789286.0522823,0.5578923275313399,-0.7677196158221384,0.48953007819070904,0.5065713278761999,nan
1740789286.056188,0.5657564022279576,-0.7520700800196551,0.49563353090759954,0.5046238318797993,nan
1740789286.0600939,0.5702264083737798,-0.7306432761337397,0.49839745623842857,0.4991078883103701,nan
1740789286.0639997,0.5713142700182112,-0.7037270060982892,0.49793462238195085,0.4901133752884612,nan
1740789286.0679057,0.56906971636668,-0.6716574479056837,0.4943968548437699,0.47776928896063425,nan
1740789286.0718136,0.5635785725245438,-0.6348150354358074,0.48797229251377616,0.4622414266115726,nan
1740789286.0757194,0.5549607317505484,-0.5936199919905514,0.4788823124771569,0.44372974635063295,nan
1740789286.0796251,0.543367836183443,-0.5485275636611378,0.4673781598871229,0.4224654350514579,nan
1740789286.083531,0.5289806953411151,-0.5000230008623424,0.45373732165363856,0.3987077185565049,nan
1740789286.087437,0.512006473708706,-0.44861633810871765,0.4382596847272584,0.3727404501364622,nan
1740789286.0913427,0.49267568041540905,-0.394837023371496,0.42126352136532363,0.3448685148027239,nan
1740789286.0952485,0.47123899533721564,-0.3392284491334587,0.40308134494744025,0.3154140882980797,nan
1740789286.0991542,0.4479639669463035,-0.28234243754989025,0.3840556806512577,0.28471279042907044,nan
1740789286.1030602,0.4231316178522701,-0.2247337319283731,0.36453479560474844,0.25310977284927094,nan
1740789286.106966,0.3970329942445038,-0.16695454606467328,0.3448684329986871,0.22095578145614886,nan
1740789286.1108718,0.3699656953508542,-0.109549221826897,0.3254035940779629,0.18860323322886624,nan
1740789286.1147776,0.3422304185809042,-0.05304904378001719,0.3064804109421697,0.15640234661782748,nan
1740789286.1186883,0.31412755523147307,0.0020327423932244583,0.288428151687842,0.12469736351001788,nan
1740789286.122594,0.28595387050961646,0.05520566336865242,0.27156139763394976,0.09382289935157047,nan
1740789286.1265,0.25799930018955847,0.10600646208440316,0.25617643020951575,0.06410045622834226,nan
1740789286.1304057,0.23054389448281268,0.15400321379626708,0.24254786257174688,0.03583513160732176,nan
1740789286.1343114,0.20385493768606036,0.19879907952724557,0.2309255481921085,0.009312553050072735,nan
1740789286.1382174,0.17818426990246788,0.2400356659613741,0.2215317955266156,-0.015203933449566796,nan
1740789286.1421232,0.15376583463458962,0.27739596489021334,0.21455891450791856,-0.03747579674915196,nan
1740789286.146029,0.13081347334832513,0.310606849589714,0.21016711699566562,-0.057291553814260876,nan
1740789286.1499348,0.10951898523677733,0.33944110994367543,0.20848278953482668,-0.07446868458156385,nan
1740789286.1538408,0.09005046740080296,0.36371901269487883,0.20959715283773053,-0.08885521348573043,nan
1740789286.1577466,0.07255094754127979,0.38330937785230673,0.2135653183639075,-0.10033094623878114,nan
1740789286.1616523,0.05713731805888725,0.3981301669685726,0.22040574826275366,-0.10880835405341514,nan
1740789286.1655624,0.04389957721342334,0.4081485836813788,0.23010012080821604,-0.11423310114055367,nan
1740789286.1694682,0.03290037973916017,0.41338069154283524,0.24259359933268335,-0.11658421494990695,nan
1740789286.1733742,0.02417489607821324,0.41389055869763913,0.2577954985992534,-0.11587390222513415,nan
1740789286.17728,0.017730976212435377,0.4097889433736679,0.27558033857692055,-0.11214701747718102,nan
1740789286.1811857,0.013549610977242296,0.4012315383762301,0.29578927174012826,-0.10548019390667711,nan
1740789286.1850915,0.011585680758156301,0.38841679679169916,0.3182318663392359,-0.09598065009614674,nan
1740789286.1889973,0.011768978631345491,0.37158336487160787,0.34268822461649273,-0.08378468891429361,nan
1740789286.1929033,0.014005492340030113,0.351007151551019,0.3689114117056115,-0.0690559079985401,nan
1740789286.196809,0.018178927024308986,0.32699806722475944,0.396630167982088,-0.05198314388146779,nan
1740789286.2007148,0.024152448365516305,0.2998964672344924,0.4255518749531887,-0.03277817427725098,nan
1740789286.2046206,0.03177062378804285,0.27006933798486354,0.45536574241527267,-0.011673205223775497,nan
1740789286.2085266,0.040861537599475,0.23790626568772638,0.4857461825828262,0.011081828334197916,nan
1740789286.2124393,0.05123905445895078,0.20381522941333158,0.5163563352257441,0.03522211835167491,nan
1740789286.216345,0.06270520435607285,0.16821826139376278,0.5468517065530104,0.0604709644458423,nan
1740789286.220251,0.07505266136769527,0.13154701836825244,0.5768838836622286,0.08654284724370966,nan
1740789286.2241569,0.08806728784373785,0.09423830817788623,0.606104285841989,0.11314656134281326,nan
1740789286.2280626,0.10153071535889462,0.05672961580805995,0.634167913870468,0.13998837464896458,nan
1740789286.2319684,0.11522293375487117,0.019454672644675278,0.660737058697853,0.1667751809286191,nan
1740789286.2358742,0.12892485988450086,-0.017160888138099,0.6854849315272682,0.19321761282080457,nan
1740789286.2397802,0.14242085824887443,-0.05270374839294884,0.7080991783102007,0.21903308328766985,nan
1740789286.243686,0.155501186582468,-0.0867769539931322,0.7282852430358504,0.24394872453355784,nan
1740789286.2475917,0.16796434057754542,-0.1190037579918229,0.7457695459035715,0.2677041947767817,nan
1740789286.2514975,0.17961927333340996,-0.14903122229330354,0.7603024445047948,0.2900543248999787,nan
1740789286.2554035,0.19028746675155955,-0.1765335448638797,0.7716609484833191,0.31077157891517637,nan
1740789286.259313,0.1998048339552258,-0.2012150824862673,0.7796511607658589,0.3296483043372151,nan
1740789286.2632189,0.20802343386996502,-0.22281304230045257,0.7841104213306088,0.34649875094030425,nan
1740789286.267125,0.21481298133761473,-0.24109981884345688,0.784909132580597,0.3611608389515453,nan
1740789286.2710307,0.2200621385244097,-0.2558849569649689,0.7819522486788316,0.3734976604848056,nan
1740789286.2749364,0.22367957589911502,-0.26701672481874345,0.7751804146502094,0.3833987009094101,nan
1740789286.2788422,0.22559479367149807,-0.2743832850729988,0.7645707446259784,0.39078076985057764,nan
1740789286.282748,0.22575869726729314,-0.27791345650795785,0.7501372322642876,0.39558863460134414,nan
1740789286.286654,0.22414392314443002,-0.27757706223582324,0.731930790088519,0.3977953518571875,nan
1740789286.2905598,0.22074491399795496,-0.27338486484835783,0.7100389182067978,0.3974022968328901,nan
1740789286.2944655,0.21557774512903297,-0.2653880928306721,0.6845850065746002,0.394438891954444,nan
1740789286.2983713,0.20867970643838069,-0.2536775665381984,0.6557272786013484,0.3889620404055279,nan
1740789286.3022773,0.20010864711867637,-0.2383824358795464,0.6236573874457261,0.38105527281753526,nan
1740789286.3061862,0.18994209263720238,-0.21966854554475082,0.588598679758786,0.37082761829437455,nan
1740789286.3100922,0.17827614599357258,-0.1977364471317598,0.5508041448857155,0.3584122137298439,nan
1740789286.313998,0.1652241874837592,-0.17281908082132866,0.5105540705951706,0.34396466797920294,nan
1740789286.3179038,0.15091538927828285,-0.14517915230148176,0.4681534292402943,0.32766119986248027,nan
1740789286.3218095,0.13549306300878472,-0.1151062334197466,0.42392902084097933,0.30969657118182087,nan
1740789286.3257155,0.11911286023481245,-0.08291361751956214,0.378226401888526,0.290281837907948,nan
1740789286.3296213,0.10194084711533634,-0.04893496257483912,0.331406630690055,0.269641944413112,nan
1740789286.333527,0.08415147582343593,-0.013520757055057345,0.28384286177259493,0.24801318708386627,nan
1740789286.3374329,0.0659254762066415,0.022965355082734284,0.23591682324027022,0.22564057482363498,nan
1740789286.3413389,0.04744769190092314,0.06015035278055235,0.1880152120107832,0.20277511484211264,nan
1740789286.3452446,0.028904885547533083,0.09765568142632607,0.14052604254066628,0.17967105271885409,nan
1740789286.3491504,0.010483537935737036,0.13510112299689284,0.09383498497771885,0.15658309601780276,nan
1740789286.353059,-0.007632334199384684,0.17210865426650976,0.04832172865199333,0.13376365071682458,nan
1740789286.3569648,-0.025263317353797096,0.20830625495975877,0.004356406435724261,0.11146009940347815,nan
1740789286.3608706,-0.04223667365464551,0.24333162850668022,-0.037703885226957105,0.08991214958018551,nan
1740789286.3647764,-0.05838832360302829,0.27683579919619894,-0.07751843688888063,0.0693492795265242,nan
1740789286.3686824,-0.07356471739101642,0.3084865510079184,-0.11476611493238661,0.049988307994288675,nan
1740789286.3725882,-0.08762457436519726,0.33797167521525046,-0.14914835803972173,0.032031112575695006,nan
1740789286.376494,-0.10044047176290563,0.3650019959747507,-0.18039195267840025,0.015662519902669127,nan
1740789286.3803997,-0.11190026559691292,0.3893141455247037,-0.2082515612545147,0.0010483889239935324,nan
1740789286.3843057,-0.12190832849025962,0.4106730632849388,-0.23251197911203247,-0.011666093612094135,nan
1740789286.3882115,-0.1303865913441101,0.4288741960519323,-0.25299009930431776,-0.022357888646924746,nan
1740789286.3921173,-0.13727537793507202,0.443745379588449,-0.2695365670074697,-0.030927336914693154,nan
1740789286.396023,-0.14253402386062206,0.45514838518377343,-0.28203710855357667,-0.03729913590341674,nan
1740789286.3999312,-0.14614127365693794,0.46298011817576606,-0.2904135233044187,-0.04142305262555108,nan
1740789286.403837,-0.1480954523767844,0.4671734589453826,-0.29462432992987536,-0.04327436593869206,nan
1740789286.407743,-0.14841441040991896,0.4676977404827818,-0.29466506206700543,-0.04285403499623036,nan
1740789286.4116488,-0.14713524282813437,0.46455886024627674,-0.29056821178156944,-0.04018859326908926,nan
1740789286.4155545,-0.14431378701505682,0.45779902765548075,-0.2824028226995373,-0.03532977043348408,nan
1740789286.4194603,-0.14002390477103624,0.4474961521427343,-0.27027373808806104,-0.02835384723696809,nan
1740789286.423366,-0.1343565574402142,0.43376288019743225,-0.2543205125099743,-0.019360751207258425,nan
1740789286.427272,-0.12741868486536675,0.41674529324235027,-0.23471599892058678,-0.008472903727704496,nan
1740789286.4311779,-0.11933190111277478,0.39662128144680114,-0.2116646261888316,0.004166168456970876,nan
1740789286.4350836,-0.110231021901762,0.37359861167745534,-0.18540038497677094,0.0183934418462416,nan
1740789286.4389894,-0.10026244050089354,0.34791271068450347,-0.15618454267362378,0.034028207216361656,nan
1740789286.4428954,-0.08958237049617528,0.3198241872915867,-0.12430311062670564,0.05087406336059422,nan
1740789286.4468033,-0.07835497527882326,0.28961611977768154,-0.09006408921776667,0.06872107199361943,nan
1740789286.450709,-0.06675040532645087,0.25759113678576057,-0.053794518377701606,0.08734805068118567,nan
1740789286.4546149,-0.054942765349142025,0.22406832194725673,-0.015837362896518707,0.10652497930479292,nan
1740789286.4585207,-0.04310803413070038,0.1893799739566746,0.023451736647227047,0.12601549447685165,nan
1740789286.4624267,-0.031421960407644035,0.1538682550538679,0.06370781535568094,0.14557944549473273,nan
1740789286.4663324,-0.020057958389147253,0.1178817617625302,0.10456000505971338,0.16497548486975153,nan
