timestamps,TP9,AF7,AF8,TP10,Right AUX
1740788787.8868713,-0.0536230825883398,0.27558295813717476,-0.07332362170412193,-0.18183386710376065,nan
1740788787.8907762,-0.03628496285095682,0.2305190603821885,-0.059123438291965875,-0.1597515169540764,nan
1740788787.894681,-0.0178574531606764,0.1845954417127141,-0.043149192710181604,-0.13609623547931024,nan
1740788787.8985858,0.001448882570856267,0.13821537100473133,-0.0255812720535524,-0.11110685993083164,nan
1740788787.9024906,0.021415992979956125,0.09178822903099843,-0.006613032711454598,-0.08503338643006546,nan
1740788787.9063954,0.041820705853301623,0.045725499741234875,0.013551265511482384,-0.05813446235862667,nan
1740788787.9103,0.06243713406204314,0.0004367348930034035,0.03469860842332359,-0.030674807320093235,nan
1740788787.9142048,0.0830390954907371,-0.043674468402099466,0.056609437160352376,-0.0029225885879457943,nan
1740788787.9181097,0.10340252159693424,-0.08621443780359643,0.07905989570702052,0.024853222702112415,nan
1740788787.9220145,0.12330782947182747,-0.12680330466116102,0.10182409315096207,0.05238548827718085,nan
1740788787.9259193,0.14254223276536943,-0.16507875376466935,0.12467635765379695,0.07941150621463847,nan
1740788787.929824,0.16090196758478365,-0.20069960724624017,0.14739345940291051,0.10567555548129505,nan
1740788787.9337451,0.17819441046483322,-0.233349207595272,0.1697567803239731,0.1309313565130116,nan
1740788787.93765,0.19424006673049427,-0.2627385667270972,0.19155440907193336,0.15494442377066248,nan
1740788787.9415548,0.20887440901456883,-0.2886092503453903,0.2125831407707974,0.17749428739265213,nan
1740788787.9454596,0.22194954733853203,-0.3107359694348796,0.23265036212861842,0.19837656247310187,nan
1740788787.9493644,0.23333571399705946,-0.3289288535885563,0.2515758039006792,0.21740484611339828,nan
1740788787.9532692,0.24292254848569253,-0.34303538398411615,0.2691931441961015,0.23441242420618869,nan
1740788787.957174,0.2506201698558281,-0.3529419671471,0.28535144780407945,0.24925377189618755,nan
1740788787.9610786,0.25636002614922515,-0.35857513414056047,0.2999164285378679,0.26180583380099304,nan
1740788787.9649835,0.26009551293158245,-0.359902353468585,0.31277152353748566,0.27196907234531964,nan
1740788787.9688883,0.26180235538694946,-0.356932449738083,0.323818770515623,0.27966827494063884,nan
1740788787.972793,0.26147875092621253,-0.3497156239530842,0.33297948105342384,0.28485311320471884,nan
1740788787.976698,0.2591452717779435,-0.3383430751810487,0.3401947052315632,0.2874984499370851,nan
1740788787.9806285,0.2548445295424095,-0.32294622719382116,0.3454254850944865,0.287604392121448,nan
1740788787.9845333,0.248640606173612,-0.3036955675091,0.34865289666857424,0.28519609078869007,nan
1740788787.9884381,0.24061825828437006,-0.2807991100048606,0.3498778824656607,0.2803232911185871,nan
1740788787.992343,0.23088190402055472,-0.2545004959123914,0.3491208785784704,0.2730596386590992,nan
1740788787.9962478,0.2195544039987738,-0.2250767514787325,0.34642124259216417,0.2635017499741798,nan
1740788788.0001526,0.2067756499238995,-0.192835723892407,0.34183649057440557,0.2517680583699842,nan
1740788788.0040574,0.1927009764774053,-0.15811322015585202,0.33544135334447067,0.23799744757211008,nan
1740788788.0079622,0.17749941387431037,-0.12126987643404635,0.32732666404030847,0.222347688310837,nan
1740788788.011867,0.16135180010747766,-0.08268778798440365,0.3175980906827544,0.20499369469679207,nan
1740788788.0157719,0.14444877331659586,-0.042766932053363974,0.3063747289615443,0.18612561901704971,nan
1740788788.0196764,0.12698866592129784,-0.0019214180887401398,0.2937875718231433,0.16594680513429447,nan
1740788788.0235813,0.10917532313145241,0.039424398754860514,0.27997787361251036,0.1446716220143431,nan
1740788788.0275111,0.09121586918318778,0.08083990356249844,0.26509542749823467,0.12252320002693237,nan
1740788788.031416,0.07331844513948127,0.12189226888682664,0.2492967756838606,0.0997310935508347,nan
1740788788.0353208,0.05568994233464145,0.16215052454228351,0.23274337247044824,0.07652889405858077,nan
1740788788.0392253,0.03853375553061364,0.20118961108086444,0.21559972058153848,0.05315181825272133,nan
1740788788.0431302,0.02204757959050456,0.23859437827139257,0.1980315012892006,0.029834295971294927,nan
1740788788.047035,0.006421272963950528,0.2739634904845004,0.18020371878817165,0.006807582474233954,nan
1740788788.0509398,-0.008165189473978407,0.306913201832866,0.16227887895639484,-0.015702580633230465,nan
1740788788.0548446,-0.021543652675924348,0.3370809652210977,0.14441522211849417,-0.03747823218537959,nan
1740788788.0587494,-0.03355958642364282,0.3641288411083562,0.1267650287004871,-0.05831136313409823,nan
1740788788.0626543,-0.044073740155296054,0.387746673763024,0.10947301573769402,-0.07800597137470777,nan
1740788788.066559,-0.05296363031313243,0.4076550050724081,0.09267484108404649,-0.09637997926134187,nan
1740788788.070464,-0.060124844701510693,0.42360769853899805,0.07649573088231021,-0.11326699484525499,nan
1740788788.0743923,-0.06547215030033901,0.4353942489227098,0.06104924440534543,-0.1285178995496915,nan
1740788788.078297,-0.06894039307316462,0.4428417560477602,0.046436188784566484,-0.14200224684596938,nan
1740788788.0822017,-0.07048518052067182,0.4458165445533749,0.0327436944203943,-0.1536094584983004,nan
1740788788.0861065,-0.07008334003585218,0.44422541479720207,0.020044460039725678,-0.16324980707841028,nan
1740788788.0900114,-0.06773314849277833,0.4380165136856154,0.008396174446801515,-0.17085517569348288,nan
1740788788.0939162,-0.06345433092182481,0.42717981787106596,-0.002158879972691312,-0.17637958819894706,nan
1740788788.097821,-0.05728782856519851,0.4117472254875502,-0.011594038967832055,-0.17979950555737348,nan
1740788788.1017258,-0.04929533904237465,0.391792256354744,-0.019898282390626645,-0.1811138864315743,nan
1740788788.1056306,-0.039558633760094164,0.3674293643328687,-0.02707607550882435,-0.18034401253914956,nan
1740788788.1095355,-0.02817866005105603,0.33881286921751286,-0.033147028797913855,-0.1775330817221344,nan
1740788788.1134403,-0.01527443779484103,0.3061355191905644,-0.03814538134772847,-0.17274557407444746,nan
1740788788.117345,-0.0009817624404302268,0.26962669835506714,-0.042119314957767204,-0.16606639879699198,nan
1740788788.1212726,0.014548271610622434,0.22955029724440687,-0.04513010785110729,-0.15759983169204836,nan
1740788788.1251774,0.031150911408847553,0.18620226737743925,-0.04725113869007276,-0.14746825534207436,nan
1740788788.1290822,0.04864953207235494,0.1399078839005379,-0.04856675320886063,-0.13581071602172676,nan
1740788788.132987,0.06685755049551102,0.09101874308673685,-0.04917100727197556,-0.12278131324544442,nan
1740788788.1368918,0.08558044569337699,0.03990952392525094,-0.04916630150667638,-0.10854743953770686,nan
1740788788.1407967,0.10461786419951989,-0.013025454791602819,-0.048661923828546075,-0.0932878895120622,nan
1740788788.1447015,0.12376578803635271,-0.0673758486131024,-0.04777251716943984,-0.07719085864321279,nan
1740788788.1486063,0.1428187421145976,-0.1227190379985451,-0.0466164905159198,-0.060451853200938446,nan
1740788788.1525111,0.16157201749874295,-0.178623979305883,-0.045314391965466015,-0.043271533674547474,nan
1740788788.1564157,0.1798238868028579,-0.2346551193532549,-0.043987262901017586,-0.02585351464361308,nan
1740788788.1603205,0.19737778805780004,-0.29037633622163317,-0.0427549925675009,-0.008402144438679216,nan
1740788788.1642253,0.21404445371586836,-0.34535486884520616,-0.0417346923052162,0.008879711918928168,nan
1740788788.168151,0.2296439620291751,-0.3991651981777894,-0.041039108454487404,0.025792863107493444,nan
1740788788.1720557,0.24400768884750662,-0.4513928433249744,-0.040775092496568535,0.04214393217549175,nan
1740788788.1759605,0.25698013892201693,-0.5016380369861928,-0.04104214634218032,0.057747425021642096,nan
1740788788.1798654,0.2684206370619775,-0.5495192458479887,-0.04193105982821466,0.07242770502521326,nan
1740788788.1837702,0.2782048609601047,-0.5946765031959946,-0.043522656444267456,0.08602085320243263,nan
1740788788.187675,0.28622619916248393,-0.6367745229516124,-0.04588666209470352,0.09837639451257907,nan
1740788788.1915798,0.2923969194947701,-0.6755055665703552,-0.04908071032197749,0.10935887238456338,nan
1740788788.1954846,0.296649135248123,-0.7105920367396282,-0.053149495887657786,0.1188492551664503,nan
1740788788.1993895,0.29893555855570625,-0.7417887745591789,-0.058124086945295,0.12674615999933705,nan
1740788788.2032943,0.2992300326314911,-0.7688850398499796,-0.06402140426179687,0.1329668815645949,nan
1740788788.207199,0.2975278368743724,-0.7917061573873845,-0.07084387407018455,0.13744821522949163,nan
1740788788.2111037,0.29384576123800116,-0.8101148151605326,-0.07857925918676195,0.14014706629897222,nan
1740788788.215028,0.28822194870545287,-0.8240120041894823,-0.08720067102049205,0.14104083934840472,nan
1740788788.2189329,0.28071550716245297,-0.8333375929504052,-0.09666676306345595,0.14012760393972948,nan
1740788788.2228377,0.2714058944078638,-0.8380705330326425,-0.10692210440050946,0.13742603538771875,nan
1740788788.2267423,0.26039208245002937,-0.8382286962443928,-0.11789772973566083,0.1329751316193992,nan
1740788788.230647,0.2477915095871377,-0.8338683469608403,-0.12951186042448984,0.12683370953346343,nan
1740788788.234552,0.2337388310345534,-0.8250832570348527,-0.14167078904758387,0.11907968659340769,nan
1740788788.2384567,0.2183844810181201,-0.812003474031156,-0.1542699181810021,0.10980915565376881,nan
1740788788.2423615,0.2018930612774481,-0.7947937568670792,-0.16719494223627585,0.09913526320017779,nan
1740788788.2462664,0.18444157279529738,-0.7736516961137717,-0.18032315957441947,0.08718690325783077,nan
1740788788.2501712,0.16621750926920612,-0.7488055392010255,-0.19352490056360155,0.0741072411685368,nan
1740788788.254076,0.1474168323507331,-0.7205117435472195,-0.20666505586614603,0.06005208323290256,nan
1740788788.2579808,0.12824184998059554,-0.6890522831771275,-0.21960468802221197,0.04518810984338505,nan
1740788788.2619038,0.10889902023000765,-0.6547317366698172,-0.23220270835910772,0.029690991178438212,nan
1740788788.2658086,0.08959670390834833,-0.6178741862752329,-0.24431760040819206,0.013743405773144972,nan
1740788788.2697134,0.07054288980512616,-0.5788199597323208,-0.2558091703659013,-0.002467016685791749,nan
1740788788.2736182,0.05194291679343869,-0.5379222476981095,-0.26654030469917195,-0.01874980618353371,nan
1740788788.277523,0.03399721712813454,-0.49554363074331464,-0.276378714774251,-0.03491379408469806,nan
1740788788.2814276,0.0168991051231054,-0.45205255057664007,-0.28519864838470493,-0.050769262651343454,nan
1740788788.2853324,0.0008326349892528308,-0.4078197605209114,-0.2928825482707244,-0.06613007920026141,nan
1740788788.2892373,-0.014029449038664658,-0.3632147902772867,-0.29932263815603477,-0.08081579187397411,nan
1740788788.293142,-0.02752764805597898,-0.3186024596797552,-0.3044224174776013,-0.09465366438714032,nan
1740788788.297047,-0.03951750822616756,-0.27433947546558723,-0.3080980468408311,-0.10748062773534492,nan
1740788788.3009517,-0.04987126516477266,-0.2307711440760344,-0.31027960729119425,-0.11914512771023467,nan
1740788788.3048565,-0.05847931480070629,-0.18822823216646634,-0.3109122177419205,-0.12950884814516556,nan
1740788788.3087788,-0.06525149431188909,-0.1470240048606788,-0.3099569963243419,-0.13844829110787463,nan
1740788788.3126836,-0.07011815867559507,-0.10745146984745418,-0.3073918530185066,-0.14585619674824188,nan
1740788788.3165884,-0.07303104047562904,-0.06978085320894163,-0.30321210266077064,-0.15164278718454396,nan
1740788788.3204932,-0.07396388284734878,-0.0342573304127416,-0.29743088929470163,-0.15573682065387828,nan
1740788788.324398,-0.07291283779464289,-0.0010990332180721336,-0.2900794148126563,-0.15808644414252918,nan
1740788788.3283026,-0.06989662455646041,0.029504649631606653,-0.28120696690752495,-0.15865983482976767,nan
1740788788.3322074,-0.06495644520907391,0.05739446310225115,-0.27088074349595803,-0.157445622902001,nan
1740788788.3361123,-0.05815565723844161,0.08244235630332263,-0.2591854729637257,-0.15445309060055162,nan
1740788788.340017,-0.04957920537824084,0.10455222430189848,-0.24622283179770718,-0.14971214473171293,nan
1740788788.343922,-0.03933281755712841,0.12366031631280777,-0.23211066338435543,-0.14327306226786432,nan
1740788788.3478267,-0.027541972306830913,0.1397353086542792,-0.21698200394764716,-0.13520601107819183,nan
1740788788.3517315,-0.014350647424889553,0.15277804425523175,-0.20098392374755117,-0.12560035022229604,nan
1740788788.355662,8.013796359290867e-05,0.1628209438659004,-0.184276193739624,-0.11456371659438641,nan
1740788788.359567,0.015573973566423396,0.16992709742454143,-0.1670297898854371,-0.10222090699568438,nan
1740788788.3634717,0.03194088383383335,0.17418904723635562,-0.14942524918026193,-0.0887125669138006,nan
1740788788.3673766,0.04897931121147105,0.1757272776948051,-0.13165089320852283,-0.0741936993774481,nan
1740788788.3712811,0.06647823658191063,0.17468842918946956,-0.113900936629498,-0.05883200921056616,nan
1740788788.375186,0.08421941519191446,0.17124325656978664,-0.09637349941789741,-0.04280609981143582,nan
1740788788.3790908,0.10197970503365315,0.16558435504339572,-0.0792685429200673,-0.02630354121018094,nan
1740788788.3829956,0.11953346355234212,0.1579236786566988,-0.06278575082228802,-0.00951882959501718,nan
1740788788.3869004,0.13665498770278411,0.1484898785114641,-0.047122376950666005,0.0073487402719200935,nan
1740788788.3908052,0.15312097178304113,0.1375254895951145,-0.03247108242210892,0.02409726731775063,nan
1740788788.39471,0.16871295714214013,0.1252839965272117,-0.019017785034971396,0.04052447789004459,nan
1740788788.398615,0.18321974779515265,0.11202680963677254,-0.006939543920348117,0.05642997720551386,nan
1740788788.4025443,0.1964397661850021,0.09802018357396994,0.0035974976324940834,0.07161749447240899,nan
1740788788.406449,0.20818332380518845,0.08353211111822693,0.012440088611234381,0.08589709759988363,nan
1740788788.410354,0.21827478213775187,0.06882922496875589,0.01944974399809883,0.09908735361627345,nan
1740788788.4142587,0.226554580359807,0.05417374009273792,0.02450449461400455,0.1110174113772761,nan
1740788788.4181635,0.2328811075210342,0.03982046866331708,0.02750049298375154,0.12152898385069594,nan
1740788788.4220684,0.237132398381893,0.026013938750647364,0.028353456386535775,0.13047820821034112,nan
1740788788.4259732,0.2392076338140307,0.012985646743747874,0.02699992973384609,0.1377373631489666,nan
1740788788.4298778,0.2390284285839385,0.0009514719915160093,0.023398352589142864,0.1431964242176808,nan
1740788788.4337826,0.23653989144967688,-0.009890719626400524,0.017529916494924254,0.14676443960336483,nan
1740788788.4376874,0.23171144477783873,-0.019363258535534736,0.009399200785383763,0.14837071055071044,nan
1740788788.4415922,0.22453739331126857,-0.02731061834189827,-0.0009654227825206295,0.14796576260375002,nan
1740788788.445497,0.21503723426337426,-0.033601106899746325,-0.0135116239710471,0.1455220959636099,nan
1740788788.4494255,0.20325570355664765,-0.038128284444385874,-0.02816319159363269,0.14103470551351383,nan
1740788788.4533303,0.1892625557346541,-0.040812094552794165,-0.04482035720395817,0.13452136342605628,nan
1740788788.457235,0.17315207783083958,-0.04159969672625432,-0.0633603650085454,0.12602265971762433,nan
1740788788.46114,0.15504234024603142,-0.04046599253081923,-0.08363828554286859,0.11560179862570306,nan
1740788788.4650447,0.13507419044110236,-0.03741384045098427,-0.1054880681243827,0.10334415123102801,nan
1740788788.4689496,0.11340999796368423,-0.03247395787665319,-0.12872382459490833,0.08935656730215025,nan
1740788788.4728544,0.09023216196995956,-0.025704511920007323,-0.15314133441513805,0.07376645187862711,nan
1740788788.476759,0.06574139494692298,-0.01719040401365164,-0.178519758801171,0.05672061460454447,nan
1740788788.4806638,0.04015479876053661,-0.007042256441511707,-0.20462354932152987,0.038383902250567446,nan
1740788788.4845686,0.013703751425240518,0.004604887933599747,-0.23120453422724696,0.01893762719483774,nan
1740788788.4884734,-0.013368374913660903,0.017593138488399808,-0.258004163790065,-0.001422193153656535,nan
1740788788.4923782,-0.04080864239381338,0.031743585102510956,-0.28475589409616336,-0.02248676893438803,nan
1740788788.4963052,-0.06835709817265279,0.0468583621007413,-0.3111876871051579,-0.04403662345546289,nan
1740788788.50021,-0.09574942196766774,0.06272292564895547,-0.337024603354593,-0.06584381117046406,nan
1740788788.5041149,-0.12271964368607487,0.07910852014984732,-0.36199146248506897,-0.08767424580866402,nan
1740788788.5080197,-0.14900290350135598,0.09577480721011204,-0.38581554579470195,-0.10929011515622239,nan
1740788788.5119245,-0.17433822608262975,0.11247262904947779,-0.408229314315592,-0.1304523579213847,nan
1740788788.5158293,-0.19847128031685907,0.1289468768120466,-0.4289731154488652,-0.1509231772988261,nan
1740788788.5197341,-0.2211570957890029,0.14493943313593624,-0.4477978510055136,-0.17046856528688945,nan
1740788788.523639,-0.2421627075042271,0.16019215754961286,-0.46446757958195517,-0.18886081151382852,nan
1740788788.5275438,-0.2612697008487677,0.17444988280057988,-0.4787620265535823,-0.2058809702997056,nan
1740788788.5314486,-0.2782766295888629,0.18746339008913504,-0.49047897559533477,-0.22132125992131774,nan
1740788788.5353534,-0.29300128079416926,0.19899233137821126,-0.49943651653181276,-0.23498736855750446,nan
1740788788.539258,-0.3052827619340014,0.20880806747781822,-0.5054751254738062,-0.24670064216773993,nan
1740788788.5431833,-0.3149833870198591,0.21669639145428732,-0.5084595546044098,-0.2563001305918535,nan
1740788788.5470881,-0.32199034054114933,0.22246010808163594,-0.5082805106240261,-0.26364446944394204,nan
1740788788.550993,-0.3262171000456458,0.22592144152330088,-0.5048561027353488,-0.2686135768974723,nan
1740788788.5548978,-0.3276046005322747,0.22692424519233265,-0.4981330431301535,-0.2711101462072202,nan
1740788788.5588026,-0.3261221263292605,0.22533598976912023,-0.4880875852104475,-0.2710609167705472,nan
1740788788.5627074,-0.3217679188016085,0.22104950763727688,-0.4747261872163573,-0.26841770867704445,nan
1740788788.5666122,-0.3145694910422567,0.21398447450727842,-0.4580858915192092,-0.26315820801099815,nan
1740788788.570517,-0.30458364362383067,0.20408861170846143,-0.43823441254615003,-0.255286492633135,nan
1740788788.574422,-0.29189617849382293,0.1913385955153786,-0.4152699291066224,-0.24483329075249619,nan
1740788788.5783267,-0.27662131115547106,0.1757406629050195,-0.3893205797637889,-0.23185596728053123,nan
1740788788.5822315,-0.2589007843592264,0.15733090628619206,-0.3605436628080613,-0.21643823571124704,nan
1740788788.5861363,-0.2389026896042768,0.13617525296926694,-0.32912454531633345,-0.19868959606569414,nan
1740788788.5900605,-0.2168200057853142,0.11236912842072003,-0.29527528869067493,-0.17874450224844093,nan
1740788788.5939653,-0.19286886728544272,0.08603680563889093,-0.25923300093514556,-0.15676126495942452,nan
1740788788.59787,-0.16728657668153765,0.057330446261432216,-0.22125792872014396,-0.13292069905830506,nan
1740788788.601775,-0.1403293799638093,0.02642884223757049,-0.18163130497228835,-0.10742452696202551,nan
1740788788.6056798,-0.1122700247482252,-0.006464129963658921,-0.1406529702866167,-0.08049355224206023,nan
1740788788.6095846,-0.083395124351662,-0.041121327616801956,-0.09863878886058099,-0.05236562004889971,nan
1740788788.6134892,-0.05400235277973803,-0.07729441460935094,-0.055917881870840284,-0.023293383302108027,nan
1740788788.617394,-0.024397497622596524,-0.11471616835586507,-0.012829703230679725,0.0064581042798022925,nan
1740788788.6212988,0.005108600456885325,-0.15310299770572813,0.030279015543509626,0.03661394529703404,nan
1740788788.6252036,0.03420319154384191,-0.19215764653501924,0.07305742308360462,0.06689208120119627,nan
1740788788.6291084,0.06257481237987034,-0.231572055709817,0.11515377898441398,0.09700607402808363,nan
1740788788.6330132,0.08991650232028961,-0.27103035438126594,0.15621872712366455,0.12666795988720117,nan
1740788788.636936,0.11592900679938946,-0.3102119501403387,0.1959085802162773,0.15559114580452324,nan
1740788788.6408408,0.14032393558414608,-0.348794686437753,0.2338885839187157,0.18349332083469863,nan
1740788788.6447456,0.16282684324581886,-0.3864580348740999,0.2698361286924013,0.21009935196728402,nan
1740788788.6486504,0.18318019975660385,-0.4228862894960972,0.3034438778386243,0.23514413525472835,nan
1740788788.6525552,0.20114621992302725,-0.457771730102447,0.3344227806316359,0.2583753727909023,nan
1740788788.65646,0.21650952149357472,-0.4908177217694675,0.3625049402992573,0.2795562466679827,nan
1740788788.6603649,0.22907958321670666,-0.5217417183511767,0.3874463077260992,0.2984679618338363,nan
1740788788.6642697,0.23869297586501523,-0.5502781385863129,0.4090291731748448,0.3149121308558132,nan
1740788788.6681745,0.24521534126709696,-0.5761810846477773,0.42706443002463973,0.32871297496135804,nan
1740788788.6720793,0.24854309668283783,-0.599226874486886,0.4413935864982534,0.3397193173595248,nan
1740788788.6759841,0.24860484439974165,-0.6192163611410709,0.45189050357437816,0.3478063467359926,nan
1740788788.679889,0.24536246919443033,-0.635977014271593,0.4584628397385607,0.352877130940553,nan
1740788788.6838107,0.23881190926881876,-0.6493647415569317,0.4610531858939297,0.354863863230767,nan
1740788788.6877155,0.2289835894070855,-0.6592654301644679,0.4596398766067837,0.3537288259768415,nan
1740788788.6916203,0.21594250837754858,-0.6655961913322138,0.4542374668760698,0.34946505944680006,nan
1740788788.695525,0.19978797599175108,-0.6683062940856421,0.44489686676178114,0.34209672615201137,nan
1740788788.6994298,0.1806529986986672,-0.6673777772621879,0.43170512945583167,0.3316791642135763,nan
1740788788.7033346,0.15870331610133948,-0.6628257322861857,0.4147848916993135,0.3182986262811947,nan
1740788788.7072394,0.13413609430207205,-0.6546982524968918,0.3942934688104769,0.302071703668029,nan
1740788788.7111442,0.10717828547570511,-0.6430760482478866,0.370421609956061,0.28314443852697396,nan
1740788788.715049,0.0780846665037718,-0.6280717304328606,0.34339192264194346,0.2616911300543504,nan
1740788788.7189538,0.047135572840973194,-0.609828768515678,0.3134569786849722,0.23791284383494865,nan
1740788788.7228587,0.014634346995597734,-0.5885201325166067,0.28089711712377147,0.21203563650608623,nan
1740788788.7267635,-0.019095475945603204,-0.564346631697211,0.24601796260058167,0.18430851088698663,nan
1740788788.7306938,-0.053713220461484884,-0.5375349658596457,0.2091476806679643,0.1550011195629782,nan
1740788788.7345986,-0.08886433248952948,-0.5083355081992603,0.17063399421384864,0.12440123760259345,nan
1740788788.7385035,-0.12418382076505957,-0.4770198414909734,0.13084098772785013,0.09281202759153963,nan
1740788788.7424083,-0.15929984519748092,-0.44387807202023644,0.09014572842483425,0.06054912246446774,nan
1740788788.746313,-0.1938374180675782,-0.4092159480607323,0.048934735274030125,0.02793755367887069,nan
1740788788.750218,-0.22742218234308506,-0.37335181182800115,0.00760032873187761,-0.0046914459169957665,nan
1740788788.7541227,-0.2596842302605992,-0.3366134156780582,-0.03346310457512955,-0.03700373363862314,nan
1740788788.7580276,-0.29026192452462946,-0.2993346348527827,-0.07386289684166623,-0.06866561082041733,nan
1740788788.7619324,-0.31880568404036747,-0.26185211028245137,-0.113211897575162,-0.09934720591956221,nan
1740788788.7658372,-0.3449816960330955,-0.22450185582640914,-0.15113224895878735,-0.12872585320634278,nan
1740788788.769742,-0.36847551671820067,-0.1876158648552051,-0.18725910135137522,-0.1564894330971012,nan
1740788788.7736468,-0.38899552337181215,-0.1515187512445111,-0.2212442324380458,-0.1823396402385136,nan
1740788788.7775762,-0.4062761817100866,-0.1165244596594329,-0.25275953414793384,-0.20599514584103987,nan
1740788788.781481,-0.42008109390812304,-0.08293307945760942,-0.2815003324095937,-0.22719462148417574,nan
1740788788.7853856,-0.430205794366979,-0.05102779563466617,-0.30718850611418913,-0.24569959267220182,nan
1740788788.7892904,-0.4364802624553369,-0.021072008983444548,-0.3295753732919371,-0.2612970917991235,nan
1740788788.7931952,-0.4387711238934686,0.006693343949937515,-0.34844431446554136,-0.2738020818745532,nan
1740788788.7971,-0.4369835151907226,0.03205224244041579,-0.36361310540949043,-0.28305962435452364,nan
1740788788.801005,-0.4310625885698211,0.05481577823030455,-0.37493593409692266,-0.2889467666956979,nan
1740788788.8049097,-0.42099463808523385,0.07482407328694775,-0.3823050794342591,-0.2913741277883342,nan
1740788788.8088145,-0.4068078311392594,0.09194789746810436,-0.3856522324431428,-0.29028716220006534,nan
1740788788.8127193,-0.38857253328652447,0.10608996788150221,-0.3849494438221788,-0.28566708715403116,nan
1740788788.8166242,-0.36640121806136416,0.11718591491877492,-0.3802096852778916,-0.27753145934369866,nan
1740788788.820529,-0.3404479575273711,0.1252049033103706,-0.3714870156237627,-0.2659343920234542,nan
1740788788.8244572,-0.31090749329701883,0.1301499000537912,-0.35887634637487287,-0.25096640627751177,nan
1740788788.828362,-0.27801389186334646,0.13205758467791565,-0.3425128053788285,-0.23275391392709405,nan
1740788788.8322668,-0.2420387921861773,0.1309979009852654,-0.3225707008856515,-0.21145833315339807,nan
1740788788.8361716,-0.2032892575426927,0.1270732531249628,-0.2992620923335781,-0.18727484155675023,nan
1740788788.8400764,-0.1621052476468892,0.1204173525544147,-0.27283497797734857,-0.16043077500530592,nan
1740788788.8439813,-0.11885673092524007,0.11119372610989432,-0.24357111327356779,-0.13118368421416243,nan
1740788788.847886,-0.0739404605684646,0.09959389898781285,-0.21178347762743457,-0.09981906450247181,nan
1740788788.851791,-0.027776441524177353,0.08583526990285682,-0.17781341066048645,-0.0666477775672594,nan
1740788788.8556957,0.0191958810834464,0.07015869900051519,-0.14202744254491534,-0.03200318735406909,nan
1740788788.8596005,0.06652167855709494,0.052825832225303876,-0.10481384613277583,0.0037619648365801897,nan
1740788788.8635054,0.11373500392864126,0.03411618874949606,-0.06657894155590491,0.04027891802299444,nan
1740788788.86741,0.1603632271808051,0.014324040719511677,-0.027743186654538544,0.07716645141101096,nan
1740788788.871337,0.20593159949871218,-0.006244883050156755,0.011262911018405075,0.11403461354186596,nan
1740788788.8752418,0.2499679039211632,-0.027276835738342352,0.05000302279991283,0.15048858576920968,nan
1740788788.8791466,0.2920071484099812,-0.04845359809801349,0.0880393285792402,0.18613264339957633,nan
1740788788.8830514,0.3315962564104818,-0.06945609413007041,0.12493690660373676,0.2205741764531714,nan
1740788788.8869562,0.3682987094498816,-0.08996803899808452,0.1602681415190552,0.25342773097909527,nan
1740788788.890861,0.4016990962224838,-0.1096795806839923,0.19361710813116068,0.28431903120438123,nan
1740788788.8947659,0.43140752294592466,-0.12829089662397397,0.2245838881724698,0.31288894251929744,nan
1740788788.8986707,0.45706384054278065,-0.14551570669550065,0.2527887775532294,0.33879733540855594,nan
1740788788.9025755,0.47834164540333934,-0.16108466445249225,0.2778763421836101,0.36172681093206976,nan
1740788788.9064803,0.49495201211131445,-0.1747485894234412,0.2995192814598691,0.38138624923869785,nan
1740788788.9103851,0.5066469185534698,-0.18628150459100556,0.3174220599133693,0.39751414385729966,nan
1740788788.91429,0.5132223262713975,-0.19548344485089914,0.3313242693145288,0.4098816861430439,nan
1740788788.9182153,0.5145208817299198,-0.20218300428909203,0.34100368569152045,0.41829556625124,nan
1740788788.92212,0.5104342073490149,-0.20623959250180254,0.34627898824861936,0.42260045935044316,nan
1740788788.926025,0.5009047546483818,-0.20754537289142913,0.34701211003100557,0.4226811684522674,nan
1740788788.9299297,0.4859271956560711,-0.2060268588790742,0.34311019335764714,0.4184643982049492,nan
1740788788.9338346,0.4655493328022338,-0.2016461472530183,0.33452712650461947,0.4099201372459609,nan
1740788788.9377394,0.4398725118204203,-0.19440177139202225,0.3212646418379739,0.39706263020761573,nan
1740788788.9416442,0.409051526673867,-0.1843291608296454,0.30337295953545734,0.37995092418793863,nan
1740788788.945549,0.3732940101727353,-0.17150069752545372,0.28095096516513374,0.35868897840376607,nan
1740788788.9494538,0.33285930870818264,-0.1560253632438917,0.25414591366938627,0.3334253297990755,nan
1740788788.9533587,0.28805684435716433,-0.1380479765726583,0.22315265669604756,0.30435231155176895,nan
1740788788.9572632,0.23924397246350407,-0.11774802229964255,0.18821239468478396,0.27170482566836984,nan
1740788788.961168,0.18682334763099653,-0.09533808006972808,0.14961095961498544,0.23575867513878443,nan
1740788788.965092,0.1312398158279788,-0.07106186341869819,0.10767663880997456,0.1968284654024673,nan
1740788788.9689968,0.0729768549548271,-0.045191884389477854,0.0627775546291613,0.15526508911248565,nan
1740788788.9729016,0.01255259072200825,-0.018026762934860108,0.015318619223324568,0.11145281233483702,nan
1740788788.9768062,-0.04948458101677448,0.010111795839709701,-0.034261912262905654,0.06580598434700946,nan
1740788788.980711,-0.11256073027577096,0.03888232987912248,-0.08549626262318856,0.018765397063079364,nan
1740788788.9846158,-0.17608144831706718,0.06792722367914476,-0.137891296417887,-0.02920567622524787,nan
1740788788.9885206,-0.23943717996689143,0.09687655376464314,-0.19093299189134677,-0.07762572967767009,nan
1740788788.9924254,-0.3020087873330405,0.12535213994996486,-0.2440911828881046,-0.12599952503780315,nan
1740788788.9963303,-0.3631732966706082,0.15297176363718934,-0.2968245297149053,-0.1738228039541235,nan
1740788789.000235,-0.4223097778400578,0.17935351221420576,-0.34858567528187223,-0.2205871708595839,nan
1740788789.00414,-0.47880530393798115,0.20412020680051665,-0.39882654061948675,-0.2657851026259397,nan
1740788789.0080447,-0.5320609372780993,0.22690386917576114,-0.4470037120322143,-0.3089150394388228,nan
1740788789.0119672,-0.5814976869752442,0.24735018273165651,-0.4925838707350592,-0.3494865099739283,nan
1740788789.015872,-0.626562382951475,0.2651229017262033,-0.5350492148429142,-0.3870252430101384,nan
1740788789.0197768,-0.666733411249521,0.27990816299909976,-0.5739028230570349,-0.4210782171048247,nan
1740788789.0236816,-0.7015262561086348,0.2914186546348908,-0.608673909327202,-0.4512185998889187,nan
1740788789.0275865,-0.7304987953311266,0.29939759683652106,-0.6389229181667848,-0.47705052891964705,nan
1740788789.0314913,-0.7532562970392898,0.3036224914935834,-0.6642464111614149,-0.4982136868578677,nan
1740788789.035396,-0.7694560679823221,0.303908598589154,-0.6842816965365169,-0.5143876250114766,nan
1740788789.039301,-0.7788117060871016,0.3001120996749536,-0.6987111554264979,-0.5252957909989343,nan
1740788789.0432057,-0.7810969129364458,0.29213291114076934,-0.707266220706626,-0.5307092184260634,nan
1740788789.0471106,-0.7761488252809141,0.279917112890584,-0.7097309668912655,-0.5304498390193233,nan
1740788789.0510154,-0.7638708285181407,0.26345896129085766,-0.7059452726486976,-0.524393380600315,nan
1740788789.0549202,-0.7442348192761019,0.242802458848229,-0.6958075209091306,-0.5124718175961119,nan
1740788789.0588422,-0.7172828887790037,0.21804245697353988,-0.6792768053207926,-0.49467534443127986,nan
1740788789.062747,-0.6831284035186012,0.18932527236227004,-0.6563746159079408,-0.4710538461100844,nan
1740788789.0666518,-0.6419564648587254,0.15684880193105824,-0.6271859811699066,-0.44171784453808693,nan
1740788789.0705564,-0.5940237345228387,0.12086212585627644,-0.5918600484945725,-0.40683890361506025,nan
1740788789.0744612,-0.5396576184076551,0.08166459302175495,-0.550610089603251,-0.3666494808173572,nan
1740788789.078366,-0.47925480678225324,0.039604388054968784,-0.5037129227548204,-0.321442217836846,nan
1740788789.0822709,-0.4132791746224333,-0.004923415930768435,-0.45150774857141834,-0.2715686678127159,nan
1740788789.0861757,-0.34225905154381653,-0.051479309812468226,-0.394394401560772,-0.21743746173792458,nan
1740788789.0900805,-0.2667838764835064,-0.09958229214502888,-0.3328310246551843,-0.15951192169884373,nan
1740788789.0939853,-0.18750025788787192,-0.14871328519555158,-0.2673311793174072,-0.09830713366908227,nan
1740788789.0978901,-0.10510746564242587,-0.1983189997221319,-0.19846040893211953,-0.03438649758072282,nan
1740788789.101795,-0.020352386278964938,-0.24781622032308448,-0.12683227826170382,0.03164222270735829,nan
1740788789.1057253,0.06597602193361667,-0.296596478821134,-0.05310391665028702,0.0991313221788242,nan
1740788789.10963,0.15305273261210617,-0.34403107903900243,0.022028902634391535,0.16739801825091213,nan
1740788789.113535,0.2400230677160108,-0.3894764325089025,0.097837110069494,0.23572971895791084,nan
1740788789.1174397,0.3260094768449954,-0.4322796611772154,0.17356407352685815,0.3033896554627469,nan
1740788789.1213446,0.41011862566963037,-0.47178442005265836,0.24843167302200228,0.36962283491393133,nan
1740788789.1252494,0.4914487365125855,-0.5073368900341554,0.3216466681885587,0.4336622662994426,nan
1740788789.1291542,0.5690971212912387,-0.5382918888722891,0.39240730700735726,0.49473540896907275,nan
1740788789.133059,0.6421678447246494,-0.5640190463909716,0.4599101216478598,0.5520707909323486,nan
1740788789.1369638,0.7097794539219509,-0.583908988744909,0.5233568550601264,0.6049047419164355,nan
1740788789.1408687,0.7710727092251382,-0.5973794756306008,0.5819614602112757,0.6524881845101438,nan
1740788789.1447735,0.8252182504918328,-0.603881434016314,0.6349571126100549,0.6940934255446568,nan
1740788789.1486783,0.871424132883016,-0.6029048321177546,0.6816031760215039,0.7290208891832596,nan
1740788789.1526074,0.9089431666719817,-0.5939843380240527,0.7211920610507844,0.7566057330211072,nan
1740788789.1565123,0.937079996613965,-0.5767047085716996,0.753055916576768,0.776224288837466,nan
1740788789.1604168,0.9551978580060417,-0.550705855765828,0.776573094842844,0.7873002704977767,nan
1740788789.1643217,0.9627249487138938,-0.5156875402476222,0.7911743323610271,0.7893106928678286,nan
1740788789.1682265,0.9591603591308934,-0.47141364398790964,0.7963485906474692,0.7817914474689941,nan
1740788789.1721313,0.9440795052457384,-0.41771597752983597,0.791648503170016,0.7643424829593062,nan
1740788789.1760361,0.917139013702982,-0.35449758068318826,0.7766953777341166,0.7366325413529292,nan
1740788789.179941,0.8780810119170454,-0.2817354795605805,0.7511837068404189,0.6984034041689607,nan
1740788789.1838458,0.8267367809113338,-0.19948286720844124,0.7148851422898149,0.6494736064039298,nan
1740788789.1877506,0.7630297335623841,-0.1078706797870703,0.6676518944596103,0.5897415803214003,nan
1740788789.1916554,0.6869776862934754,-0.007108545254088144,0.6094195211942146,0.5191881955135966,nan
1740788789.1955602,0.5986943979384032,0.10251491323849977,0.5402090761082141,0.4378786664774728,nan
1740788789.1994886,0.4983903554366454,0.22063243155713444,0.46012859124858735,0.34596380402148275,nan
1740788789.2033935,0.3863727921760702,0.34679912310405103,0.36937387446320014,0.243680592137144,nan
1740788789.2072983,0.26304493111647254,0.4804941625917131,0.26822860742911825,0.13135207748666403,nan
1740788789.211203,0.12890445125288003,0.6211231302226495,0.1570637360591864,0.009386564327494526,nan
1740788789.215108,-0.015458817543233751,0.768021005608209,0.036336150879744115,-0.12172388653138114,nan
1740788789.2190127,-0.16936595978962982,0.9204557949866616,-0.09341333909403102,-0.261405650318042,nan
1740788789.2229176,-0.3320527818316055,1.0776327696218053,-0.23156272951682494,-0.40900641217457123,nan
1740788789.2268224,-0.5026743372132384,1.2386992877293408,-0.3774122255388259,-0.5637987062786783,nan
1740788789.230727,-0.6803101396049448,1.4027501669404638,-0.5301883071266329,-0.7249840984755368,nan
1740788789.2346318,-0.8639700269959463,1.5688335692193562,-0.6890484280479284,-0.8916979851406388,nan
1740788789.2385366,-1.0526006352193817,1.7359573553508723,-0.8530863162227373,-1.0630149756445346,nan
1740788789.2424414,-1.245092433560739,1.903095861651468,-1.0213378379205886,-1.2379548206823332,nan
1740788789.2463686,-1.4402872702539076,2.069197047472325,-1.1927873833475673,-1.4154888439101732,nan
1740788789.2502735,-1.6369863711376054,2.233189958397636,-1.3663747265637465,-1.594546829840416,nan
1740788789.2541783,-1.833958730668704,2.3939924468282623,-1.5410023084408773,-1.7740243168274454,nan
1740788789.258083,-2.029949830904825,2.550519088913104,-1.715542887550211,-1.95279024026383,nan
1740788789.261988,-2.223690621009063,2.701689234574461,-1.8888475004955114,-2.1296948678359953,nan
1740788789.2658927,-2.413906687322971,2.846435125692464,-2.05975367030718,-2.303577965889644,nan
1740788789.2697976,-2.5993275421234237,2.9837100163851034,-2.2270937991167012,-2.473277133653955,nan
1740788789.2737024,-2.7786959578430896,3.1124962287579403,-2.3897036794586275,-2.6376362402919225,nan
1740788789.2776072,-2.9507772728064907,3.2318130775092127,-2.546431057217906,-2.795513898499613,nan
1740788789.281512,-3.1143685944220354,3.3407245973650106,-2.6961441784667226,-2.9457919076822296,nan
1740788789.2854168,-3.2683078262778826,3.4383470084832783,-2.837740252225603,-3.087383599597895,nan
1740788789.2893217,-3.41148244671349,3.5238558566975184,-2.970153761541892,-3.2192420197841884,nan
1740788789.293247,-3.542837968171389,3.5964927677587886,-3.092364556203447,-3.3403678790660796,nan
1740788789.2971518,-3.6613860089618453,3.6555717575605513,-3.2034056618903075,-3.4498172109805334,nan
1740788789.3010566,-3.766211911978538,3.7004850436730394,-3.302370742601076,-3.5467086730314845,nan
1740788789.3049614,-3.8564818483625296,3.73070830734497,-3.388421155757843,-3.6302304322929873,nan
1740788789.3088663,-3.931449348096744,3.745805359419379,-3.460792542473218,-3.6996465789877093,nan
1740788789.312771,-3.990461203991007,3.7454321683214524,-3.518800899030475,-3.75430301525733,nan
1740788789.316676,-4.032962700451249,3.7293402133699383,-3.5618480796535317,-3.7936327703818296,nan
1740788789.3205807,-4.058502123774963,3.697379132097152,-3.5894266850944785,-3.8171606981627293,nan
1740788789.3244855,-4.0667345164333835,3.6494986359893336,-3.6011242964054198,-3.8245075170243443,nan
1740788789.3283904,-4.057424643841413,3.5857496750303897,-3.596627018448337,-3.8153931585667222,nan
1740788789.3322952,-4.030449148428212,3.506284837596393,-3.575722303187937,-3.789639395780985,nan
1740788789.3362,-3.9857978723512617,3.4113579785525094,-3.53830102856203,-3.747171727866369,nan
1740788789.3401237,-3.923574336889799,3.3013230747936784,-3.4843588146834623,-3.6880205045202277,nan
1740788789.3440285,-3.8439953733529304,3.176632313889842,-3.4139965652467956,-3.6123212786577645,nan
1740788789.3479333,-3.7473899071861143,3.0378334278898436,-3.327420228240147,-3.5203143827058865,nan
1740788789.351838,-3.6341969037991726,2.885566290649545,-3.224939776345306,-3.4123437298530965,nan
1740788789.355743,-3.5049624914113293,2.720558803223795,-3.1069674136941887,-3.2888548478720536,nan
1740788789.3596478,-3.3603362828570695,2.543622097844602,-2.9740150218839863,-3.1503921593105244,nan
1740788789.3635523,-3.201066924764073,2.35564509674646,-2.826690864283932,-2.9975955279175754,nan
1740788789.3674572,-3.027996908746862,2.1575884675437105,-2.665695573641934,-2.8311960970837218,nan
1740788789.371362,-2.8420566852039872,1.9504780219660256,-2.491817453768671,-2.6520114517760915,nan
1740788789.3752668,-2.6442581259125406,1.7353976094713748,-2.305927131591438,-2.460940140894362,nan
1740788789.3791716,-2.4356873868343154,1.5134815615394464,-2.1089716010836064,-2.2589556021141,nan
1740788789.3830764,-2.217497227338822,1.2859067462642995,-1.9019677054439503,-2.047099536077779,nan
1740788789.3869991,-1.990898846369614,1.0538842961790924,-1.6859951083824543,-1.8264747811996274,nan
1740788789.390904,-1.7571532998957629,0.818651075028411,-1.4621888094279292,-1.5982377443315403,nan
1740788789.3948088,-1.5175625672680184,0.5814609514300734,-1.2317312617738698,-1.363590446059994,nan
1740788789.3987136,-1.2734603368121098,0.3435759490182717,-0.9958441542925169,-1.1237722424388403,nan
1740788789.4026184,-1.0262025831176504,0.1062573437184956,-0.755779921947368,-0.8800512874847357,nan
1740788789.4065232,-0.7771580100029237,-0.12924322073784628,-0.5128130508999967,-0.63371580274981,nan
1740788789.410428,-0.5276984340416555,-0.3616925280993685,-0.26823124612142174,-0.3860652217240003,nan
1740788789.4143329,-0.27918918382104707,-0.5898844254743542,-0.023326530269398318,-0.1384012776955552,nan
1740788789.4182377,-0.03297958975971321,-0.8126482309486122,0.22061365702603922,0.10798089599389904,nan
1740788789.4221425,0.20960636164617952,-1.0288568460244005,0.46231529051799086,0.35180158462549377,nan
1740788789.4260473,0.44727913685078985,-1.2374345084718246,0.7005264531492746,0.5918051618651121,nan
1740788789.4299521,0.6787924574286719,-1.4373641242411208,0.9340258254434254,0.8267685441536115,nan
1740788789.4338732,0.9029517279967859,-1.6276941206630542,1.1616309054856593,1.0555093652011291,nan
1740788789.437778,1.118622025790637,-1.8075447672340095,1.3822058969039468,1.2768938085232646,nan
1740788789.4416828,1.32473559161054,-1.9761139148066744,1.594669205175261,1.4898440389249927,nan
1740788789.4455876,1.5202987661553384,-2.1326821089467902,1.7980004859813439,1.6933451772862447,nan
1740788789.4494925,1.7043983205117745,-2.276617038528125,1.991247193191729,1.8864517669004637,nan
1740788789.4533973,1.8762071347262654,-2.407377286274855,2.17353057832516,2.068293683930059,nan
1740788789.457302,2.0349891839069496,-2.5245153538736176,2.344051097996477,2.2380814492325714,nan
1740788789.461207,2.180103797139367,-2.6276799404147106,2.502093190853665,2.3951109038377996,nan
1740788789.4651117,2.3110091605981378,-2.716617459229369,2.6470293908055136,2.538767215675163,nan
1740788789.4690166,2.427265042546805,-2.791172784612614,2.778323748888165,2.668528190716293,nan
1740788789.4729214,2.5285347243839214,-2.8512892264024283,2.8955345418707594,2.783966867461939,nan
1740788789.4768262,2.614586128459877,-2.897007736869287,2.998316251606575,2.8847533796151743,nan
1740788789.4807565,2.685292139999451,-2.92846536079869,3.086420805145954,2.970656077793648,nan
1740788789.4846613,2.7406301270631634,-2.945892945967139,3.159698071689082,3.0415419071909455,nan
1740788789.4885662,2.78068066900984,-2.949612137363823,3.2180956185188188,3.0973760441489713,nan
1740788789.492471,2.805625510328036,-2.9400316844426753,3.261657734064406,3.138220800598486,nan
1740788789.4963758,2.81574476293101,-2.917643096350833,3.2905237321553376,3.164233811212424,nan
1740788789.5002806,2.8114133860062895,-2.8830156854208813,3.3049255572808436,3.175665523846842,nan
1740788789.5041854,2.7930969782265467,-2.83679104418941,3.3051847162261523,3.1728560193691986,nan
1740788789.5080903,2.7613469225158656,-2.7796770057707167,3.2917085667655233,3.1562311922467945,nan
1740788789.511995,2.7167949285802693,-2.7124411415326874,3.264985999109948,3.1262983282461634,nan
1740788789.5159,2.6601470230124296,-2.6359038536571915,3.2255825504930535,3.08364112023555,nan
1740788789.5198047,2.5921770409307348,-2.5509311232889282,3.1741349975939515,3.0289141673498987,nan
1740788789.5237095,2.51371967677922,-2.458426977558724,3.1113454754056256,2.9628370066360743,nan
1740788789.5276396,2.4256631550685377,-2.3593257407885635,3.037975174630937,2.8861877297148903,nan
1740788789.5315444,2.3289415844550225,-2.254584136630126,2.954837672698046,2.7997962399489973,nan
1740788789.5354493,2.224527060615821,-2.1451733087454565,2.8627919560102697,2.7045372080691656,nan
1740788789.539354,2.1134215848685756,-2.032070827901947,2.7627351930632287,2.601322786167882,nan
1740788789.543259,1.9966488663948858,-1.9162527530237385,2.6555953195605273,2.4910951414046063,nan
1740788789.5471637,1.8752460762539285,-1.798685812823117,2.5423234976287175,2.3748188716726086,nan
1740788789.5510685,1.7502556211166846,-1.6803197731386046,2.4238865116678383,2.253473365848426,nan
1740788789.5549734,1.6227170038186827,-1.5620800530467183,2.3012591632754735,2.128045171082178,nan
1740788789.5588782,1.4936588364309153,-1.4448606502122427,2.1754167270543783,1.9995204288950315,nan
1740788789.562783,1.364091069600649,-1.3295174328224604,2.0473275279654195,1.868877440638732,nan
1740788789.5666878,1.2349974994369757,-1.2168618518440288,1.9179456992325759,1.7370794211553777,nan
1740788789.5705926,1.1073286102354545,-1.1076551232810237,1.7882041776629114,1.6050674972719403,nan
1740788789.5745316,0.9819948078814555,-1.0026029256372324,1.6590079906340074,1.4737540050960451,nan
1740788789.5784364,0.8598600948765702,-0.9023506529366503,1.5312278859504254,1.344016136973843,nan
1740788789.5823412,0.7417362336337113,-0.8074792584782395,1.4056943523091932,1.216689985457577,nan
1740788789.586246,0.6283774400249548,-0.7185017190419799,1.28319207427533,1.0925650277434793,nan
1740788789.5901508,0.5204756441851864,-0.6358601435732089,1.1644548614884274,0.972379089816533,nan
1740788789.5940557,0.4186563503201977,-0.559923544503056,1.050161087339362,0.8568138250169609,nan
1740788789.5979605,0.3234751217882571,-0.49098628386797355,0.9409296676139746,0.7464907369659274,nan
1740788789.6018653,0.23541471206902154,-0.4292672003250993,0.8373166046414156,0.6419677717986252,nan
1740788789.60577,0.1548828564541361,-0.3749094170774646,0.7398121173541515,0.5437364994972006,nan
1740788789.609675,0.08221073344160552,-0.3279808246783429,0.648838372410603,0.45221989884033487,nan
1740788789.6135798,0.01765209894326503,-0.2884752267317714,0.564747826197309,0.36777075513815843,nan
1740788789.6174846,-0.03861690942688097,-0.25631413069936143,0.4878221821627975,0.29067067454814904,nan
1740788789.6214118,-0.08649730647460271,-0.23134916041371492,0.4182719625875578,0.221129713417281,nan
1740788789.6253166,-0.12596614607513323,-0.2133650615356146,0.35623668861048374,0.15928661581496317,nan
1740788789.6292214,-0.1570747799130067,-0.20208326612283,0.3017856571580329,0.10520964725626972,nan
1740788789.6331263,-0.1799465130915416,-0.1971659777472717,0.2549192984027704,0.05889800761023197,nan
1740788789.637031,-0.1947736863362886,-0.19822073424527292,0.21557109255601697,0.020283801386574932,nan
1740788789.640936,-0.20181421914800432,-0.20480540125054492,0.18361002021579545,-0.0107654609632317,nan
1740788789.6448407,-0.20138765253979973,-0.21643354617422944,0.15884351618481565,-0.03444386136978426,nan
1740788789.6487455,-0.1938707338853063,-0.23258013929077534,0.14102089267935597,-0.05100360669105517,nan
1740788789.6526504,-0.17969258987861045,-0.2526875260867869,0.12983719420137035,-0.0607511336831033,nan
1740788789.6565552,-0.15932953663532054,-0.27617161305262317,0.12493744307214606,-0.06404282782840835,nan
1740788789.66046,-0.13329957852426383,-0.3024282076584974,0.12592123175204023,-0.06128040027803232,nan
1740788789.6643648,-0.10215664939252919,-0.3308394523682883,0.13234761561918273,-0.052905969562029066,nan
1740788789.66829,-0.06648465141869352,-0.3607802922103907,0.14374025786830033,-0.03939689667753504,nan
1740788789.6721947,-0.02689134789071716,-0.3916249156456079,0.15959277663295124,-0.021260423662431912,nan
1740788789.6760995,0.01599783324861106,-0.4227531092422933,0.17937424333990093,0.0009718332046376084,nan
1740788789.6800044,0.06154602821470814,-0.4535564679785413,0.20253478067851938,0.02674948387462414,nan
1740788789.6839092,0.10911114215836128,-0.48344440482522355,0.22851120841199374,0.055509006873920144,nan
1740788789.687814,0.15805197449381944,-0.511849905602265,0.2567326855675103,0.0866793821062497,nan
1740788789.6917188,0.20773421083358667,-0.5382349779194813,0.2866262983120919,0.11968766352569774,nan
1740788789.6956236,0.2575362295245798,-0.5620957462839127,0.31762254403783463,0.15396444237744536,nan
1740788789.6995285,0.3068546731669671,-0.5829671491452318,0.34916066382946226,0.18894915341514998,nan
1740788789.7034333,0.3551097383054211,-0.6004271977231602,0.3806937775490821,0.2240951786272384,nan
1740788789.707338,0.40175013968316026,-0.6141007608761444,0.41169377822494674,0.25887470551530845,nan
1740788789.711243,0.4462577090089596,-0.6236628449861087,0.4416559452465983,0.29278329983939844,nan
1740788789.715167,0.48815159207046577,-0.6288413428047281,0.47010323901876094,0.3253441559473814,nan
1740788789.7190716,0.5269920121948932,-0.629419230384815,0.4965902431785301,0.35611199130634436,nan
1740788789.7229764,0.5623835724698526,-0.625236196557126,0.5207067242002302,0.3846765556175488,nan
1740788789.7268813,0.5939780737496434,-0.6161896948576456,0.5420807821629932,0.41066572888608416,nan
1740788789.730786,0.6214768302418199,-0.6022354133123012,0.56038157059908,0.4337481869927406,nan
1740788789.734691,0.6446324693497927,-0.583387162993513,0.5753215676362599,0.4536356176384769,nan
1740788789.7385957,0.6632502073936997,-0.5597161917249133,0.5866583850541047,0.47008447395984765,nan
1740788789.7425005,0.6771885977977324,-0.5313499346764302,0.5941961063502269,0.48289725760484326,nan
1740788789.7464054,0.6863597532714973,-0.49847021881228515,0.5977861494161917,0.49192332757060425,nan
1740788789.7503102,0.6907290483805926,-0.46131094318151966,0.5973276539124082,0.49705923559541076,nan
1740788789.754215,0.6903143136531712,-0.42015526182871943,0.5927673978651554,0.49824859332565763,nan
1740788789.7581198,0.6851845369620474,-0.3753323006082091,0.5840992523468357,0.4954814808038247,nan
1740788789.7620432,0.6754580923149311,-0.32721344336776487,0.5713631873030881,0.48879341000640475,nan
1740788789.765948,0.66130052034001,-0.2762082267904899,0.5546438456201694,0.4782638611639327,nan
1740788789.7698529,0.6429218886340179,-0.2227598866121746,0.5340687063471449,0.4640144133830454,nan
1740788789.7737577,0.6205737637120077,-0.16734060093639572,0.5098058615666591,0.4462064946297807,nan
1740788789.7776625,0.5945458295319543,-0.11044647892488259,0.4820614347144542,0.42503877939342544,nan
1740788789.7815673,0.5651621904364392,-0.05259234522492771,0.45107667115329253,0.4007442653034771,nan
1740788789.7854722,0.5327773988348378,0.005693627908145513,0.4171247344866487,0.373587062594103,nan
1740788789.789377,0.49777225002333686,0.06387538773955781,0.3805072444295673,0.3438589325795638,nan
1740788789.7932818,0.46054938819152663,0.12141451379273797,0.34155059402037174,0.3118756132026868,nan
1740788789.7971866,0.42152876888186547,0.17777572247674817,0.3006020855425423,0.2779729712324662,nan
1740788789.8010914,0.3811430239450774,0.23243231031528375,0.2580259257202722,0.24250302180586658,nan
1740788789.8049963,0.3398327753674859,0.2848714834220528,0.2141991215465638,0.20582985672633736,nan
1740788789.8089175,0.298041944236843,0.3345995222905329,0.16950731849595882,0.1683255232446743,nan
1740788789.8128223,0.2562131005666881,0.38114673286357,0.12434062286541342,0.1303658949578105,nan
1740788789.8167272,0.21478289872531028,0.42407213719951237,0.07908944958067708,0.0923265759728362,nan
1740788789.820632,0.17417764182727116,0.4629678598320019,0.03414043600963231,0.054578878605610386,nan
1740788789.8245368,0.13480901666054665,0.49746316910162297,-0.010127538850062904,0.017485913628095127,nan
1740788789.8284416,0.09707003856132826,0.5272281362871515,-0.05334719197905887,-0.018601169538310303,nan
1740788789.8323464,0.06133124313568298,0.5519768792466728,-0.09516649479257502,-0.05334675724556658,nan
1740788789.8362513,0.027937158889814916,0.5714703614558855,-0.13525211870329729,-0.08643412749985312,nan
1740788789.8401558,-0.0027969083012778497,0.5855187217613664,-0.17329263655483942,-0.11756855671767173,nan
1740788789.8440607,-0.03058775135070274,0.5939831148072171,-0.20900145146767576,-0.14648014961742342,nan
1740788789.8479655,-0.05518677482684097,0.5967770468992389,-0.24211942766072755,-0.172926367587606,nan
1740788789.8518703,-0.07638212442658371,0.5938671969952236,-0.2724172010451678,-0.19669423415969814,nan
1740788789.855801,-0.09400041691361943,0.58527371750576,-0.29969715079934056,-0.21760219967296562,nan
1740788789.859706,-0.10790805845679691,0.5710700146093445,-0.3237950166906585,-0.23550165081491783,nan
1740788789.8636107,-0.11801214345244279,0.551382012780844,-0.34458115057636524,-0.25027805441889556,nan
1740788789.8675156,-0.1242609300957944,0.5263869131560286,-0.36196139425386914,-0.2618517286625733,nan
1740788789.8714204,-0.12664389314006538,0.49631146016068994,-0.3758775796063818,-0.2701782386009908,nan
1740788789.8753252,-0.1251913584072477,0.46142973547554733,-0.3863076507641196,-0.2752484167481381,nan
1740788789.87923,-0.11997372765331167,0.4220605028444038,-0.3932654117390057,-0.27708801315546794,nan
1740788789.8831348,-0.11110030630416773,0.37856413142166045,-0.3967999066559565,-0.2757569830881838,nan
1740788789.8870397,-0.0987177503310784,0.3313391292576811,-0.3969944432617738,-0.27134842393600583,nan
1740788789.8909445,-0.08300815209058521,0.2808183221007118,-0.39396527380996954,-0.26398717638093244,nan
1740788789.8948493,-0.06418678828198826,0.22746471591976694,-0.3878599506648373,-0.25382810804869554,nan
1740788789.8987541,-0.04249955624508862,0.17176708439482022,-0.3788553770108594,-0.24105410086350063,nan
1740788789.9026845,-0.01822012760493244,0.11423532505370233,-0.36715557586654374,-0.2258737660798886,nan
1740788789.9065893,0.008353149255462653,0.05539562973795319,-0.3529892031597476,-0.20851891345631338,nan
1740788789.910494,0.036900564270192275,-0.0042144833645585056,-0.3366068329019867,-0.1892418032402321,nan
1740788789.914399,0.06708454289455032,-0.06405122778686281,-0.31827804448243713,-0.16831221153498732,nan
1740788789.9183037,0.09855328858765225,-0.12356964798929757,-0.29828834377168906,-0.14601434119850645,nan
1740788789.9222085,0.13094453266498596,-0.18222871058929557,-0.27693595106732133,-0.1226436116700245,nan
1740788789.9261134,0.16388935293464327,-0.23949633881499183,-0.25452848991777866,-0.09850336202421549,nan
1740788789.9300182,0.19701602223696243,-0.29485434216551126,-0.2313796115210316,-0.0739015021062333,nan
1740788789.933923,0.2299538480965285,-0.34780319449979397,-0.20780558970658292,-0.049147146803615364,nan
1740788789.9378278,0.26233696516353966,-0.3978666154574036,-0.1841219214734291,-0.024547268362614155,nan
1740788789.9417326,0.29380804296078994,-0.4445959122208501,-0.1606399676759392,-0.0004034011615609661,nan
1740788789.9456375,0.32402187265139304,-0.487574041137445,-0.1376636677308099,0.022991567480038857,nan
1740788789.949566,0.3526487980862588,-0.5264193516037232,-0.11548636117117045,0.04535648804002651,nan
1740788789.9534707,0.37937795826114645,-0.5607889778477614,-0.09438774751147062,0.0664248901392193,nan
1740788789.9573755,0.4039203104898564,-0.5903818477916049,-0.07463101422486407,0.08594774532691853,nan
1740788789.9612803,0.4260114060590175,-0.614941282002292,-0.05646016069213949,0.10369602418978943,nan
1740788789.9651852,0.4454138928445223,-0.6342571598075107,-0.04009754377908856,0.11946302297335984,nan
1740788789.96909,0.4619197223113579,-0.6481676339207593,-0.025741668261211305,0.1330664374415512,nan
1740788789.9729948,0.47535204145674104,-0.6565603793491596,-0.013565242666580286,0.1443501644394487,nan
1740788789.9768996,0.48556675355873397,-0.6593733669015491,-0.0037135182771748203,0.15318581453938268,nan
1740788789.9808044,0.4924537350252785,-0.6565951562310457,0.003697073954781607,0.1594739222101519,nan
1740788789.9847093,0.49593769916712344,-0.6482647079902942,0.008579976925519723,0.16314484312265948,nan
1740788789.988614,0.4959787013071322,-0.6344707193043144,0.010879242881359214,0.164159331459991,nan
1740788789.992519,0.492572283252194,-0.615350491330926,0.010569945708283545,0.16250879340330318,nan
1740788789.9964223,0.48574925875690766,-0.5910883421384718,0.007658268098287471,0.1582152162836666,nan
1740788790.000327,0.47557514516493055,-0.5619135824426242,0.0021812649593994557,0.15133077619119673,nan
1740788790.004232,0.4621492498899737,-0.528098075867546,-0.005793692323618885,0.1419371300837725,nan
1740788790.0081367,0.4456034237602709,-0.4899534092927574,-0.016169783000371404,0.1301444016063908,nan
1740788790.0120416,0.4261004964658567,-0.447827702479222,-0.028821904589972608,0.11608987288785512,nan
1740788790.0159464,0.40383241238660955,-0.4021020895024739,-0.04359812725211898,0.09993639749430601,nan
1740788790.0198512,0.37901808791231983,-0.3531869075263413,-0.060321418323397685,0.08187055246113781,nan
1740788790.023756,0.3519010139675977,-0.3015176311003012,-0.07879161784982874,0.06210054986979153,nan
1740788790.0276606,0.32274662980050767,-0.2475505924327442,-0.09878764355676652,0.04085393075976524,nan
1740788790.0315654,0.29183949616312926,-0.1917585299611008,-0.12006990153808415,0.01837506624706533,nan
1740788790.0354702,0.25948029778654036,-0.1346260089916321,-0.14238287703769634,-0.005077507460925381,nan
1740788790.039375,0.2259827065167339,-0.07664475920427168,-0.16545787805504045,-0.0292338919241723,nan
1740788790.0433,0.1916701376195046,-0.01830897440330923,-0.18901590314663205,-0.05381573772475826,nan
1740788790.0472047,0.1568724325725823,0.039889379961076485,-0.21277060372960674,-0.07853923369572949,nan
1740788790.0511096,0.1219225021366467,0.09746520627189492,-0.2364313104290016,-0.10311814306851612,nan
1740788790.0550144,0.08715296363109899,0.15394481672902924,-0.2597060925538442,-0.12726685516530672,nan
1740788790.0589192,0.052892806136828285,0.20887033450127923,-0.28230481964045934,-0.15070342126148037,nan
1740788790.062824,0.019464116811011584,0.2618039122845659,-0.303942194164232,-0.1731525435570896,nan
1740788790.0667288,-0.012821099363926213,0.31233172847557805,-0.32434072498972294,-0.1943484868205645,nan
1740788790.0706336,-0.043663975252860275,0.3600677235183339,-0.343233611896992,-0.21403788319442452,nan
1740788790.0745385,-0.07278168299654081,0.4046570416819626,-0.3603675125797336,-0.23198240187105415,nan
1740788790.0784433,-0.09991015329371247,0.4457791465538154,-0.37550516484611,-0.24796125684281975,nan
1740788790.082348,-0.12480658666206468,0.4831505818523093,-0.38842783835101763,-0.2617735276886614,nan
1740788790.086253,-0.14725173307388267,0.5165273527454028,-0.39893759203161555,-0.27324027035996035,nan
1740788790.0901766,-0.1670519188514081,0.5457069066675305,-0.4068593154864195,-0.28220639715082996,nan
1740788790.0940814,-0.18404080238845955,0.5705296966225318,-0.41204253481041325,-0.2885423074586496,nan
1740788790.0979862,-0.19808084311085267,0.5908803141030636,-0.4143629658507255,-0.2921452535347635,nan
1740788790.101891,-0.2090644710692439,0.6066881830075675,-0.4137238004541138,-0.29294042816592336,nan
1740788790.1057959,-0.21691494764360278,0.6179278102523473,-0.41005671401210014,-0.29088176408636574,nan
1740788790.1097007,-0.2215869109973494,0.6246185931166595,-0.40332258544436783,-0.28595243786929425,nan
1740788790.1136055,-0.22306660311928672,0.6268241876807145,-0.39351192366727017,-0.2781650740551972,nan
1740788790.1175103,-0.2213717785007735,0.6246514469782372,-0.3806449975429349,-0.26756164831259366,nan
1740788790.1214151,-0.2165512976821437,0.6182489416456057,-0.364771669266003,-0.2542130914640845,nan
1740788790.12532,-0.20868441203458146,0.60780507986857,-0.34597093409023555,-0.23821859921670285,nan
1740788790.1292248,-0.1978797491907892,0.593545847266623,-0.3243501721970156,-0.2197046553807505,nan
1740788790.1331296,-0.1842740114699216,0.5757321909775759,-0.30004412133369596,-0.1988237792164002,nan
1740788790.1370628,-0.16803040243110626,0.5546570755764431,-0.27321358157442416,-0.17575301028443613,nan
1740788790.1409676,-0.14933679930841162,0.5306422415513823,-0.244043866152999,-0.15069214676965703,nan
1740788790.1448724,-0.12840369150350428,0.5040346998362508,-0.21274301476168886,-0.12386175566767049,nan
1740788790.1487772,-0.1054619075174569,0.4752029983383508,-0.17953978797834036,-0.09550097545447239,nan
1740788790.152682,-0.08076015466961513,0.44453329847863765,-0.14468146355523678,-0.06586513387208372,nan
1740788790.156587,-0.054562397661123946,0.41242530146104633,-0.10843145715754669,-0.03522320524338999,nan
1740788790.1604917,-0.027145103478039986,0.37928806529252074,-0.07106679175985234,-0.003855133258390811,nan
1740788790.1643965,0.001205618718596078,0.34553575447430274,-0.03287544128133681,0.02795095356181124,nan
1740788790.1683013,0.030196953210542152,0.31158336477083887,0.00584642484826383,0.059901605529312174,nan
1740788790.1722062,0.05953235878640993,0.27784246553186315,0.04479726865858196,0.09170096568565306,nan
1740788790.176111,0.08891456493905378,0.24471700169653765,0.08367305404666098,0.1230537046223329,nan
1740788790.1800158,0.11804855293774187,0.21259919685080783,0.12217013224204586,0.1536679468006274,nan
1740788790.1839368,0.14664449187420073,0.18186559754901538,0.1599881139466654,0.18325815912252033,nan
1740788790.1878417,0.17442060043712806,0.15287329756099016,0.1968327000467394,0.2115479729724885,nan
1740788790.1917465,0.20110590611477216,0.12595637878267496,0.2324184433496899,0.23827291170319234,nan
1740788790.1956513,0.22644287474844244,0.10142260327176061,0.2664714146240213,0.26318299656823524,nan
1740788790.199556,0.25018988484739685,0.0795503882632126,0.2987317473046799,0.28604520540080225,nan
1740788790.203461,0.2721235228110164,0.06058609310935978,0.3289560365582964,0.3066457598842027,nan
1740788790.2073658,0.2920406771685954,0.04474164390482358,0.3569195699674089,0.3247922190429091,nan
1740788790.2112706,0.3097604121193977,0.03219251812985632,0.38241836887345493,0.3403153585818949,nan
1740788790.2151754,0.3251256030128569,0.023076108010905785,0.4052710213961254,0.3530708178973107,nan
1740788790.2190802,0.3380043189261591,0.017490477490481337,0.42532029030098817,0.3629404989502328,nan
1740788790.222985,0.3482909401477238,0.015493523757464357,0.4424344811956801,0.36983370371317265,nan
1740788790.2268898,0.3559070011329097,0.017102550252690238,0.4565085589737651,0.3736879995406917,nan
1740788790.23082,0.3608017523342603,0.0222942539727447,0.4674650029696817,0.37446980455410056,nan
1740788790.2347248,0.36295243719379544,0.031005125787534893,0.47525439391216245,0.3721746879382659,nan
1740788790.2386296,0.36236428348998617,0.04313225840464201,0.47985572844076735,0.3668273828978264,nan
1740788790.2425344,0.3590702111277475,0.05853455259540929,0.4812764596537756,0.3584815128821648,nan
1740788790.2464392,0.3531302613169463,0.07703430838344946,0.4795522648587719,0.3472190345348527,nan
1740788790.250344,0.3446307548749917,0.09841918412373823,0.4747465443729374,0.33314940362559586,nan
1740788790.2542489,0.3336831900843577,0.12244450280605058,0.46694965784206344,0.31640847295349495,nan
1740788790.2581537,0.32042289310966415,0.14883588153515132,0.45627790708977306,0.2971571338425522,nan
1740788790.2620585,0.3050074364059965,0.17729215700421733,0.442872276946737,0.27557971535819464,nan
1740788790.2659633,0.28761484280675426,0.207488576917456,0.4268969478200986,0.251882157732536,nan
1740788790.2698681,0.26844159504367987,0.23908022476029203,0.40853759592371414,0.22628997867328296,nan
1740788790.273773,0.24770047230393383,0.27170564308485634,0.38799949907954223,0.19904605322546462,nan
1740788790.277703,0.22561823705175904,0.3049906185959721,0.3655054678008384,0.17040822963736219,nan
1740788790.2816079,0.20243319671998683,0.3385520908059811,0.34129362296187465,0.140646805235178,nan
1740788790.2855127,0.17839266599702658,0.37200214488942485,0.3156150427320834,0.11004188762044985,nan
1740788790.2894175,0.1537503562878427,0.40495204862119744,0.28873130259244656,0.07888066755782341,nan
1740788790.2933223,0.12876371950568202,0.43701629293057265,0.2609119331486188,0.04745463070894702,nan
1740788790.2972271,0.10369127365043071,0.4678165956510364,0.2324318211011663,0.016056735884019117,nan
1740788790.301132,0.07878993764795368,0.4969858284908694,0.2035685791234945,-0.015021412278263055,nan
1740788790.3050368,0.05431240266377802,0.5241718280864263,0.17459991053010254,-0.04549236833040912,nan
1740788790.3089416,0.030504566568111933,0.5490410532202986,0.14580099449194503,-0.07507560117900135,nan
1740788790.3128464,0.007603057424288589,0.5712820518769727,0.11744191717470638,-0.10350017242226069,nan
1740788790.3167512,-0.014167129191246524,0.5906087037530025,0.08978517354497959,-0.13050731174768143,nan
1740788790.320656,-0.034594855540231326,0.6067632061173049,0.06308326371642978,-0.15585286438535775,nan
1740788790.324585,-0.053484907791350685,0.6195187735068974,0.03757640660328418,-0.17930958696734117,nan
1740788790.3284898,-0.0706598826116933,0.628682024618314,0.01349039232420257,-0.20066926972829185,nan
1740788790.3323946,-0.08596187604187508,0.6340950328863311,-0.008965406729667637,-0.2197446647812404,nan
1740788790.3362994,-0.09925395854745327,0.6356370205983236,-0.029599847966214395,-0.23637120219584376,nan
1740788790.3402042,-0.11042142242430274,0.6332256799413309,-0.04824163749503412,-0.2504084777746346,nan
1740788790.344109,-0.11937279015011255,0.6268181080845868,-0.06474074159071302,-0.2617414987432075,nan
1740788790.3480139,-0.12604057479288672,0.6164113472263717,-0.07896957861299488,-0.270281676019522,nan
1740788790.3519187,-0.13038178618418242,0.6020425244428581,-0.09082398155322473,-0.27596755428064473,nan
1740788790.3558235,-0.13237817921299228,0.5837885901298465,-0.10022392373257655,-0.27876527367659326,nan
1740788790.3597283,-0.13203624326847252,0.5617656577871109,-0.10711400259236473,-0.27866875972402816,nan
1740788790.3636332,-0.1293869345287001,0.5361279518208137,-0.11146367896576057,-0.2756996406203681,nan
1740788790.367538,-0.12448515543127465,0.5070663738937916,-0.11326727167851189,-0.2699068939246237,nan
1740788790.3714352,-0.1174089882428798,0.47480670209890513,-0.11254370976918673,-0.2613662272277309,nan
1740788790.37534,-0.10825869214292928,0.4396074408306487,-0.10933604702229609,-0.25017920005593,nan
1740788790.3792448,-0.09715547562597526,0.4017573426499338,-0.10371074584671297,-0.236472096789912,nan
1740788790.3831496,-0.08424005828462124,0.3615726266432902,-0.09575673978366112,-0.22039456281488867,nan
1740788790.3870544,-0.06967103813688781,0.3193939207396786,-0.08558428607115527,-0.20211801841868135,nan
