timestamps,TP9,AF7,AF8,TP10,Right AUX
1740788772.8852797,0.0029179825377153314,0.6828234855580524,0.18857499433742228,-0.03138563949602866,nan
1740788772.8891842,-0.018819127250336045,0.7335481516056509,0.1804905211208583,-0.04508387108572927,nan
1740788772.893089,-0.03900927476377415,0.7805385804389575,0.17242428533281912,-0.05771260418861951,nan
1740788772.8969936,-0.057425086344110296,0.8235006936924639,0.1644805459403361,-0.06911037279136478,nan
1740788772.9008982,-0.07385748446981084,0.8621776824179631,0.15675976519924273,-0.07912886161739897,nan
1740788772.9048028,-0.08811784434499191,0.8963520288190225,0.14935748787644168,-0.08763456226029763,nan
1740788772.9087076,-0.1000399398137837,0.9258471342604503,0.14236329172675824,-0.09451027264198718,nan
1740788772.9126122,-0.10948165918947515,0.9505285401052491,0.13585982059832766,-0.09965642392211214,nan
1740788772.9165168,-0.11632647395449507,0.9703047320140384,0.1299219105030637,-0.10299222079920116,nan
1740788772.9204214,-0.12048464582102109,0.985127522499733,0.12461581784325278,-0.1044565831024054,nan
1740788772.9243262,-0.12189416031638727,0.994992010722061,0.11999855774526534,-0.10400887865395332,nan
1740788772.9282308,-0.12052137784540448,0.9999361226906721,0.11611735913085063,-0.10162943956558772,nan
1740788772.9321668,-0.1163613960549363,1.0000397391809324,0.11300924177048792,-0.09731985639468885,nan
1740788772.9360714,-0.10943812025533363,0.9954234227120736,0.11070071912766377,-0.0911030469038938,nan
1740788772.939976,-0.09980404160923008,0.9862467588536646,0.10920762933358191,-0.08302309851826649,nan
1740788772.9438806,-0.08753972575081041,0.9727063308748426,0.10853509514533433,-0.0731448859320147,nan
1740788772.9477854,-0.0727530174183451,0.9550333502950121,0.10867761225334215,-0.06155346765832285,nan
1740788772.95169,-0.05557796954024418,0.9334909692001528,0.10961926383241975,-0.04835326761698877,nan
1740788772.9555945,-0.03617350798151651,0.9083713032237067,0.1113340577913324,-0.03366705009167838,nan
1740788772.9594991,-0.014721845805661249,0.8799921968257889,0.11378638178396122,-0.017634698538797223,nan
1740788772.963404,0.00857333658967934,0.8486937649132652,0.116931569716409,-0.00041181077132383583,nan
1740788772.9673085,0.03348892677139854,0.8148347469029921,0.12071657223297477,0.017831875047499775,nan
1740788772.971213,0.05978461017134398,0.7787887110220392,0.12508072250351795,0.0369142074033777,nan
1740788772.9751177,0.08720527182915463,0.7409401479462773,0.1299565875777929,0.05664248363072141,nan
1740788772.9790516,0.11548354552445199,0.701680493790583,0.13527089463018027,0.076815428108944,nan
1740788772.9829562,0.1443424844010811,0.6614041229722032,0.14094552060106136,0.09722526603745778,nan
1740788772.9868608,0.17349832600543716,0.6205043515698005,0.1468985330572977,0.11765987136784277,nan
1740788772.9907656,0.20266332375516888,0.5793694914945435,0.1530452695513229,0.1379049666883498,nan
1740788772.9946702,0.23154861623235226,0.5383789950806136,0.15929944236164256,0.15774635230085504,nan
1740788772.9985747,0.2598671053622316,0.4978997285990178,0.1655742552511587,0.17697214140922807,nan
1740788773.0024793,0.287336314497715,0.4582824117127008,0.17178351878602965,0.1953749782540503,nan
1740788773.0063841,0.31368119768081004,0.41985825803864846,0.1778427508174174,0.21275421618252105,nan
1740788773.0102887,0.3386368718920493,0.3829358497835654,0.18367024894038375,0.2289180330325838,nan
1740788773.0141933,0.3619512449217231,0.3477982768966243,0.18918812210584177,0.24368546183284456,nan
1740788773.0180979,0.38338751259369136,0.31470056836198756,0.19432326906838654,0.2568883156682773,nan
1740788773.0220027,0.40272650043200625,0.2838674401642747,0.19900829199924686,0.26837298662741826,nan
1740788773.0259352,0.4197688264686621,0.255491381133461,0.20318233437207042,0.27800210001887266,nan
1740788773.0298398,0.4343368637305862,0.2297310943459977,0.2067918331308731,0.28565600651040085,nan
1740788773.0337443,0.4462764829968939,0.20671030806179413,0.20979117616423873,0.2912340964879566,nan
1740788773.0376492,0.4554585586621627,0.18651696634999682,0.21214325722607882,0.29465592273768254,nan
1740788773.0415537,0.4617802229553603,0.1692028056384965,0.2138199216487313,0.295862119503117,nan
1740788773.0454583,0.46516585632231444,0.15478331945275586,0.21480229747515997,0.2948151080424427,nan
1740788773.049363,0.46556780445646406,0.14323810962842462,0.21508100797936863,0.2914995809858036,nan
1740788773.0532677,0.4629668152307206,0.1345116183297043,0.21465626293283524,0.2859227600481452,nan
1740788773.0571723,0.45737219161484094,0.12851423132082232,0.21353782739434243,0.27811442396593766,nan
1740788773.0610769,0.44882165952893954,0.12512373916049907,0.21174486823517755,0.268126705872864,nan
1740788773.0649817,0.43738095245588654,0.1241871393564184,0.2093056800454244,0.2560336616863533,nan
1740788773.0688863,0.42314311748441613,0.12552275906491364,0.20625729348384828,0.24193061341966932,nan
1740788773.0728176,0.4062275502520341,0.1289226746846418,0.202644970517981,0.22593327363927404,nan
1740788773.0767221,0.3867787689744146,0.13415540170404577,0.19852159233703448,0.2081766595310938,nan
1740788773.080627,0.3649649403583734,0.14096882545077602,0.1939469469930654,0.1888138071989773,nan
1740788773.0845315,0.34097617267286284,0.14909334098348215,0.18898692502142353,0.16801429887247746,nan
1740788773.0884361,0.31502259357178053,0.15824516828656923,0.18371263239617952,0.1459626176277431,nan
1740788773.0923407,0.2873322324006907,0.16812980719683357,0.17819943117776466,0.1228563460055417,nan
1740788773.0962455,0.25814872865555044,0.1784455951244343,0.1725259190969014,0.09890422652580631,nan
1740788773.10015,0.22772888997592383,0.1888873296426516,0.166772860081068,0.07432410353222456,nan
1740788773.1040547,0.19634012453107982,0.19914991742073496,0.16102207835840046,0.0493407670386166,nan
1740788773.1079593,0.1642577738802127,0.2089320107675034,0.15535532926173462,0.024183720278406165,nan
1740788773.111864,0.13176237334580526,0.21793959324177856,0.14985316019665246,-0.000915106531147981,nan
1740788773.1157687,0.09913686762265238,0.2258894763669195,0.1445937754276551,-0.025723673115546613,nan
1740788773.1196992,0.0666638097476699,0.23251267045440127,0.13965191837337074,-0.05001215331696366,nan
1740788773.1236038,0.03462257167369303,0.23755759388541534,0.13509778498403827,-0.07355524296033486,nan
1740788773.1275084,0.0032865945232020905,0.2407930869059942,0.1309959815031908,-0.0961344279835134,nan
1740788773.131413,-0.027079293852674435,0.24201119804262128,0.12740453949287125,-0.11754018976811764,nan
1740788773.1353178,-0.05622146711349966,0.24102971362086148,0.12437400043190638,-0.1375741252065765,nan
1740788773.1392224,-0.08389996857048806,0.23769440354482693,0.12194658148550234,-0.15605095986806353,nan
1740788773.143127,-0.10989083459229892,0.23188095944345322,0.12015543319878302,-0.1728004336733742,nan
1740788773.1470315,-0.1339882501460293,0.22349660448032518,0.1190239988958288,-0.18766903974590776,nan
1740788773.1509364,-0.1560065150826404,0.2124813575252531,0.11856548447909641,-0.20052159856029156,nan
1740788773.154841,-0.1757818017288243,0.19880893796327878,0.11878244613351872,-0.21124265114731933,nan
1740788773.1587455,-0.19317368649395333,0.18248730113428097,0.11966650215739369,-0.21973765691734742,nan
1740788773.1626503,-0.2080664405194695,0.16355879821638378,0.12119817378217336,-0.22593398361617706,nan
1740788773.166578,-0.22037006686505786,0.14209995825019212,0.12334685841985504,-0.229781679007992,nan
1740788773.1704826,-0.23002107431634156,0.11822089390961393,0.1260709373051411,-0.23125401606847193,nan
1740788773.1743875,-0.2369829805860735,0.0920643365189597,0.1293180179957153,-0.2303478057455552,nan
1740788773.178292,-0.24124654043781318,0.06380430965613025,0.13302531067410034,-0.22708347368280637,nan
1740788773.1821966,-0.242829697059757,0.03364445442912048,0.13712013567515666,-0.22150489967730982,nan
1740788773.1861012,-0.24177725782849252,0.001816023130080249,0.14152055816088535,-0.213679021036572,nan
1740788773.190006,-0.23816029839939348,-0.03142443857874448,0.14613614439531167,-0.20369520338298347,nan
1740788773.1939106,-0.2320753018140051,-0.0657976975445276,0.15086883265300485,-0.1916643848058484,nan
1740788773.1978152,-0.22364304199707016,-0.1010047006523774,0.15561391044099965,-0.17771800155616216,nan
1740788773.2017198,-0.21300722359990243,-0.13672967483763965,0.16026108844060832,-0.1620067056949632,nan
1740788773.2056246,-0.20033289260639298,-0.17264342796086282,0.16469566039718989,-0.14469888721979882,nan
1740788773.2095292,-0.18580463442827616,-0.20840681678617087,0.16879973711579108,-0.12597901518421534,nan
1740788773.2134557,-0.16962457835412065,-0.2436743465051465,0.17245354177089173,-0.1060458141720075,nan
1740788773.2173603,-0.15201022916021864,-0.2780978648075786,0.17553675292051943,-0.085110294172468,nan
1740788773.221265,-0.13319214842166557,-0.31133031243234827,0.17792988093829087,-0.06339365340794079,nan
1740788773.2251697,-0.11341150956095938,-0.3430294914473605,0.17951566304992372,-0.04112507497516431,nan
1740788773.2290742,-0.09291755192443833,-0.37286181221411857,0.18018046179007574,-0.018539439263852098,nan
1740788773.2329788,-0.0719649601711672,-0.4005059800935574,0.17981565148617076,0.004125025001702222,nan
1740788773.2368836,-0.050811195984646285,-0.4256565834445423,0.17831897733152677,0.02662912759863402,nan
1740788773.2407882,-0.029713809567632816,-0.4480275453505865,0.17559587173237093,0.04873511760179062,nan
1740788773.2446928,-0.008927758550106012,-0.4673554027752646,0.17156071290199695,0.0702090740450795,nan
1740788773.2485976,0.01129723817169945,-0.48340237848058726,0.16613801112876297,0.09082326241704022,nan
1740788773.2525022,0.03071928453983843,-0.4959592130290393,0.15926350875893083,0.11035843326594422,nan
1740788773.2564068,0.04910680292652831,-0.5048477265100333,0.15088518070556436,0.12860603973507778,nan
1740788773.260332,0.06624091569556072,-0.5099230822620954,0.14096412321340074,0.14537035162796483,nan
1740788773.2642367,0.08191768841397594,-0.5110757277776724,0.12947531966855425,0.16047044460892662,nan
1740788773.2681413,0.09595021184066478,-0.5082329911489656,0.11640827343057615,0.17374204436641041,nan
1740788773.2720459,0.10817050149751173,-0.5013603148097338,0.10176749897150107,0.18503920699324788,nan
1740788773.2759507,0.11843119552311616,-0.4904621119156533,0.08557286401881253,0.1942358184550572,nan
1740788773.2798553,0.12660703360016198,-0.475582234449428,0.06785977690293996,0.20122689780970338,nan
1740788773.2837598,0.1325961020133341,-0.4568040459990083,0.048679214889471675,0.20592969078893308,nan
1740788773.2876644,0.13632083231266676,-0.43425009610001314,0.028097590915916994,0.20828454243901998,nan
1740788773.2915692,0.13772874360235907,-0.4080813970173625,0.006196457835554299,0.20825553971936606,nan
1740788773.2954738,0.13679292112171584,-0.37849630782682625,-0.01692794902064908,0.20583091725482486,nan
1740788773.2993784,0.13351222650582228,-0.3457290346048763,-0.04116532843665322,0.201023221805856,nan
1740788773.303283,0.12791123788125586,-0.3100477594057223,-0.066392084824745,0.1938692334370115,nan
1740788773.307219,0.12003992073822395,-0.2717524144589585,-0.09247224874772089,0.18442964380426752,nan
1740788773.3111236,0.10997303329668823,-0.23117212162249137,-0.11925853890545558,0.17278849442105934,nan
1740788773.3150284,0.09780927282191254,-0.18866232053724807,-0.14659355647253816,0.15905238017692813,nan
1740788773.318933,0.08367017201650116,-0.14460161211839642,-0.17431110118508233,0.1433494257471824,nan
1740788773.3228376,0.06769875719415647,-0.09938834695050355,-0.20223759718288847,0.12582804482318855,nan
1740788773.3267422,0.05005798239858319,-0.05343699080149755,-0.23019361533318664,0.10665549428751485,nan
1740788773.330647,0.030928955944258242,-0.0071743018060123065,-0.257995477608516,0.08601623753424589,nan
1740788773.3345516,0.010508978000234814,0.03896464413134254,-0.2854569280770529,0.06411013307109853,nan
1740788773.3384562,-0.010990590208037684,0.08454054151813377,-0.3123908542005431,0.04115046631699633,nan
1740788773.3423607,-0.033346603260904245,0.12911401757594335,-0.3386110414332419,0.0173618441084028,nan
1740788773.3462656,-0.0563265306385011,0.17224982831117755,-0.36393394358361414,-0.007022027166439353,nan
1740788773.3501701,-0.07969095294446954,0.21352104751484105,-0.38818045104584764,-0.03176065768839597,nan
1740788773.3541043,-0.10319612914499425,0.2525132077631457,-0.41117763883581004,-0.05660916148926076,nan
1740788773.3580089,-0.1265966079645641,0.28882835280559904,-0.43276047637918486,-0.08132069105358836,nan
1740788773.3619134,-0.1496478561115957,0.3220889614423636,-0.45277348119959476,-0.10564889489142307,nan
1740788773.3658183,-0.17210887581982626,0.35194170410212616,-0.4710722990411763,-0.12935037346850561,nan
1740788773.3697228,-0.19374478428731307,0.37806099482500816,-0.48752519353079565,-0.15218710886316827,nan
1740788773.3736274,-0.21432932797335952,0.4001523032184332,-0.5020144292356238,-0.1739288437492904,nan
1740788773.377532,-0.23364730537108352,0.4179551931694649,-0.5144375328959607,-0.19435538578036066,nan
1740788773.3814368,-0.2514968728033197,0.4312460576439775,-0.5247084187028547,-0.21325881416659231,nan
1740788773.3853414,-0.2676917089828757,0.4398405217565314,-0.5327583647355062,-0.23044556618820267,nan
1740788773.389246,-0.28206301552301494,0.44359548942761606,-0.5385368290631767,-0.24573838256437164,nan
1740788773.3931508,-0.2944613322658481,0.44241081232660495,-0.5420120955371868,-0.2589780919873818,nan
1740788773.3970554,-0.3047581481984059,0.43623056339673133,-0.5431717409362664,-0.27002521672158936,nan
1740788773.4009874,-0.3128472908291434,0.4250439010375353,-0.5420229168670121,-0.27876138294135416,nan
1740788773.4048922,-0.3186460791804298,0.4088855139439196,-0.5385924416436824,-0.28509052142342783,nan
1740788773.4087968,-0.3220962279920695,0.3878356406309268,-0.5329266992599978,-0.28893984629831093,nan
1740788773.4127014,-0.3231644933023102,0.36201966177022865,-0.5250913445012402,-0.2902606017809509,nan
1740788773.416606,-0.3218430522500692,0.3316072675882236,-0.5151708152083799,-0.2890285691218396,nan
1740788773.4205108,-0.3181496126979803,0.2968112066860122,-0.5032676546773309,-0.28524432842191466,nan
1740788773.4244153,-0.312127251082217,0.25788562669836623,-0.4895016491357019,-0.27893327241462945,nan
1740788773.42832,-0.30384397972330784,0.2151240211720922,-0.4740087871664095,-0.2701453718115468,nan
1740788773.4322248,-0.29339204765326893,0.1688568008751805,-0.4569400498223655,-0.25895469430876916,nan
1740788773.4361293,-0.28088698179953436,0.11944851140910327,-0.4384600419795255,-0.245458681835333,nan
1740788773.440034,-0.2664663780866399,0.06729472245149669,-0.4187454771879146,-0.2297771930663093,nan
1740788773.4439385,-0.2502884546445092,0.012818617171305684,-0.39798352988364105,-0.21205132059822163,nan
1740788773.44787,-0.23253038182018512,-0.0435326866986514,-0.37637007030200115,-0.1924419944683402,nan
1740788773.4517748,-0.21338640605221298,-0.10129205000469553,-0.35410779876665993,-0.17112838586950654,nan
1740788773.4556794,-0.19306578685873954,-0.15997642308912094,-0.3314042972074895,-0.14830612694606085,nan
1740788773.459584,-0.17179056818920324,-0.21909111607439488,-0.3084700167669456,-0.12418536443378322,nan
1740788773.4634886,-0.14979320717393796,-0.27813418851347493,-0.2855162211798737,-0.0989886666079734,nan
1740788773.4673934,-0.12731408485755993,-0.3366009171958801,-0.26275290624467235,-0.07294880451174791,nan
1740788773.471298,-0.10459892480388554,-0.3939883000881635,-0.24038671613653462,-0.046306429735502766,nan
1740788773.4752026,-0.08189614649844598,-0.44979955398281035,-0.21861887754000559,-0.019307672094951198,nan
1740788773.4791071,-0.05945418123803789,-0.5035485634357016,-0.19764317259429434,0.007798318602150683,nan
1740788773.483012,-0.037518778676433676,-0.5547642389896309,-0.17764397144855004,0.03476186191050036,nan
1740788773.4869165,-0.016330332385810883,-0.6029947435060778,-0.15879434481595686,0.06133524208212519,nan
1740788773.4908211,0.003878747308363351,-0.6478115466521033,-0.14125427629717008,0.08727518414336495,nan
1740788773.494751,0.022886585355082284,-0.6888132692020127,-0.1251689934198549,0.1123452856330229,nan
1740788773.4986556,0.04048429168709116,-0.7256292807991843,-0.11066743531829674,0.13631837933191893,nan
1740788773.5025604,0.05647828239625603,-0.7579230171628922,-0.09786087376400032,0.15897880297530892,nan
1740788773.506465,0.0706924473992199,-0.7853949853957283,-0.08684170286526936,0.18012455284499285,nan
1740788773.5103695,0.08297014111929894,-0.807785429023373,-0.07768241119360757,0.19956929927868416,nan
1740788773.5142741,0.09317597446014408,-0.8248766276513045,-0.07043474838155483,0.21714424349942157,nan
1740788773.518179,0.10119738832683084,-0.8364948096208852,-0.06512909638624684,0.2326997967442591,nan
1740788773.5220835,0.1069459911415487,-0.8425116597562723,-0.06177405364298176,0.24610706444361588,nan
1740788773.525988,0.11035864518210203,-0.8428454081775866,-0.06035623826213965,0.2572591201532438,nan
1740788773.529893,0.11139828911845358,-0.8374614901770009,-0.0608403142709201,0.2660720560503594,nan
1740788773.5337975,0.11005448681014736,-0.8263727712736479,-0.06316924268940667,0.2724857990532503,nan
1740788773.537702,0.10634369522864943,-0.8096393357403349,-0.06726475698016787,0.2764646839872517,nan
1740788773.5416298,0.10030924725524765,-0.7873678410892081,-0.07302806014418028,0.27799777767573,nan
1740788773.5455346,0.092021048048107,-0.759710445173775,-0.08034073847599602,0.27709895035812215,nan
1740788773.5494392,0.08157498664142666,-0.726863316670321,-0.08906588476030143,0.2738066934028199,nan
1740788773.5533438,0.0690920674051783,-0.6890647437024855,-0.0990494215132844,0.2681836848647942,nan
1740788773.5572486,0.05471726892549124,-0.6465928592296829,-0.1101216127674055,0.26031610701060115,nan
1740788773.5611532,0.03861814073302346,-0.5997630054950236,-0.12209875088939813,0.25031272247032227,nan
1740788773.5650578,0.020983151080358406,-0.5489247632858174,-0.1347850030292746,0.23830371815169754,nan
1740788773.5689623,0.0020198016207547643,-0.49445867496539797,-0.14797440004284967,0.22443932844084563,nan
1740788773.5728672,-0.018047472658229195,-0.4367726931575926,-0.16145294913068395,0.20888825149200077,nan
1740788773.5767717,-0.038979597567555695,-0.376298389576034,-0.17500085000953736,0.19183587455256437,nan
1740788773.5806763,-0.060525325112928456,-0.31348696076391497,-0.18839479319442765,0.1734823262570905,nan
1740788773.5845811,-0.08242384545026409,-0.2488050694234183,-0.20141031793415032,0.15404037563417916,nan
1740788773.5885077,-0.10440751903880306,-0.18273056154919382,-0.21382420652275708,0.13373319918477625,nan
1740788773.5924125,-0.12620470123462912,-0.11574810072158258,-0.22541689111422766,0.11279203879205824,nan
1740788773.596317,-0.14754263044887617,-0.048344761651811285,-0.23597484880521608,0.09145377439712771,nan
1740788773.6002216,-0.16815035016645716,0.01899437460440935,-0.24529296062715844,0.06995843630853296,nan
1740788773.6041265,-0.1877616345925022,0.08579058143965226,-0.25317681020751187,0.048546682696844964,nan
1740788773.608031,-0.20611788747181767,0.1515757616743766,-0.25944489822138295,0.02745726825063017,nan
1740788773.6119356,-0.222970983715297,0.21589659581927634,-0.26393074935812916,0.0069245301317076135,nan
1740788773.6158402,-0.23808602386714886,0.278318524032294,-0.2664848893685917,-0.012824082736722996,nan
1740788773.619745,-0.25124397215552086,0.3384295238859629,-0.2669766708314947,-0.03157041138559495,nan
1740788773.6236496,-0.26224414988105005,0.39584364813545464,-0.26529592757350157,-0.04910789448878667,nan
1740788773.6275542,-0.2709065572044466,0.4502042891029446,-0.26135443918575735,-0.0652437578854695,nan
1740788773.631459,-0.2770739979837012,0.5011871390457711,-0.2550871887873258,-0.07980106293626636,nan
1740788773.6353846,-0.28061398416933525,0.5485028189272694,-0.24645339907777525,-0.09262059209226439,nan
1740788773.6392894,-0.28142039837492344,0.5918991513299132,-0.23543733378008191,-0.10356255166041088,nan
1740788773.643194,-0.27941489557998345,0.6311630568078612,-0.22204885378228448,-0.11250807356359449,nan
1740788773.6470985,-0.2745480274707278,0.6661220567348597,-0.20632371962133425,-0.11936049990112962,nan
1740788773.6510031,-0.26680007565663083,0.6966453696267223,-0.18832363439351474,-0.12404643629592275,nan
1740788773.654908,-0.2561815828905808,0.7226445919664023,-0.16813602369944775,-0.12651656234684272,nan
1740788773.6588125,-0.2427335744392324,0.7440739586938714,-0.1458735518138748,-0.12674618996561438,nan
1740788773.662717,-0.22652746486835085,0.7609301827018483,-0.12167337588620622,-0.12473556294267708,nan
1740788773.666622,-0.20766464869443813,0.7732518768602933,-0.09569614260168162,-0.12050989373012219,nan
1740788773.6705265,-0.18627577657696837,0.7811185662361118,-0.06812473433910858,-0.11411913612567018,nan
1740788773.674431,-0.1625197219528455,0.7846493022385699,-0.039162774423722915,-0.10563749526254196,nan
1740788773.6783357,-0.1365822462136541,0.7840008943651249,-0.009032903566973387,-0.09516267902849616,nan
1740788773.682272,-0.10867437366439701,0.7793657790074628,0.022025158016114193,-0.08281489772568353,nan
1740788773.6861765,-0.07903049054779711,0.7709695483659236,0.053756746041441,-0.0687356214138967,nan
1740788773.6900811,-0.04790618533946671,0.7590681658763179,0.08589456623428889,-0.05308610692632045,nan
1740788773.693986,-0.01557585028623484,0.7439448976430496,0.11816116617125563,-0.03604570898276084,nan
1740788773.6978905,0.017669933256312723,0.7259069921653526,0.1502715422184716,-0.01780999212535391,nan
1740788773.701795,0.05152720075751214,0.7052821431117073,0.181935857317259,0.0014113376580947286,nan
1740788773.7057,0.08568157464902204,0.6824147720159901,0.21286224400928205,0.021396660800200633,nan
1740788773.7096045,0.1198113697191264,0.6576621695165883,0.24275966597218515,0.04191480893190974,nan
1740788773.713509,0.15359080321693447,0.6313905351188149,0.27134081046686176,0.06272754246191965,nan
1740788773.7174137,0.1866932778163017,0.6039709564176658,0.29832498348980907,0.083592115553209,nan
1740788773.7213185,0.21879470459838996,0.5757753692625043,0.3234409790870204,0.10426390205126386,nan
1740788773.725223,0.24957683254484278,0.5471725404718721,0.3464298942252494,0.1244990551424524,nan
1740788773.729157,0.2787305506997814,0.5185241144137349,0.3670478608356826,0.14405717301907495,nan
1740788773.7330616,0.3059591291635677,0.49018076405667205,0.385068667144533,0.16270394260658305,nan
1740788773.7369661,0.3309813654269314,0.46247848597757013,0.4002862411825537,0.18021373347195616,nan
1740788773.740871,0.35353460323945546,0.43573507729212463,0.4125169704162234,0.19637211438138552,nan
1740788773.7447755,0.37337759222700534,0.41024683057075917,0.4216018327596046,0.2109782656082192,nan
1740788773.74868,0.390293157820676,0.3862854805330691,0.42740831579743777,0.22384726100390367,nan
1740788773.752585,0.4040906527239017,0.3640954337011073,0.42983210286402534,0.2348121950277541,nan
1740788773.7564895,0.4146081631102785,0.34389130926142214,0.42879850666358776,0.24372613137552254,nan
1740788773.760394,0.4217144449947088,0.3258558161669544,0.42426363336838824,0.25046385153881373,nan
1740788773.7642987,0.42531056873442935,0.3101379880345675,0.41621526257112373,0.2549233835518814,nan
1740788773.7682035,0.4253312523709906,0.29685179369683135,0.4046734310760983,0.2570272933211874,nan
1740788773.772108,0.42174586749369797,0.28607513738450874,0.3896907112657103,0.25672372326604137,nan
1740788773.7760406,0.4145591044612856,0.27784925848789815,0.371352177649641,0.2539871655033558,nan
1740788773.7799451,0.4038112871316349,0.2721785367110793,0.3497750581670084,0.24881895946180488,nan
1740788773.7838497,0.3895783306873735,0.2690307042346812,0.325108069838961,0.24124750658472185,nan
1740788773.7877545,0.37197133967481866,0.2683374622823049,0.29753044143194624,0.23132819764961063,nan
1740788773.791659,0.3511358469606764,0.2699954952857145,0.2672506288609755,0.21914305116695956,nan
1740788773.7955637,0.32725069791981926,0.27386787170680715,0.23450473210795716,0.2048000642928985,nan
1740788773.7994685,0.3005265877627975,0.27978581654208057,0.1995546254229393,0.18843228066946208,nan
1740788773.803373,0.2712042634575761,0.2875508366488171,0.16268581548648878,0.17019658256282225,nan
1740788773.8072777,0.23955240516091766,0.2969371763311475,0.12420504501048452,0.15027221757381853,nan
1740788773.8111823,0.20586520541573455,0.3076945771463031,0.08443766191425456,0.12885907301693217,nan
1740788773.815087,0.17045966755775002,0.31955131267255077,0.043724776706283754,0.10617571377438634,nan
1740788773.8189917,0.13367264777509993,0.3322174660536969,0.002420233002882125,0.08245720200332847,nan
1740788773.8229225,0.09585766804691849,0.34538841553110056,-0.0391125817996721,0.057952719479051465,nan
1740788773.826827,0.05738152972237334,0.35874849092002176,-0.08050405683622333,0.03292301557063835,nan
1740788773.8307319,0.01862075976296589,0.37197476210682306,-0.12138177861534581,0.007637705843478759,nan
1740788773.8346364,-0.02004207636628767,0.38474091915710845,-0.16137402062960765,-0.017627551955874097,nan
1740788773.838541,-0.05822215952862346,0.39672120254864546,-0.20011326894898301,-0.04259397627257827,nan
1740788773.8424456,-0.09553626253854153,0.40759434138918327,-0.23723975029653718,-0.06698264498337932,nan
1740788773.8463504,-0.13160661869537976,0.4170474572559335,-0.2724049287032137,-0.090517513070098,nan
1740788773.850255,-0.16606477476461062,0.42477989150454865,-0.3052749367574245,-0.11292843365065908,nan
1740788773.8541596,-0.19855538973722972,0.43050691454007767,-0.33553390770903724,-0.13395415095761987,nan
1740788773.8580644,-0.22873994087141522,0.4339632766159044,-0.3628871752572231,-0.15334523383484855,nan
1740788773.861969,-0.25630029907630747,0.43490656121975335,-0.3870643087453192,-0.17086691862113448,nan
1740788773.8658736,-0.28094213663304074,0.43312030400507173,-0.4078219526979891,-0.18630183090471444,nan
1740788773.869803,-0.30239813155691486,0.4284168425138967,-0.42494644115819064,-0.19945255656150243,nan
1740788773.8737075,-0.32043093457711486,0.42063986459217045,-0.43825615910238175,-0.21014403372563298,nan
1740788773.877612,-0.3348358667332886,0.4096666263951104,-0.4476036253175956,-0.21822573887408703,nan
1740788773.881517,-0.345443317944587,0.39540981418986093,-0.452877273496331,-0.22357364202485244,nan
1740788773.8854215,-0.35212081957632696,0.3778190277532137,-0.45400291092477324,-0.2260919081348425,nan
1740788773.889326,-0.3547747669885977,0.3568818669986946,-0.45094483698412985,-0.2257143241210893,nan
1740788773.8932307,-0.35335177127356765,0.33262460751219897,-0.4437066067292584,-0.22240543349567543,nan
1740788773.8971355,-0.3478396228445464,0.3051124548887059,-0.43233142802620517,-0.21616136337790967,nan
1740788773.90104,-0.3382678531984363,0.27444937210277204,-0.4169021840920773,-0.2070103316008385,nan
1740788773.9049447,-0.32470788499996,0.2407774785693147,-0.39754107675645345,-0.19501282473562634,nan
1740788773.9088495,-0.30727276459522446,0.2042760240143945,-0.3744088893214041,-0.18026144108724465,nan
1740788773.912754,-0.2861164751162975,0.16515994473355958,-0.3477038715044502,-0.16288039603753068,nan
1740788773.916682,-0.26143283244894266,0.12367801422280654,-0.31766025257169994,-0.14302469049497377,nan
1740788773.9205868,-0.2334539704629436,0.0801106044796163,-0.28454639237294077,-0.12087894662170631,nan
1740788773.9244914,-0.2024484260086975,0.03476707844499262,-0.24866258354246235,-0.09665591841378092,nan
1740788773.928396,-0.16871883822481956,-0.012017161951009186,-0.2103385215947055,-0.07059468807725176,nan
1740788773.9323008,-0.13259928063971918,-0.05988394390918643,-0.16993046298902148,-0.042958562436290905,nan
1740788773.9362054,-0.09445224834633005,-0.10845587630921578,-0.1278180944301142,-0.014032686797524868,nan
1740788773.94011,-0.05466532614549316,-0.1573401517412573,-0.08440113967856548,0.015878603255425672,nan
1740788773.9440148,-0.013647566953235341,-0.20613256020258106,-0.04009573293907976,0.04645466878281908,nan
1740788773.9479194,0.02817438708436859,-0.25442167413066363,0.0046694095557487676,0.07736166708962781,nan
1740788773.951824,0.07036040546057701,-0.30179316232582915,0.0494569858675514,0.10825583551737525,nan
1740788773.9557285,0.1124611543030872,-0.34783418861342963,0.09382523669436946,0.13878692873828058,nan
1740788773.9596334,0.15402252542749498,-0.39213784982759065,0.1373321681749832,0.16860177694111025,nan
1740788773.9635599,0.19459016753878314,-0.43430760688132003,0.17953983025933343,0.19734793067559903,nan
1740788773.9674644,0.23371407621442383,-0.47396166233243486,0.22001861076075144,0.2246773568179686,nan
1740788773.971369,0.2709531982509641,-0.510737237968085,0.25835150458012845,0.2502501491498054,nan
1740788773.9752738,0.30588000532238824,-0.5442947065147103,0.2941383173387373,0.27373821641926527,nan
1740788773.9791784,0.3380849916929671,-0.5743215326326558,0.32699976278135906,0.29482891048679094,nan
1740788773.983083,0.36718105095557635,-0.6005359798680746,0.35658141381726055,0.31322855725349047,nan
1740788773.9869876,0.3928076874303621,-0.6226905421976279,0.3825574679526208,0.3286658535318489,nan
1740788773.9908924,0.4146350189557694,-0.6405750611974322,0.4046342891298267,0.3408950938448277,nan
1740788773.994797,0.43236752932779354,-0.6540194926762599,0.42255368961871315,0.349699192326419,nan
1740788773.9987016,0.4457475305832592,-0.6628962898092184,0.4360959175909403,0.35489246643664624,nan
1740788774.0026064,0.45455829766421135,-0.6671223733634214,0.44508231833645123,0.35632315108568124,nan
1740788774.006511,0.4586268407245948,-0.6666606634888809,0.44937763973223804,0.3538756139705907,nan
1740788774.0104368,0.45782628342483284,-0.6615211517202384,0.4488919555272507,0.34747224544647465,nan
1740788774.0143414,0.45207781897865856,-0.6517614962589555,0.4435821832388422,0.33707499906037536,nan
1740788774.0182462,0.44135221944031405,-0.6374871282395206,0.4334531769388198,0.32268656194754697,nan
1740788774.0221508,0.42567087771637946,-0.6188508614830988,0.4185583789111156,0.30435113759875204,nan
1740788774.0260553,0.4051063660197507,-0.596052003161821,0.39900001805667373,0.28215482702510075,nan
1740788774.0299602,0.3797824989157348,-0.5693349677892572,0.37492884697020673,0.2562255980421567,nan
1740788774.0338647,0.34987389370178534,-0.5389874019689308,0.34654341378248565,0.22673283623422502,nan
1740788774.0377693,0.3156050255711818,-0.5053378323241502,0.314088869113635,0.1938864751078604,nan
1740788774.041674,0.27724877979362184,-0.4687528539496,0.27785531277935066,0.15793570696430012,nan
1740788774.0455787,0.2351245079578044,-0.4296338815195531,0.2381756891940737,0.11916728007627374,nan
1740788774.0494833,0.1895956001176617,-0.3884134898110823,0.19542324468368244,0.07790339180740352,nan
1740788774.0533879,0.1410665894196674,-0.3455513748068806,0.15000856411572386,0.03449919132372555,nan
1740788774.0573237,0.08997981041855081,-0.30152997068632026,0.10237620833865138,-0.010660090521627886,nan
1740788774.0612283,0.0368116367684042,-0.25684976185268077,0.05300097785451935,-0.057162362735868,nan
1740788774.065133,-0.017931671737823084,-0.2120243326390574,0.0023838318947915107,-0.10457222211272542,nan
1740788774.0690377,-0.07371847875699425,-0.16757520044852758,-0.04895250440961263,-0.15243479901652884,nan
1740788774.0729423,-0.1299965998142573,-0.12402648078211483,-0.10046820880937243,-0.2002798692616181,nan
1740788774.076847,-0.1861984082914713,-0.08189943486136077,-0.1516112677409511,-0.2476261973415642,nan
1740788774.0807517,-0.24174617461274378,-0.04170695233517054,-0.201822577572501,-0.29398607356898754,nan
1740788774.0846562,-0.2960575915219949,-0.003948022851801224,-0.25054119740388364,-0.3388700053108389,nan
1740788774.0885608,-0.34855143602488436,0.03089774894033339,-0.29720970759837545,-0.38179152047132986,nan
1740788774.0924656,-0.3986533166798155,0.062375530136927274,-0.3412796266813094,-0.42227203970790894,nan
1740788774.0963702,-0.4458014534916234,0.09006049350595322,-0.38221683810888646,-0.4598457725842011,nan
1740788774.1002748,-0.4894524367043028,0.11356284483299302,-0.4195069777027483,-0.49406459198365765,nan
1740788774.1042082,-0.529086910319002,0.1325325912378777,-0.45266073227318565,-0.5245028406411872,nan
1740788774.108113,-0.5642151261891736,0.14666399985605713,-0.48121900012260643,-0.5507620236059735,nan
1740788774.1120176,-0.5943823150705679,0.15569969862275146,-0.5047578647339016,-0.5724753408318777,nan
1740788774.1159222,-0.6191738220292535,0.15943437372995362,-0.5228933340042371,-0.5893120149031488,nan
1740788774.119827,-0.6382199551311538,0.1577180216229259,-0.5352857988783782,-0.6009813701396727,nan
1740788774.1237316,-0.6512004983421384,0.15045871713674316,-0.541644167157652,-0.6072366209806392,nan
1740788774.1276362,-0.6578488420443528,0.1376248635128533,-0.5417296305978604,-0.6078783296074434,nan
1740788774.131541,-0.657955687503739,0.11924689454489629,-0.5353590261449279,-0.6027574952210792,nan
1740788774.1354456,-0.6513722849827029,0.09541840394250095,-0.5224077552700961,-0.5917782402177598,nan
1740788774.1393502,-0.638013168953692,0.06629668212855941,-0.5028122288327554,-0.5749000616869356,nan
1740788774.1432548,-0.6178583580031691,0.032102646053575275,-0.47657180869101934,-0.5521396201627108,nan
1740788774.1471596,-0.5909549914866595,-0.0068798468285718554,-0.4437502213671084,-0.523572041364229,nan
1740788774.1511033,-0.5574183797663336,-0.05030530357638144,-0.4044764234229502,-0.48933171073117393,nan
1740788774.1550078,-0.5174324498921257,-0.09776851712883153,-0.3589449027749496,-0.44961254486268537,nan
1740788774.1589127,-0.4712495738321848,-0.14880709555875307,-0.30741540493711095,-0.4046677284649992,nan
1740788774.1628172,-0.4191897717726636,-0.20290458493520058,-0.2502120780882462,-0.3548089100659961,nan
1740788774.1667218,-0.3616392885428747,-0.259494165782626,-0.18772203586981176,-0.30040485452301874,nan
1740788774.1706264,-0.299048546830477,-0.31796289751640366,-0.12039334189266618,-0.2418795551917146,nan
1740788774.1745312,-0.23192948648255474,-0.3776564798070921,-0.04873242501971078,-0.179709813495297,nan
1740788774.1784358,-0.16085230479147009,-0.43788449463205875,0.026699060447818744,-0.11442229849176379,nan
1740788774.1823404,-0.08644161818845206,-0.49792608786303527,0.10528791056421774,-0.046590103837435025,nan
1740788774.1862452,-0.009372071162567564,-0.5570360446599307,0.1863735595256255,0.023171175755120767,nan
1740788774.1901498,0.06963657656150223,-0.614451208740122,0.26925275075007626,0.09420782191122436,nan
1740788774.1940544,0.149824848565028,-0.6693971918106161,0.35318465804463606,0.16583279281773866,nan
1740788774.1979852,0.23039939525969133,-0.7210953161263784,0.4373964193892316,0.2373309111119866,nan
1740788774.2018898,0.3105392372621939,-0.7687697303063247,0.5210890418864065,0.3079644003964654,nan
1740788774.2057943,0.38940235945013835,-0.8116546362291149,0.6034436327662304,0.3769787277680789,nan
1740788774.2096992,0.4661326028931733,-0.849001563069523,0.6836279080304327,0.4436087065169428,nan
1740788774.2136037,0.5398667986508605,-0.8800866233433765,0.7608029274010045,0.5070848102859622,nan
1740788774.2175083,0.6097420846925763,-0.9042176852203957,0.8341300017344514,0.5666396475171582,nan
1740788774.2214131,0.6749033449529503,-0.920741395349905,0.9027777169985003,0.6215145429695023,nan
1740788774.2253177,0.7345107078123964,-0.9290499870290837,0.9659290173046082,0.6709661714975159,nan
1740788774.2292223,0.7877470401054131,-0.9285878097265113,1.0227882883644592,0.7142731881481406,nan
1740788774.233127,0.8338253721238484,-0.9188575177489472,1.07258838210506,0.7507427979792265,nan
1740788774.2370317,0.871996189007877,-0.8994258581948728,1.114597523044111,0.779717208836273,nan
1740788774.2409363,0.9015545244086162,-0.869929001257178,1.1481260373999203,0.8005799106502463,nan
1740788774.2448666,0.9218467933627037,-0.8300773593970511,1.172532846788461,0.812761725639548,nan
1740788774.2487712,0.9322773029352875,-0.7796598458841687,1.1872316697405298,0.8157465751103239,nan
1740788774.252676,0.9323143813533523,-0.7185475276521921,1.1916968761456816,0.8090769103436506,nan
1740788774.2565806,0.9214960690505718,-0.6466966323165172,1.1854689420842461,0.792358757323778,nan
1740788774.2604852,0.89943531825777,-0.5641508745017739,1.1681594553271437,0.7652663277823709,nan
1740788774.26439,0.8658246514746286,-0.4710430722846366,1.1394556250444745,0.7275461521892439,nan
1740788774.2682946,0.8204402333190381,-0.36759603052438233,1.0991242529428449,0.6790206938861176,nan
1740788774.2721992,0.76314531483688,-0.2541226740774051,1.0470151271194583,0.6195914075084076,nan
1740788774.276104,0.6938930143294145,-0.13102542031828604,0.9830638043457776,0.5492412091393334,nan
1740788774.2800086,0.6127284040766038,0.0012052130377502993,0.9072937512395792,0.46803633025583846,nan
1740788774.2839131,0.5197898779581585,0.1419927621561112,0.819817819812986,0.37612753241904034,nan
1740788774.2878177,0.41530978085247006,0.2906777240046059,0.7208390381544832,0.27375066479267096,nan
1740788774.2917454,0.2996142867769618,0.44652119997559897,0.6106507024715732,0.1612265518982786,nan
1740788774.29565,0.17312251896993822,0.6087092536430363,0.48963576234235257,0.038960204491127616,nan
1740788774.2995546,0.03634491145012836,0.7763579536742798,0.3582654967520102,-0.09256064798070449,nan
1740788774.3034594,-0.11011918202870914,0.9485190667113962,0.21709748427617032,-0.232767699237077,nan
1740788774.307364,-0.265584619339879,1.1241863590971413,0.06677287656835475,-0.3810148726073164,nan
1740788774.3112686,-0.4292843230690556,1.3023024607021478,-0.09198700993522244,-0.5365817767123493,nan
1740788774.3151734,-0.6003738305447992,1.4817662388635513,-0.2583847635127447,-0.6986777895355701,nan
1740788774.319078,-0.7779365100267113,1.6614406256205128,-0.43155158174397773,-0.866446744656244,nan
1740788774.3229825,-0.9609894064819067,1.8401608370740017,-0.610552579728675,-1.0389721882293004,nan
1740788774.3268874,-1.1484896748777127,2.0167429198481073,-0.7943926653600608,-1.215283170335284,nan
1740788774.330792,-1.3393415537435025,2.1899925563249534,-0.982022940233962,-1.3943605296379102,nan
1740788774.3346965,-1.5324038269535656,2.358714057597139,-1.172347580246755,-1.5751436259156406,nan
1740788774.3386226,-1.7264977172988927,2.521719470957676,-1.3642311457632534,-1.7565374710169965,nan
1740788774.3425274,-1.9204151514882877,2.6778377272492815,-1.5565062674554317,-1.9374202051631773,nan
1740788774.346432,-2.112927332783992,2.825923752539075,-1.7479816505578012,-2.1166508623186764,nan
1740788774.3503366,-2.3027935545654965,2.9648674683816014,-1.9374503373851077,-2.2930773656005394,nan
1740788774.3542414,-2.488770185754433,3.093602605387483,-2.123698165538772,-2.4655446914250025,nan
1740788774.358146,-2.6696197572456892,3.211115255925761,-2.3055123573121983,-2.632903139318162,nan
1740788774.3620505,-2.8441200772924757,3.3164520935480875,-2.481690174409438,-2.794016643062147,nan
1740788774.3659554,-3.011073303198299,3.408728189119536,-2.651047571230192,-2.9477710581229464,nan
1740788774.36986,-3.169314896683593,3.4871343566553463,-2.8124277796555748,-3.0930823601187156,nan
1740788774.3737645,-3.3177223909209403,3.5509439654712027,-2.9647097584978814,-3.2289046894418916,nan
1740788774.3776693,-3.4552238984667167,3.599519159427144,-3.1068164415533377,-3.3542381780436386,nan
1740788774.381574,-3.5808062911497105,3.632316428747206,-3.2377227195146463,-3.4681364958193797,nan
1740788774.385499,-3.693522985394781,3.6488914850889818,-3.3564630928504116,-3.569714055989214,nan
1740788774.3894036,-3.792501269442428,3.6489033961752377,-3.462138935127197,-3.6581528213318837,nan
1740788774.3933082,-3.8769491124493904,3.6321179423357965,-3.5539253091185232,-3.732708656086485,nan
1740788774.397213,-3.9461613994917895,3.5984101636899024,-3.6310772813907524,-3.7927171717586003,nan
1740788774.4011176,-3.999525541007609,3.5477660733726477,-3.692935684851762,-3.8375990189294233,nan
1740788774.4050221,-4.036526410171765,3.4802835191156385,-3.738932282963818,-3.8668645814362925,nan
1740788774.408927,-4.056750567053076,3.3961721825724087,-3.7685942939228756,-3.8801180339355783,nan
1740788774.4128315,-4.059889734112935,3.295752712971064,-3.781548238055121,-3.877060728836066,nan
1740788774.4167361,-4.045743493622476,3.179454998918038,-3.7775230769373085,-3.8574938838612467,nan
1740788774.420641,-4.01422118384711,3.0478155894038186,-3.756352618267254,-3.8213205470186273,nan
1740788774.4245455,-3.9653429773218587,2.901474282211322,-3.717977166249126,-3.7685468214771083,nan
1740788774.42845,-3.8992401311624043,2.741169904936961,-3.6624444031677816,-3.699282338731743,nan
1740788774.4323854,-3.8161544060692894,2.567735320642295,-3.5899094938584413,-3.6137399744196665,nan
1740788774.43629,-3.7164366574289054,2.3820916967002117,-3.5006344108825838,-3.5122348071911667,nan
1740788774.4401946,-3.6005446086373483,2.1852420816263787,-3.3949864843477444,-3.395182327085187,nan
1740788774.4440994,-3.46903982341476,1.978264340539286,-3.2734361864071126,-3.2630959058580387,nan
1740788774.448004,-3.3225839003816575,1.762303505318948,-3.1365541664941134,-3.1165835476173016,nan
1740788774.4519086,-3.1619339194797105,1.5385636004872283,-2.9850075592376877,-2.9563439438699426,nan
1740788774.4558134,-2.987937175883652,1.3082990102681569,-2.8195555927171436,-2.783161862656371,nan
1740788774.459718,-2.801525242817018,1.0728054561651712,-2.64104453020414,-2.597902906763319,nan
1740788774.4636226,-2.6037074101030013,0.8334106576797168,-2.4504019837581463,-2.401507681043533,nan
1740788774.4675274,-2.3955635503072674,0.5914647514629081,-2.2486306429479486,-2.194985413576885,nan
1740788774.471432,-2.178236468919176,0.348330546215444,-2.0368014665249237,-1.9794070797461134,nan
1740788774.4753366,-1.9529237991330948,0.10537369201272052,-1.8160463890367669,-1.7558980822347048,nan
1740788774.47927,-1.7208695053975402,-0.1360471565799423,-1.5875505981091007,-1.5256305434514494,nan
1740788774.4831746,-1.4833550629667747,-0.3745901042288991,-1.3525444414067054,-1.2898152699169978,nan
1740788774.4870794,-1.241690383191586,-0.6089396266893056,-1.1122950250893469,-1.049693450686993,nan
1740788774.490984,-0.9972045562029226,-0.8378159534421694,-0.8680975678771605,-0.8065281539133973,nan
1740788774.4948885,-0.7512364839582835,-1.0599841457633332,-0.6212665766190149,-0.5615956871438238,nan
1740788774.4987934,-0.5051254773261272,-1.2742627975281504,-0.37312691050061303,-0.31617688791624476,nan
1740788774.502698,-0.2602018909731447,-1.4795322893279563,-0.12500480172813333,-0.07154841161601488,nan
1740788774.5066025,-0.017777869293469598,-1.6747425303382764,0.121781099326652,0.17102591657882088,nan
1740788774.5105073,0.22086172451641767,-1.8589201267998772,0.3659285869324522,0.4103036195272972,nan
1740788774.514412,0.4544681258671878,-2.031174920912917,0.6061606041111746,0.6450718908246363,nan
1740788774.5183165,0.6818371646167899,-2.1907058493579816,0.8412337228903206,0.8741556592258932,nan
1740788774.5222213,0.9018173741646214,-2.3368060764975587,1.069946337526842,1.096425333924323,nan
1740788774.5261533,1.1133176520353554,-2.468867363526042,1.2911465100359842,1.310804172583382,nan
1740788774.530058,1.3153144141045998,-2.586383641370442,1.5037394103411978,1.5162752172590561,nan
1740788774.5339625,1.5068581890044888,-2.688953761940131,1.7066942967982104,1.711887747027597,nan
1740788774.5378673,1.6870796040638276,-2.776283409321938,1.8990509867079262,1.89676320022054,nan
1740788774.541772,1.855194719341718,-2.8481861596551616,2.079925770685356,2.0701005236281933,nan
1740788774.5456765,2.010509671860128,-2.904583685636648,2.248516729358752,2.2311809108261706,nan
1740788774.5495813,2.152424597980761,-2.945505108835493,2.404108415794851,2.379371896865141,nan
1740788774.5534859,2.2804368079539383,-2.9710855101767724,2.546075872240702,2.5141307818980776,nan
1740788774.5573905,2.3941431929389108,-2.9815636160209293,2.6738879551957524,2.6350073618558927,nan
1740788774.5612953,2.493241851201611,-2.977278684158294,2.7871099484337165,2.74164594997391,nan
1740788774.5651999,2.577532926681997,-2.958666620696543,2.8854054493350145,2.833786678769503,nan
1740788774.5691044,2.6469186596325844,-2.9262553651847476,2.968537519718993,2.9112660779259683,nan
1740788774.573036,2.7014026555068886,-2.8806595873357783,3.0363690982319396,2.974016929399438,nan
1740788774.5769405,2.741088384665554,-2.8225747443273272,3.0888626772032257,3.0220674068849447,nan
1740788774.580845,2.766176931714609,-2.7527705528323323,3.1260792526792143,3.0555395125053586,nan
1740788774.58475,2.7769640193414187,-2.67208393460787,3.1481765620349065,3.0746468291747715,nan
1740788774.5886545,2.773836337318506,-2.5814114986181593,3.155406629100216,3.079691612489452,nan
1740788774.592559,2.757267212854672,-2.4817016262471117,3.148112642075762,3.0710612511696076,nan
1740788774.596464,2.7278116636408214,-2.3739462291394196,3.126725194609202,3.0492241299713934,nan
1740788774.6003685,2.686100879721906,-2.259172251572101,3.09175792521624,3.0147249335706263,nan
1740788774.604273,2.6328361846871844,-2.138432990982227,3.043802594722231,2.9681794341503145,nan
1740788774.608178,2.568782530573256,-2.0127993113482185,2.9835236455353518,2.9102688092693323,nan
1740788774.6120825,2.4947615842869797,-1.8833508245348982,2.9116522903084423,2.8417335400188963,nan
1740788774.615987,2.4116444662517456,-1.7511671144651624,2.8289801808750488,2.7633669424600784,nan
1740788774.6199174,2.3203442043386255,-1.617319078078709,2.7363527112310617,2.6760083878566903,nan
1740788774.623822,2.2218079679465004,-1.482860455491511,2.6346620107554677,2.580536269254814,nan
1740788774.6277268,2.117009148330248,-1.3488196195950632,2.524839685805137,2.477860773498732,nan
1740788774.6316314,2.0069393519362024,-1.2161916925540814,2.407849369266493,2.368916518803002,nan
1740788774.635536,1.892600373587501,-1.085931053302694,2.28467913859279,2.254655118516622,nan
1740788774.6394408,1.7749962158715282,-0.9589442962348519,2.1563338632954117,2.136037731716516,nan
1740788774.6433454,1.6551252200256743,-0.8360836968720751,2.023827542791215,2.0140276607575744,nan
1740788774.64725,1.5339723720090745,-0.7181412354126012,1.8881756949400628,1.8895830548932024,nan
1740788774.6511548,1.4125018453046831,-0.6058432237663073,1.7503878545459,1.7636497775758837,nan
1740788774.6550593,1.2916498393405766,-0.49984557600906504,1.611460239554073,1.637154493068472,nan
1740788774.658964,1.1723177692785622,-0.40072975620098983,1.4723686406739014,1.5109980255640607,nan
1740788774.6628687,1.055365859323056,-0.30899943126076035,1.3340615877094655,1.3860490411499173,nan
1740788774.6667962,0.9416071876886614,-0.22507785013031992,1.1974538430177415,1.2631380996870674,nan
1740788774.6707008,0.831802226969291,-0.14930596385982745,1.0634202692591488,1.143052120043016,nan
1740788774.6746054,0.7266539189165356,-0.08194129455206156,0.9327901149924105,1.0265292981451644,nan
1740788774.6785102,0.6268033176045719,-0.023157554389157512,0.8063417577269465,0.9142545130538334,nan
1740788774.6824148,0.5328258296798442,0.026954990716619217,0.6847979398182914,0.8068552517259184,nan
1740788774.6863194,0.4452280749145342,0.06838842489232642,0.5688215281136196,0.7048980783945002,nan
1740788774.6902242,0.36444538465347787,0.10121537197005118,0.4590118235658041,0.6088856695694016,nan
1740788774.6941288,0.2908399500156628,0.12558649574512054,0.35590144217734093,0.5192544306129354,nan
1740788774.6980333,0.22469962593526335,0.1417273414766619,0.25995378365285715,0.4363727047092173,nan
1740788774.7019382,0.16623739135498714,0.14993455491479785,0.17156109907449443,0.3605395798699062,nan
1740788774.7058427,0.11559146016747956,0.1505715204048125,0.09104316381218447,0.29198429444970797,nan
1740788774.7097473,0.07282603188903858,0.14406346447052856,0.01864655678467176,0.2308662365267051,nan
1740788774.7136738,0.03793266559298791,0.13089207567519703,-0.04545545785938728,0.17727552747983324,nan
1740788774.7175784,0.010832255375046942,0.11158969546105493,-0.10116245552511441,0.13123417521195413,nan
1740788774.7214832,-0.008622419384929837,0.08673313804571217,-0.14844579612514308,0.09269777776357643,nan
1740788774.7253878,-0.020643600418768268,0.05693720027698306,-0.18734700755514305,0.061557753579036076,nan
1740788774.7292924,-0.025504949466237797,0.022847924595203347,-0.21797563047753565,0.037644070461412306,nan
1740788774.7331972,-0.02353747953787137,-0.01486432009360024,-0.24050655138655744,0.02072844131935843,nan
1740788774.7371018,-0.015125062035051741,-0.05551187378067817,-0.2551768548333731,0.010527951200439048,nan
1740788774.7410064,-0.000699556415132495,-0.09839687066159872,-0.26228222928360106,0.006709076850221808,nan
1740788774.7449112,0.019264388166125267,-0.14281830826716857,-0.26217296433374726,0.00889205715972579,nan
1740788774.7488158,0.04425480753105596,-0.18807903507546525,-0.255249579903298,0.016655570387680035,nan
1740788774.7527204,0.07372811998961622,-0.23349259263436628,-0.24195813052458248,0.029541671986421998,nan
1740788774.7566252,0.10711499191468161,-0.2783898501744726,-0.2227852299556295,0.04706094523535519,nan
1740788774.7605507,0.14382631584235162,-0.3221253721996814,-0.19825284302838928,0.06869781570373938,nan
1740788774.7644556,0.18325924529305432,-0.36408346258025753,-0.16891289290598177,0.09391597983136456,nan
1740788774.7683601,0.22480323075348999,-0.4036838322096923,-0.13534173275203054,0.1221638976332275,nan
1740788774.7722647,0.2678460020043892,-0.4403868412861765,-0.0981345312103987,0.15288029970068026,nan
1740788774.7761695,0.3117794432131757,-0.4736982717021684,-0.05789962105646451,0.18549965928043416,nan
1740788774.7800741,0.3560053089179803,-0.5031735898277055,-0.015252859916916446,0.21945758125423556,nan
1740788774.7839787,0.39994073119000245,-0.5284216651078997,0.029187948927000263,0.2541960613020594,nan
1740788774.7878835,0.4430234708508338,-0.5491079153126287,0.07480852892491446,0.2891685703927427,nan
1740788774.791788,0.48471686861219704,-0.5649568549247526,0.12100345077951029,0.3238449219869884,nan
1740788774.7956927,0.5245144553663706,-0.5757540289781687,0.1671812580988518,0.35771588193440634,nan
1740788774.7995975,0.5619441845519004,-0.5813473206033438,0.21276935756432963,0.3902974839712661,nan
1740788774.803502,0.5965722535137684,-0.5816476265494316,0.257218635713265,0.42113501694898414,nan
1740788774.8074381,0.6280064850304086,-0.5766289009721403,0.3000077674421518,0.449806653412438,nan
1740788774.8113427,0.6558992446499898,-0.5663275737489701,0.34064718460664717,0.4759266928674694,nan
1740788774.8152475,0.6799498741218817,-0.5508413554525848,0.3786826765954177,0.49914839699188623,nan
1740788774.819152,0.6999066259815774,-0.5303274468247963,0.41369859845280305,0.5191663981161513,nan
1740788774.8230567,0.7155680892030095,-0.5050001760952645,0.4453206659846181,0.5357186664896756,nan
1740788774.8269615,0.7267841007254369,-0.47512809273033024,0.47321832126587643,0.5485880261167503,nan
1740788774.830866,0.7334561425469928,-0.4410305511307702,0.4971066560416128,0.557603213252416,nan
1740788774.8347707,0.7355372289082854,-0.4030738223783413,0.5167478846348592,0.5626394759532564,nan
1740788774.8386755,0.733031292822624,-0.36166677631870214,0.5319523621116995,0.5636187173414382,nan
1740788774.84258,0.7259920858013659,-0.31725618002584455,0.5425791475649046,0.560509189423643,nan
1740788774.8464847,0.7145216090320238,-0.2703216619876445,0.548536116428544,0.5533247483719955,nan
1740788774.8503895,0.6987680984537226,-0.2213703941553622,0.5497796296904616,0.542123686085614,nan
1740788774.8543227,0.6789235901023305,-0.17093154628844046,0.5463137716934471,0.527007156574335,nan
1740788774.8582273,0.6552210957317904,-0.11955056878123767,0.5381891718765617,0.5081172192082221,nan
1740788774.862132,0.6279314220276924,-0.06778336136702884,0.5255014292746203,0.48563452412761593,nan
1740788774.8660367,0.5973596696859202,-0.016190385748567508,0.508389161837576,0.45977566808123926,nan
1740788774.8699412,0.5638414512089689,0.03466921969917017,0.4870317056262012,0.43079025162979684,nan
1740788774.873846,0.5277388684546342,0.08424346546729213,0.4616464916622586,0.3989576709980115,nan
1740788774.8777506,0.4894362927394692,0.13199322001205452,0.43248613063936875,0.3645836798609665,nan
1740788774.8816552,0.44933599164005894,0.1773977472756353,0.39983523781693825,0.3279967579960107,nan
1740788774.88556,0.40785364754026754,0.21996001954783212,0.36400703220893754,0.28954432500803756,nan
1740788774.8894646,0.36541381343778073,0.2592117551406809,0.3253397456301248,0.24958883823578887,nan
1740788774.8933692,0.3224453515483975,0.2947181333680197,0.2841928782660543,0.2085038144657932,nan
1740788774.897274,0.2793768998356179,0.3260821427780041,0.24094333818458158,0.16666981521803098,nan
1740788774.901206,0.23663241075425767,0.35294852244300057,0.1959815026036645,0.12447043512642245,nan
1740788774.9051106,0.19462680524220896,0.3750072603292059,0.14970723877436556,0.08228833232431265,nan
1740788774.9090152,0.1537617833400126,0.39199661730541285,0.10252592203371198,0.04050133877026575,nan
1740788774.91292,0.11442183078323176,0.4037056501615868,0.05484448793712309,-0.0005213128740403546,nan
1740788774.9168246,0.07697045852082289,0.40997621204574075,0.007067554405290079,-0.04042261085770961,nan
1740788774.9207292,0.04174670939003719,0.4107044139427791,-0.0404063514705983,-0.07886120145863942,nan
1740788774.924634,0.009061963154122133,0.4058415361605205,-0.08718842891219568,-0.11551461087689069,nan
1740788774.9285386,-0.020802932184940608,0.3953943842043775,-0.13290307004428337,-0.15008222369934945,nan
1740788774.9324431,-0.04760017841604544,0.3794250888608369,-0.17719112854125524,-0.18228799249498862,nan
1740788774.936348,-0.07111717383733408,0.35805035571880606,-0.21971296364571632,-0.2118828560730971,nan
1740788774.9402525,-0.09117827190048479,0.3314401746853535,-0.2601512354522172,-0.23864684708876727,nan
1740788774.9441571,-0.10764613903144726,0.29981600524783786,-0.29821343010957335,-0.2623908729786161,nan
1740788774.9480882,-0.1204227029743622,0.26344845824863666,-0.3336340965106057,-0.28295815762186133,nan
1740788774.951993,-0.1294496871440928,0.2226544997246198,-0.3661767790789425,-0.3002253346134527,nan
1740788774.9558976,-0.1347087306135341,0.17779420687629133,-0.3956356343984695,-0.31410318657258884,nan
1740788774.9598022,-0.13622109746456892,0.1292671104293161,-0.4218367226312794,-0.32453702845699256,nan
1740788774.963707,-0.1340469832567993,0.07750816149514023,-0.4446389679035916,-0.3315067363765305,nan
1740788774.9676116,-0.1282844302775799,0.02298336449251546,-0.4639347850751167,-0.33502642686537165,nan
1740788774.9715161,-0.11906786699355781,-0.03381487927336078,-0.479650373515232,-0.33514379494694246,nan
1740788774.975421,-0.10656629069264162,-0.09237267018978094,-0.4917456816592289,-0.331939122578884,nan
1740788774.9793255,-0.0909811156530575,-0.1521597017715926,-0.5002140491808272,-0.3255239721656955,nan
1740788774.98323,-0.0725437122721689,-0.21263449402092863,-0.5050815365654187,-0.31603958274641775,nan
1740788774.987135,-0.05151266540410645,-0.2732497166519671,-0.5064059546757986,-0.3036549891770347,nan
1740788774.9910395,-0.02817078266679383,-0.3334575495028349,-0.5042756095438148,-0.28856488710811673,nan
1740788774.9949698,-0.0028218856638446473,-0.3927150273518485,-0.4988077800747953,-0.27098726878586665,nan
1740788774.9988744,0.024212581093618075,-0.45048931676234916,-0.49014694859604757,-0.25116085666007937,nan
1740788775.002779,0.052597087301011085,-0.5062628734931244,-0.47846280619787884,-0.22934236344933118,nan
1740788775.0066838,0.08198566263864694,-0.5595384304185853,-0.46394805658948896,-0.2058036086787257,nan
1740788775.0105884,0.11202561311519098,-0.6098437677887066,-0.44681604370926165,-0.18082852275846856,nan
1740788775.014493,0.14236126953300163,-0.6567362200028102,-0.4272982295787039,-0.1547100704053002,nan
1740788775.0183978,0.17263772967204438,-0.6998068758488899,-0.40564154986337386,-0.12774712561950685,nan
1740788775.0223024,0.20250455620941318,-0.7386844323425547,-0.382105675297342,-0.10024133051706127,nan
1740788775.026207,0.23161939318507144,-0.773038665854301,-0.35696020753741486,-0.07249397008186324,nan
1740788775.0301118,0.25965146498048686,-0.8025834881046847,-0.3304818381397084,-0.04480289435257469,nan
1740788775.0340164,0.2862849232811384,-0.8270795587950238,-0.30295149919711734,-0.017459518700796067,nan
1740788775.0379212,0.31122200932886557,-0.8463364310847679,-0.2746515337473672,0.009254068296230638,nan
1740788775.0418484,0.3341860009150859,-0.860214210781485,-0.24586291336579996,0.03506786132021654,nan
1740788775.0457532,0.35492391599746015,-0.8686247149297857,-0.2168625294054778,0.059726532745092,nan
1740788775.0496578,0.3732089475144901,-0.8715321204239697,-0.1879205831525765,0.08299184061501014,nan
1740788775.0535624,0.38884260689619515,-0.868953098277602,-0.1592980987425195,0.10464482791133359,nan
1740788775.0574672,0.4016565568938138,-0.8609564342127989,-0.13124458104908512,0.12448779322087801,nan
1740788775.0613718,0.411514117645071,-0.847662141234052,-0.10399583893378811,0.142346015460177,nan
1740788775.0652766,0.41831143332003357,-0.8292400747776343,-0.07777199224681099,0.1580692180005262,nan
1740788775.0691812,0.42197829022106226,-0.8059080658306409,-0.05277567882569416,0.17153276034799503,nan
1740788775.0730858,0.42247858080317274,-0.7779295920476516,-0.029190475467064336,0.1826385484322551,nan
1740788775.0769906,0.4198104117021732,-0.7456110113135459,-0.0071795444739940935,0.19131565751841456,nan
1740788775.0808952,0.4140058574710989,-0.7092983863664135,0.013115485067984082,0.1975206647467964,nan
1740788775.0847998,0.4051303652949841,-0.6693739329652965,0.031575394634492125,0.20123769129677452,nan
1740788775.088726,0.39328181944465435,-0.6262521276275888,0.04810400810133689,0.20247815713239076,nan
1740788775.0926309,0.37858927760799127,-0.5803755141371192,0.06262857648320164,0.20128025419024048,nan
1740788775.0965354,0.361211394469045,-0.5322102508071471,0.07509991648051466,0.19770814668540962,nan
1740788775.10044,0.3413345509604366,-0.4822414428471115,0.08549230619869906,0.19185090991175643,nan
1740788775.1043448,0.31917071046339546,-0.4309683061069102,0.09380314378736872,0.1838212214723564,nan
1740788775.1082494,0.2949550258455393,-0.37889920994062876,0.10005237703543297,0.17375382127009664,nan
1740788775.112154,0.26894322358460393,-0.32654664793067983,0.10428171413004235,0.16180375879452472,nan
1740788775.1160588,0.24140879330491932,-0.2744221857353118,0.10655362782286107,0.1481444482385715,nan
1740788775.1199634,0.2126400128336005,-0.22303143536417078,0.10695016712787421,0.1329655537493648,nan
1740788775.123868,0.1829368403492549,-0.17286910474951886,0.10557159238419474,0.11647072864500754,nan
1740788775.1277728,0.15260770633490847,-0.12441417057084829,0.1025348510403847,0.09887523370061643,nan
1740788775.1316774,0.12196623884939878,-0.07812522091855816,0.09797191284103463,0.08040346061131796,nan
1740788775.135603,0.09132795609180898,-0.034436012563283026,0.09202798421118713,0.061286387469320795,nan
1740788775.1395078,0.0610069603489691,0.006248714649566279,0.0848596225312786,0.04175899354143919,nan
1740788775.1434124,0.03131266718763983,0.04355712641187343,0.07663277166871263,0.02205766080023096,nan
1740788775.147317,0.0025466031849799542,0.0771538487318863,0.0675207405781342,0.002417589546734113,nan
1740788775.1512218,-0.02500069540905436,0.10674315541575001,0.05770214699965361,-0.016929744930947767,nan
1740788775.1551263,-0.05105265190471462,0.1320717584744211,0.047358848273524934,-0.03575906838528888,nan
1740788775.159031,-0.07534945665619028,0.15293117564189265,0.03667388105442822,-0.05385369097516549,nan
1740788775.1629357,-0.09765068496927357,0.16915965338966013,0.025829431253887664,-0.07100777380404445,nan
1740788775.1668403,-0.11773769969430395,0.180643628215919,0.015004854873116535,-0.08702845588531201,nan
1740788775.170745,-0.13541581510158496,0.1873187135325922,0.0043747695203219805,-0.10173782043238622,nan
1740788775.1746497,-0.1505162011953572,0.18917020412442218,-0.0058927646522165845,-0.11497468121802708,nan
1740788775.1785543,-0.16289751037752612,0.1862330948664624,-0.015637957091792703,-0.12659617177778043,nan
1740788775.1824903,-0.1724472112949798,0.1785916151134061,-0.024710875968097186,-0.136479122424742,nan
1740788775.186395,-0.17908261776442305,0.16637828487040573,-0.03297289971733592,-0.14452121237344087,nan
1740788775.1902995,-0.1827516038346896,0.14977250347487453,-0.0402980181213179,-0.15064188671486667,nan
1740788775.1942043,-0.18343299928628565,0.12899868601763503,-0.04657397181591897,-0.1547830305168601,nan
1740788775.198109,-0.1811366631485907,0.10432396706648588,-0.051703220993447686,-0.1569093949178217,nan
1740788775.2020135,-0.17590323610352904,0.07605549538430857,-0.05560373600257501,-0.15700877271017405,nan
1740788775.2059183,-0.16780357590769573,0.04453734721784125,-0.05820960453676366,-0.15509192354604687,nan
1740788775.209823,-0.15693788317013274,0.010147089335361315,-0.05947145211642665,-0.15119225151441687,nan
1740788775.2137275,-0.1434345279384677,-0.026707973722094484,-0.05935667459024246,-0.14536524040973622,nan
1740788775.2176323,-0.12744859054097743,-0.06559483077170346,-0.05784948338612052,-0.13768765451092987,nan
1740788775.2215369,-0.10916013297686479,-0.1060590335319288,-0.05495076621173547,-0.12825651509145458,nan
1740788775.2254417,-0.0887722198138181,-0.14762916243936933,-0.050677767818280844,-0.11718786516183619,nan
1740788775.2293746,-0.06650871001474695,-0.18982144484991184,-0.045063597280077826,-0.10461533708323852,nan
1740788775.2332795,-0.04261184335062307,-0.23214448041631264,-0.03815656998852277,-0.09068853966293139,nan
1740788775.237184,-0.01733964704224824,-0.27410402755981056,-0.03001939419472824,-0.07557128313092867,nan
1740788775.2410886,0.009036810008418687,-0.3152078045297213,-0.020728213445275107,-0.059439661984190276,nan
1740788775.2449934,0.03623628660301507,-0.35497025857464254,-0.010371517625559844,-0.04248001705548448,nan
1740788775.248898,0.06397033231691805,-0.3929172572300138,0.0009510634574070562,-0.024886799305361182,nan
1740788775.2528026,0.09194631349512618,-0.4285906566529832,0.013130068966994755,-0.006860358737375861,nan
1740788775.2567074,0.11987047089987474,-0.4615527032963067,0.02604760253686843,0.01139531750951524,nan
1740788775.260612,0.1474509775399583,-0.49139022699340845,0.03957879781060601,0.02967489343677261,nan
1740788775.2645168,0.17440096533478378,-0.5177185857080883,0.0535933369366904,0.047773974231086126,nan
1740788775.2684214,0.20044148970575246,-0.5401853247618309,0.06795700460680466,0.06549137359057282,nan
1740788775.272326,0.22530440193799423,-0.5584735162631298,0.0825332600873621,0.08263133421021783,nan
1740788775.276258,0.24873510020798636,-0.5723047476969173,0.09718480974520793,0.09900567791869783,nan
1740788775.2801628,0.27049513151540244,-0.581441732155556,0.11177516280575199,0.11443586281448034,nan
1740788775.2840674,0.2903646183760966,-0.5856905164704523,0.12617015350086075,0.1287549258361921,nan
1740788775.287972,0.3081444860100421,-0.5849022674974715,0.1402394133581616,0.14180929050870583,nan
1740788775.2918768,0.3236584678734872,-0.5789746209803386,0.15385777814481716,0.15346042111759714,nan
1740788775.2957814,0.33675486971647817,-0.5678525817226387,0.16690661489732023,0.16358630626427095,nan
1740788775.299686,0.34730807487087584,-0.5515289681985918,0.17927505553310905,0.1720827566237935,nan
1740788775.3035908,0.3552197761640421,-0.5300443991820559,0.19086112473680983,0.17886450374736818,nan
1740788775.3074954,0.36041992268184253,-0.5034868244287078,0.20157275112955428,0.1838660889000097,nan
1740788775.3114002,0.3628673725425508,-0.471990605864575,0.21132865214892846,0.18704253317880373,nan
1740788775.3153048,0.3625502458607232,-0.43573516007195995,0.22005908457328002,0.18836978249435574,nan
1740788775.3192093,0.3594859751464255,-0.3949431770793203,0.22770645420046154,0.18784492339341538,nan
1740788775.32314,0.35372105346953586,-0.3498784345141628,0.23422577982008078,0.18548616812929772,nan
1740788775.3270447,0.34533048378980996,-0.3008432300282941,0.23958500828184093,0.1813326098233817,nan
1740788775.3309493,0.3344169358804128,-0.24817545851617165,0.24376517914253207,0.1754437509806242,nan
1740788775.334854,0.32110962022520173,-0.19224536398506775,0.246760439052403,0.1678988109997825,nan
1740788775.3387587,0.30556289111875035,-0.13345199896860696,0.24857790769998975,0.15879582063049094,nan
1740788775.3426633,0.28795459391463946,-0.07221942707454537,0.24923739875537443,0.14825051355094523,nan
1740788775.346568,0.2684841739249138,-0.008992706598124506,0.24877100081812314,0.13639502734906866,nan
1740788775.3504727,0.2473705668466059,0.055766304907628746,0.24722252487145796,0.12337642816527815,nan
1740788775.3543773,0.22484989275653444,0.12158328365141605,0.24464682615305444,0.10935507507641652,nan
1740788775.358282,0.20117297765195713,0.18797586760999152,0.24110900966072407,0.09450284194966337,nan
1740788775.3621867,0.1766027282034306,0.2544581361902908,0.23668352970497994,0.07900121595591086,nan
1740788775.3660913,0.1514113868109082,0.3205450979158042,0.23145319498798864,0.06303929318945926,nan
1740788775.3700206,0.12587769520130532,0.38575714263386546,0.22550809161941918,0.04681169288272278,nan
1740788775.3739254,0.100283995664642,0.4496244152946803,0.21894443726502685,0.030516412520640468,nan
1740788775.37783,0.07491329958848096,0.5116910693261167,0.21186338025629436,0.014352646741792706,nan
1740788775.3817346,0.05004635321213965,0.5715193590092372,0.20436975796339354,-0.0014814067434938635,nan
1740788775.3856394,0.025958730480903427,0.6286935320334707,0.19657082904524173,-0.01679073088665475,nan
