timestamps,TP9,AF7,AF8,TP10,Right AUX
1740373970.3137248,-0.12267923887201163,0.4606571046990829,-1.81911673753557,-0.3293795888263577,nan
1740373970.3176303,-0.10713190022066045,0.461733843584511,-1.7657364978625418,-0.3139131580991302,nan
1740373970.3215358,-0.0907936909411435,0.45859694283509894,-1.7058479845990981,-0.29648830511058194,nan
1740373970.3254414,-0.07381041191799338,0.4512082426212348,-1.6398992739733949,-0.2772347368257598,nan
1740373970.329347,-0.05633704117862401,0.43957188292837296,-1.5683728460801383,-0.2563003096619121,nan
1740373970.3332524,-0.03853625955413388,0.42373439267835045,-1.491781865794281,-0.2338496992716662,nan
1740373970.337158,-0.02057688160875546,0.40378434965982485,-1.410666279683683,-0.2100629009268633,nan
1740373970.3410635,-0.0026322072245092113,0.37985161522445626,-1.3255887599783165,-0.1851335750141232,nan
1740373970.344969,0.015121689858082838,0.3521061519548642,-1.2371305275383209,-0.15926725370948183,nan
1740373970.3488746,0.032507719490219994,0.32075643666811643,-1.1458870863879287,-0.1326794262966217,nan
1740373970.35278,0.04934956092148281,0.2860474851434507,-1.0524639027441778,-0.10559352181708653,nan
1740373970.3566856,0.06547345892408865,0.24825850881576786,-0.9574720615675458,-0.0782388087794886,nan
1740373970.3605957,0.0807100119738011,0.2077002273192173,-0.8615239334978639,-0.050848232497337276,nan
1740373970.3645012,0.0948959341895976,0.16471186416253802,-0.7652288846164803,-0.023656211263533882,nan
1740373970.3684068,0.10787577288373267,0.11965785593654199,-0.6691890608005335,0.0031035870028344468,nan
1740373970.3723123,0.1195035639089962,0.07292430826406658,-0.5739952775149144,0.02920046578918886,nan
1740373970.3762178,0.1296444075083571,0.024915234176754317,-0.4802230447318389,0.054408896858176535,nan
1740373970.3801234,0.13817594806922912,-0.023951387282661486,-0.388428755288375,0.07851067133096812,nan
1740373970.384029,0.1449897420540241,-0.07324769269924462,-0.2991460634020385,0.10129698380081605,nan
1740373970.3879344,0.14999249941255027,-0.12254011529423528,-0.21288247827863183,0.12257042894064797,nan
1740373970.39184,0.15310718497025033,-0.17139362350125836,-0.13011619578112474,0.1421468909209295,nan
1740373970.3957455,0.15427396761804152,-0.21937597479572055,-0.05129318900135095,0.1598573070026093,nan
1740373970.399651,0.15345100659174993,-0.26606194237077685,0.023175423693522323,0.17554928790418717,nan
1740373970.4035566,0.1506150657075895,-0.311037472582486,0.0929157169605632,0.18908857894959302,nan
1740373970.4074662,0.1457619480994198,-0.35390373183299667,0.15759298944242567,0.20036034757070642,nan
1740373970.4113717,0.1389067457670909,-0.3942810027157086,0.21691347628198146,0.20927028444936321,nan
1740373970.4152772,0.1300839000756739,-0.4318123907981012,0.2706257347164505,0.2157455074216867,nan
1740373970.4191828,0.11934707122446808,-0.4661673053500809,0.3185216969488521,0.21973525921412426,nan
1740373970.4230883,0.10676881661389426,-0.49704467961876825,0.36043738718074186,0.22121139211657473,nan
1740373970.4269938,0.09244007995823482,-0.524175898880802,0.39625330236894735,0.22016863480286034,nan
1740373970.4308994,0.0764694949038178,-0.5473274074443966,0.4258944589182844,0.216624638661961,nan
1740373970.434805,0.05898250879595436,-0.5663029689954977,0.44933011012085927,0.21061980318319348,nan
1740373970.4387105,0.0401203340749072,-0.580945558153276,0.46657314167963115,0.20221688212326963,nan
1740373970.442616,0.020038736552616565,-0.5911388647852123,0.477679155089494,0.19150037435127149,nan
1740373970.4465215,-0.0010933284903354302,-0.5968083964941575,0.48274525097436577,0.17857570539720544,nan
1740373970.450427,-0.02309521986124635,-0.597922168690765,0.48190852667559714,0.16356820779995238,nan
1740373970.4543362,-0.0457762396695964,-0.5944909757646988,0.4753443044389615,0.1466219103403977,nan
1740373970.4582417,-0.0689373728667817,-0.5865682410263502,0.46326410843930665,0.12789814813535463,nan
1740373970.4621472,-0.09237312058886465,-0.5742494472663996,0.44591341059981665,0.10757400733901777,nan
1740373970.4660528,-0.1158734097493399,-0.557671153931986,0.42356916669481476,0.08584061983305745,nan
1740373970.4699583,-0.1392255604685879,-0.5370096110047361,0.3965371655605083,0.06290132476814607,nan
1740373970.4738638,-0.16221629224626974,-0.5124789836470341,0.36514921536850087,0.03896971513358837,nan
1740373970.4777694,-0.18463374928989273,-0.48432920551968345,0.32976019183540417,0.014267588664867607,nan
1740373970.481675,-0.20626952511300803,-0.45284348232873456,0.29074497394343707,-0.010977176660106738,nan
1740373970.4855804,-0.22692066641389758,-0.4183354705960809,0.24849529322846572,-0.03653280154587192,nan
1740373970.489486,-0.2463916363420622,-0.38114615983366706,0.2034165229522808,-0.06216581720485021,nan
1740373970.4933915,-0.26449621755531527,-0.3416404892039798,0.15592443351567373,-0.08764328824672062,nan
1740373970.497297,-0.2810593359627875,-0.30020373234142095,0.10644194029067414,-0.1127350246966564,nan
1740373970.5012097,-0.29591878673462013,-0.2572376862652892,0.05539586965840066,-0.13721576132744784,nan
1740373970.5051153,-0.30892684503165885,-0.21315670221346944,0.0032137684395483757,-0.1608672828281466,nan
1740373970.5090208,-0.31995174496014017,-0.16838359774842396,-0.04967921889465034,-0.1834804738836349,nan
1740373970.5129263,-0.3288790114776206,-0.12334549061917006,-0.10286338183265606,-0.20485727399998693,nan
1740373970.5168319,-0.33561263135573466,-0.07846959559395085,-0.15592736202462432,-0.2248125178722552,nan
1740373970.5207374,-0.34007605082980796,-0.03417902580167599,-0.20847093718277865,-0.24317564324459398,nan
1740373970.524643,-0.34221298922044346,0.009111359966842585,-0.26010765127619706,-0.25979224954632785,nan
1740373970.5285485,-0.34198805958183803,0.0509990230427353,-0.31046727324431356,-0.27452549208803706,nan
1740373970.532454,-0.3393871892990101,0.09109768369240846,-0.35919806820457845,-0.2872572982544086,nan
1740373970.5363595,-0.3344178355028173,0.12904109419831092,-0.4059688669873078,-0.2978893939187019,nan
1740373970.540265,-0.32710899217895817,0.16448660911964663,-0.45047092177724013,-0.3063441302097197,nan
1740373970.5441706,-0.31751098789507626,0.19711851768380076,-0.49241953765911817,-0.31256510276675903,nan
1740373970.5480828,-0.30569507513875976,0.22665110564109428,-0.5315554719350472,-0.3165175577016242,nan
1740373970.5519884,-0.2917528143278178,0.25283141661649156,-0.5676460951864544,-0.31818858062807226,nan
1740373970.555894,-0.2757952576026021,0.2754416859856403,-0.6004863101740683,-0.31758706729717023,nan
1740373970.5597994,-0.25795193951737566,0.2943014235586758,-0.6298992267875086,-0.3147434765697229,nan
1740373970.563705,-0.2383696836942061,0.3092691248417327,-0.6557365933531838,-0.3097093686426255,nan
1740373970.5676105,-0.21721123636851644,0.32024359432799526,-0.6778789866677485,-0.302556733602536,nan
1740373970.571516,-0.19465373952169066,0.3271648681112348,-0.6962357651269389,-0.2933771174862083,nan
1740373970.5754216,-0.170887057944886,0.33001472707692736,-0.7107447912497584,-0.2822805550610264,nan
1740373970.579327,-0.14611197609249577,0.3288167959700619,-0.7213719317400377,-0.26939432048115697,nan
1740373970.5832326,-0.12053828194810214,0.32363622772491585,-0.7281103449665369,-0.25486150880507696,nan
1740373970.5871382,-0.09438275632575893,0.3145789765297907,-0.7309795673655414,-0.23883946306024392,nan
1740373970.5910437,-0.06786708705268463,0.3017906671491193,-0.7300244117637014,-0.221498063093529,nan
1740373970.5949557,-0.041215728314730755,0.2854550719962846,-0.7253136919727191,-0.20301789383586644,nan
1740373970.5988612,-0.014653726084339975,0.2657922113042641,-0.7169387892115225,-0.1835883118223491,nan
1740373970.6027665,0.011595469015190388,0.24305609543978465,-0.7050120769575218,-0.16340542983248135,nan
1740373970.606672,0.03731217983069259,0.21753213191402246,-0.6896652217096019,-0.14267004033893285,nan
1740373970.6105776,0.0622826501949382,0.1895342229245936,-0.6710473778563869,-0.12158549906857,nan
1740373970.614483,0.08630114044864451,0.1594015822876698,-0.6493232953803401,-0.10035559038036392,nan
1740373970.6183887,0.10917194999459566,0.1274953033560893,-0.6246713594893372,-0.07918239634673406,nan
1740373970.6222942,0.13071134653400457,0.09419471194264209,-0.5972815814519002,-0.05826419138598371,nan
1740373970.6261997,0.15074938246386793,0.05989354035390086,-0.5673535599214872,-0.03779338403381319,nan
1740373970.6301053,0.16913157993993658,0.024995960368827976,-0.535094431871527,-0.017954526963891125,nan
1740373970.6340108,0.18572046732372402,-0.010087485648635021,-0.5007168319305706,0.001077584324382342,nan
1740373970.6379163,0.20039695112270473,-0.044944015345623915,-0.46443687841138265,0.01913970463171897,nan
1740373970.6418276,0.21306150908745614,-0.0791627579554073,-0.42647220367612904,0.036081805576473516,nan
1740373970.645733,0.22363519183353242,-0.11233888595058827,-0.3870400456801365,0.05176859836675165,nan
1740373970.6496387,0.2320604221930513,-0.14407768610467925,-0.34635541659860636,0.06608089714967483,nan
1740373970.6535442,0.23830158345394897,-0.1739985299229763,-0.30462936337463425,0.07891680888048429,nan
1740373970.6574497,0.24234538969475844,-0.20173870442720318,-0.26206733384462255,0.09019273741866247,nan
1740373970.6613553,0.2442010335498858,-0.22695706568444488,-0.21886766081107334,0.09984419144946441,nan
1740373970.6652608,0.2439001089240898,-0.24933747924501132,-0.17522017505618456,0.10782638782855988,nan
1740373970.6691663,0.24149630839384148,-0.26859201377834035,-0.1313049568364273,0.11411464403467532,nan
1740373970.6730719,0.23706489726585217,-0.2844638566495057,-0.08729123388293344,0.11870455556955514,nan
1740373970.6769774,0.2307019684872799,-0.2967299229368841,-0.04333643236972201,0.1216119563444896,nan
1740373970.680883,0.22252348479600245,-0.3052031324265222,0.0004146142833478921,0.12287266231610659,nan
1740373970.6847885,0.21266411664112816,-0.30973433240072934,0.043830295518327594,0.1225420008586879,nan
1740373970.6886992,0.20127588647221947,-0.3102138475346228,0.08679269101757536,0.12069413056358445,nan
1740373970.6926048,0.1885266319698535,-0.30657264189040656,0.1291978753143771,0.11742115831611538,nan
1740373970.6965103,0.17459830265010742,-0.2987830818185042,0.1709560611717028,0.11283206259477808,nan
1740373970.7004158,0.1596851060026685,-0.2868592924997509,0.2119915847976248,0.10705143394551826,nan
1740373970.7043211,0.1439915208986409,-0.2708571048548041,0.25224273744351355,0.10021804548467382,nan
1740373970.7082267,0.12773019741371544,-0.25087359356661154,0.2916614493404436,0.09248326805878646,nan
1740373970.7121322,0.11111976344034627,-0.22704621096946598,0.3302128332583987,0.08400934631947367,nan
1740373970.7160378,0.09438255949602187,-0.19955152551455693,0.36787459621044455,0.07496755344030714,nan
1740373970.7199433,0.07774232396253139,-0.1686035773882487,0.40463632895986607,0.06553624349498367,nan
1740373970.7238488,0.061421851604075255,-0.13445186759744143,0.4404986840130671,0.05589882161845133,nan
1740373970.7277544,0.045640648603125375,-0.09737900040999439,0.47547245368682084,0.04624165297369994,nan
1740373970.73166,0.03061260751714097,-0.05769800241210055,0.5095775606182732,0.036751932236808615,nan
1740373970.7355702,0.016543725493768882,-0.015749344585966184,0.5428419737344374,0.027615535784287683,nan
1740373970.7394757,0.0036298887866456366,0.028102303310550632,0.5753005632103227,0.019014879014327888,nan
1740373970.7433813,-0.007945253910097845,0.07347155419351958,0.6069939083184154,0.011126801254143942,nan
1740373970.7472868,-0.01801230753884158,0.11995598679186904,0.6379670723051645,0.004120500498494273,nan
1740373970.7511923,-0.026418015363822572,0.1671399944029755,0.66826835852219,-0.001844460209129114,nan
1740373970.7550979,-0.033026992638012155,0.21459876161603783,0.6979480619919054,-0.00662005359720154,nan
1740373970.7590034,-0.03772329100055456,0.26190233014998476,0.7270572304015568,-0.010071575906229403,nan
1740373970.762909,-0.04041177691644037,0.30861971413139766,0.7556464481996744,-0.012079302346945466,nan
1740373970.7668145,-0.04101930920542635,0.35432302470738736,0.7837646570194228,-0.012539992355182036,nan
1740373970.77072,-0.039495702598884665,0.39859156385225775,0.8114580250801318,-0.011368228187655252,nan
1740373970.7746255,-0.035814466293810576,0.4410158475849279,0.8387688775284008,-0.00849757204064017,nan
1740373970.778531,-0.029973308623276605,0.48120151956247553,0.8657346988815279,-0.0038815286671607953,nan
1740373970.7824407,-0.02199440121192125,0.5187731171458295,0.8923872178375404,0.002505697599410453,nan
1740373970.7863462,-0.011924398312059962,0.5533776535349829,0.9187515837275683,0.0106686604557631,nan
1740373970.7902517,0.00016579060163473907,0.5846879814278265,0.9448456428181348,0.020590350762274848,nan
1740373970.7941573,0.014181474486173,0.6124059058499705,0.9706793215342977,0.03223210185990308,nan
1740373970.7980628,0.03000489771658987,0.6362650163107115,0.9962541224810854,0.04553372344509547,nan
1740373970.8019683,0.0474961950791031,0.6560332112374551,1.0215627379024346,0.06041386405897854,nan
1740373970.8058739,0.06649457707477856,0.6715148906993569,1.0465887839460817,0.07677059991843938,nan
1740373970.8097794,0.08681973552814835,0.6825527967203061,1.0713066578123263,0.09448224550117237,nan
1740373970.813685,0.10827345727041549,0.6890294839687158,1.095681518566617,0.11340837901775205,nan
1740373970.8175902,0.13064143154857566,0.6908684072623745,1.1196693911033002,0.13339107368409048,nan
1740373970.8214958,0.15369523482133443,0.6880346161044417,1.1432173914727384,0.15425632356982039,nan
1740373970.8254013,0.1771944747599746,0.6805350503341999,1.1662640705386613,0.17581565076391606,nan
1740373970.8293107,0.20088907359625716,0.6684184348949993,1.1887398717285504,0.1978678786889389,nan
1740373970.8332162,0.22452166946705293,0.6517747756532105,1.2105676974883848,0.22020105462931502,nan
1740373970.8371215,0.24783011311233427,0.6307344621070977,1.2316635779647378,0.24259450293523474,nan
1740373970.841027,0.27055003620293105,0.6054669866647636,1.251937434421892,0.26482098893875833,nan
1740373970.8449326,0.2924174667188138,0.5761792939078518,1.2712939289684941,0.28664897238756254,nan
1740373970.848838,0.31317146617702074,0.5431137768557586,1.2896333913254971,0.307844928177463,nan
1740373970.8527436,0.3325567631280886,0.5065459406682509,1.3068528126221677,0.32817571135851664,nan
1740373970.8566492,0.35032635720587074,0.4667817574391202,1.322846895566014,0.3474109428101552,nan
1740373970.8605547,0.36624406813060145,0.4241547387082241,1.3375091498010325,0.3653253916350221,nan
1740373970.8644602,0.3800870044292049,0.3790227550250034,1.3507330208508663,0.3817013302135616,nan
1740373970.8683658,0.3916479272479455,0.3317646343067975,1.3624130407424362,0.3963308379939456,nan
1740373970.8722713,0.40073748548594407,0.2827765728267738,1.3724459882234679,0.40901803046429247,nan
1740373970.87618,0.4071862995669525,0.23246839441863185,1.380732046424775,0.41958119036379565,nan
1740373970.8800855,0.41084687248170443,0.18125969488170182,1.3871759458751751,0.42785477903114677,nan
1740373970.883991,0.41159530826268825,0.1295759095973414,1.3916880809518501,0.43369130685522556,nan
1740373970.8878965,0.4093328197836617,0.07784434301594836,1.3941855881396172,0.4369630430748502,nan
1740373970.891802,0.4039870096919245,0.02649019893769758,1.3945933748751507,0.4375635466595354,nan
1740373970.8957076,0.3955129103648576,-0.024067349612723683,1.392845088262357,0.4354090016779351,nan
1740373970.8996131,0.3838937710141698,-0.07341901262486802,1.3888840135570952,0.4304393424091491,nan
1740373970.9035187,0.36914158242098055,-0.12116912004906188,1.3826638930269652,0.42261915545670126,nan
1740373970.9074242,0.35129733225014526,-0.1669392073016532,1.3741496565875446,0.4119383482666415,nan
1740373970.9113297,0.3304309864399375,-0.21037141479315427,1.3633180564921603,0.39841257570926497,nan
1740373970.9152353,0.3066411947690434,-0.25113166889669924,1.3501581992993499,0.3820834187363624,nan
1740373970.9191408,0.2800547213422235,-0.2889126140475635,1.334671969351061,0.3630183115501065,nan
1740373970.923053,0.25082560338334425,-0.3234362682345623,1.3168743390555866,0.34131021619161384,nan
1740373970.9269586,0.21913404435467482,-0.354456376985053,1.2967935623718567,0.3170770459529384,nan
1740373970.930864,0.18518505000861807,-0.3817604440280698,1.274471249025342,0.29046084151092416,nan
1740373970.9347696,0.14920681849748965,-0.40517142011375856,1.2499623181396518,0.261626706150419,nan
1740373970.9386752,0.1114488980938183,-0.4245490349384484,1.2233348311309102,0.23076150886316907,nan
1740373970.9425807,0.07218012838416588,-0.4397907607384922,1.1946697048731678,0.19807236645324353,nan
1740373970.9464862,0.03168638297073952,-0.4508323998359269,1.1640603072915416,0.16378491802638576,nan
1740373970.9503918,-0.00973186627450145,-0.4576482922078092,1.1316119386647456,0.12814140736676705,nan
1740373970.9542973,-0.051762141529021775,-0.4602511429705924,1.097441203009691,0.09139859068851444,nan
1740373970.9582028,-0.0940826844081169,-0.4586914734827561,1.0616752749678757,0.0538254890708857,nan
1740373970.9621084,-0.1363652895047052,-0.4530567035350688,1.02445106860667,0.015701006526353447,nan
1740373970.966014,-0.17827821997997317,-0.4434698757803027,0.9859143154793475,-0.022688563907007447,nan
1740373970.9699256,-0.21948917816500488,-0.43008803711630383,0.9462185601473084,-0.061052122428636384,nan
1740373970.9738312,-0.259668303448039,-0.41310029514230484,0.9055240821487408,-0.09909640847167293,nan
1740373970.9777367,-0.2984911692981006,-0.3927255710241491,0.8639967540929266,-0.13652868504499047,nan
1740373970.9816422,-0.33564175111894934,-0.36921007309767445,0.8218068461624798,-0.17305943551527234,nan
1740373970.9855478,-0.3708153367404098,-0.34282451828084964,0.7791277878116779,-0.20840504665718546,nan
1740373970.9894533,-0.4037213517374933,-0.31386113082719674,0.736134897853412,-0.24229045178988046,nan
1740373970.9933589,-0.43408607241903446,-0.28263045011091176,0.6930040944267966,-0.27445170806588404,nan
1740373970.9972644,-0.4616552002419149,-0.2494579809665724,0.6499105965296622,-0.3046384824827324,nan
1740373971.00117,-0.4861962725769597,-0.21468072159524038,0.607027628883689,-0.3326164219447178,nan
1740373971.0050755,-0.5075008861683484,-0.17864360517929323,0.5645251418743582,-0.35816938370571555,nan
1740373971.008981,-0.5253867112775418,-0.14169589210961125,0.5225685581738246,-0.38110150376545177,nan
1740373971.0128865,-0.5396992763707096,-0.10418755011317853,0.4813175574138261,-0.40123908225986077,nan
1740373971.0167978,-0.5503135052787117,-0.06646565957335827,0.4409249099303753,-0.41843226656795424,nan
1740373971.0207033,-0.557134991011912,-0.028870880959263056,0.40153537015568835,-0.4325565147373651,nan
1740373971.0246086,-0.5601009928280566,0.008265979471157927,0.3632846396900877,-0.44351382389114025,nan
1740373971.0285141,-0.5591811457076615,0.0446272706495214,0.32629840945247446,-0.45123371049982147,nan
1740373971.0324197,-0.5543778740641201,0.07991163078831365,0.29069148958870916,-0.4556739317645601,nan
1740373971.0363252,-0.5457265042802449,0.11383692283406673,0.25656703501944544,-0.45682093983644156,nan
1740373971.0402308,-0.5332950734929431,0.14614294167136774,0.224015873640144,-0.4546900631704487,nan
1740373971.0441363,-0.5171838349167575,0.1765938659073841,0.19311594325424672,-0.44932541195498765,nan
1740373971.0480418,-0.4975244628777238,0.20498042978304384,0.1639318423343475,-0.44079950724394945,nan
1740373971.0519474,-0.47447896359390285,0.23112179372129218,0.13651449867473753,-0.42921263612171595,nan
1740373971.055853,-0.4482383005607268,0.25486709520489087,0.11090095893126914,-0.41469193792599834,nan
1740373971.0597584,-0.41902074615072593,0.2760966650434502,0.08711430095086262,-0.3973902292124736,nan
1740373971.0636692,-0.387069973691603,0.29472289760732995,0.06516366968292019,-0.37748457774243355,nan
1740373971.0675747,-0.3526529068183076,0.3106907672389394,0.04504443634848368,-0.35517463828456997,nan
1740373971.0714803,-0.31605734527888985,0.32397798676263484,0.02673847943013615,-0.33068076541932645,nan
1740373971.0753858,-0.2775893885869689,0.3345948077648499,0.01021458494629712,-0.3042419207950045,nan
1740373971.0792913,-0.23757068093381453,0.3425834660681239,-0.004571037602499892,-0.27611339438615523,nan
1740373971.0831969,-0.19633550257993773,0.3480172795377105,-0.017674128271111676,-0.24656436122527361,nan
1740373971.0871024,-0.15422773452158714,0.3509994089996134,-0.02916164434817044,-0.21587529679876313,nan
1740373971.091008,-0.11159772455538221,0.35166129657664313,-0.03911092928315365,-0.18433527579960782,nan
1740373971.0949135,-0.06879908393068634,0.35016079912839104,-0.047608790361639154,-0.15223918019640859,nan
1740373971.0988188,-0.026185444572784322,0.3466800376769887,-0.05475049345316274,-0.11988484359773889,nan
1740373971.1027243,0.015892792628454357,0.3414229866802518,-0.06063868390728978,-0.08757015965086769,nan
1740373971.1066298,0.05709168774616401,0.3346128297465282,-0.06538224334433693,-0.055590182706058075,nan
1740373971.1105402,0.09707693931007202,0.3264891108429614,-0.06909509267208003,-0.02423424919553484,nan
1740373971.1144457,0.1355269790761975,0.3173047122053737,-0.07189495215373555,0.006216851883654409,nan
1740373971.1183512,0.17213595443347565,0.3073226919910477,-0.07390206975141846,0.0354936313322557,nan
1740373971.1222568,0.2066165697443506,0.2968130162060684,-0.07523792926987026,0.06334054752174706,nan
1740373971.1261623,0.238702759130636,0.28604922057075655,-0.07602395002504332,0.08951852303026432,nan
1740373971.1300678,0.26815216469794434,0.2753050387478806,-0.07638018985967396,0.11380730474713822,nan
1740373971.1339734,0.29474839592898283,0.26485103374031693,-0.07642406332251017,0.1360076434600002,nan
1740373971.137879,0.31830304795264136,0.2549512692630916,-0.07626908671971583,0.15594327058961374,nan
1740373971.1417844,0.338657458594406,0.24586005750847278,-0.07602366153717648,0.17346265161705474,nan
1740373971.14569,0.3556841865143641,0.23781881895537685,-0.07578990742299925,0.1884404978382693,nan
1740373971.1495955,0.3692881953200436,0.23105308873269323,-0.07566255551326674,0.2007790203633654,nan
1740373971.153501,0.3794077312788191,0.22576970254137765,-0.07572791238462265,0.21040891273084736,nan
1740373971.1574109,0.3860148851233451,0.22215419328681965,-0.07606290432904309,0.21729005110746424,nan
1740373971.1613164,0.38911583141675293,0.22036842738938686,-0.07673421097420188,0.22141190376788947,nan
1740373971.165222,0.38875074199435605,0.22054850724883074,-0.07779749652310326,0.22279364436914834,nan
1740373971.1691275,0.3849933730967072,0.22280296356230644,-0.07929674606549925,0.2214839664255601,nan
1740373971.173033,0.37795032892576214,0.2272112581639051,-0.0812637135280606,0.2175605993232896,nan
1740373971.1769385,0.36776000746203186,0.23382261479638822,-0.08371748688794087,0.21112952916088262,nan
1740373971.180844,0.35459123744636833,0.24265519177616157,-0.08666417528310444,0.20232393063481385,nan
1740373971.1847496,0.33864161842596185,0.2536956069053614,-0.09009672162103244,0.19130281907843077,nan
1740373971.1886551,0.3201355786614622,0.26689882125702197,-0.09399484322379578,0.17824943458024675,nan
1740373971.1925607,0.29932216846266363,0.2821883846486469,-0.09832510196078388,0.16336937282546454,nan
1740373971.196466,0.2764726091370816,0.2994570417651341,-0.10304110421976319,0.14688847989582382,nan
1740373971.2003715,0.25187762017310267,0.31856769403354224,-0.10808382996137116,0.12905053070131875,nan
1740373971.2042806,0.22584454951329674,0.3393547085293936,-0.1133820890007923,0.11011471297834635,nan
1740373971.2081861,0.19869433378150267,0.36162556144669483,-0.11885310157223503,0.09035294084934993,nan
1740373971.2120917,0.1707583170892362,0.3851628000304615,-0.12440319916575877,0.07004702377765583,nan
1740373971.2159972,0.14237495854477253,0.40972630338941446,-0.12992864059067452,0.04948571834873164,nan
1740373971.2199028,0.11388645980629575,0.43505581931393816,-0.1353165372235227,0.02896169164843581,nan
1740373971.2238083,0.08563534494575556,0.4608737511553834,-0.14044588044948042,0.008768426075341026,nan
1740373971.2277138,0.057961025512143605,0.48688816600983936,-0.14518866341159928,-0.010802903794257484,nan
1740373971.2316194,0.031196383994355724,0.512795992922826,-0.14941108834963993,-0.029466551182887935,nan
1740373971.235525,0.005664408879933553,0.53828637761835,-0.15297485004598158,-0.04694528263810777,nan
1740373971.2394304,-0.018325085814778996,0.5630441583808012,-0.15573848520622943,-0.06297339793519598,nan
1740373971.243336,-0.04047862430392826,0.5867534262021478,-0.15755877699203621,-0.07729965360752378,nan
1740373971.2472415,-0.0605220847893853,0.6091011311673862,-0.15829220339809086,-0.08969006008374188,nan
1740373971.2511501,-0.07820353717599557,0.629780696301812,-0.1577964177282107,-0.09993052343745155,nan
1740373971.2550557,-0.09329587425028776,0.6484955997543443,-0.15593174908032845,-0.10782930407216765,nan
1740373971.2589612,-0.10559920965412598,0.6649628862475199,-0.15256271049953826,-0.11321926626133065,nan
1740373971.2628667,-0.11494301807575746,0.6789165691887127,-0.1475595023039929,-0.11595989432640619,nan
1740373971.2667723,-0.12118799541831604,0.6901108857061483,-0.14079949803156872,-0.11593905334942677,nan
1740373971.2706778,-0.12422761926918095,0.6983233681408457,-0.13216870049598478,-0.11307447466104484,nan
1740373971.2745833,-0.12398939275977912,0.7033576971811629,-0.12156315557921293,-0.10731494890016473,nan
1740373971.2784889,-0.1204357578492978,0.7050463038555235,-0.10889031162128772,-0.09864121218338513,nan
1740373971.2823944,-0.11356466716052438,0.7032526899826917,-0.09407031259710986,-0.08706651382649563,nan
1740373971.2863,-0.10340980671318031,0.6978734393955504,-0.07703721369004092,-0.07263685709941353,nan
1740373971.2902055,-0.09004046520997853,0.6888398952779939,-0.05774010838059915,-0.05543090764177204,nan
1740373971.294111,-0.0735610489023456,0.6761194822564928,-0.036144156761522134,-0.035559567389323594,nan
1740373971.298019,-0.05411024446483072,0.6597166554360976,-0.012231505463365037,-0.013165215130937307,nan
1740373971.3019245,-0.03185983570772445,0.6396734623307108,0.013997909677557473,0.011579381898938205,nan
1740373971.30583,-0.007013183324067808,0.6160697075723993,0.0425256862602747,0.038472477718367044,nan
1740373971.3097355,0.02019661983186802,0.5890227143554179,0.07331441044079101,0.0672850676911082,nan
1740373971.313641,0.049508902234009,0.558686680737035,0.10630725076943959,0.09776290497679502,nan
1740373971.3175466,0.08063785716583524,0.5252516331374408,0.1414276959931674,0.12962879626709606,nan
1740373971.3214521,0.11327525450033701,0.48894198361240343,0.17857944104374057,0.16258515684352656,nan
1740373971.3253577,0.14709339635433977,0.4500147016720648,0.21764642436973283,0.19631680226775736,nan
1740373971.3292632,0.1817482896754524,0.40875711554438415,0.25849301867996005,0.23049395148623295,nan
1740373971.3331687,0.21688300654074744,0.365484361789878,0.300964376056544,0.2647754138235306,nan
1740373971.3370743,0.2521312009285513,0.32053650602388334,0.34488692727501147,0.2988119302768709,nan
1740373971.3409798,0.2871207489889399,0.27427536115339984,0.3900690340446983,0.3322496377292177,nan
1740373971.3448915,0.3214774784028885,0.22708103294909465,0.43630179176330336,0.36473362318969976,nan
1740373971.348797,0.3548289512998741,0.17934822591293342,0.483359979272403,0.395911533964333,nan
1740373971.3527026,0.38680826441168115,0.13148234523412083,0.5310031510140825,0.42543720877111557,nan
1740373971.3566082,0.4170578296856901,0.08389543311958285,0.5789768659298729,0.452974294252519,nan
1740373971.3605137,0.4452330984705634,0.037001979912137904,0.6270140464194409,0.4781998111131844,nan
1740373971.3644192,0.4710061926242234,-0.008785347854702613,0.6748364596947976,0.5008076342260377,nan
1740373971.3683248,0.4940694064784325,-0.05306001899241719,0.7221563129330365,0.5205118515078739,nan
1740373971.3722303,0.5141385445229586,-0.09542594441551953,0.7686779527529691,0.5370499671639914,nan
1740373971.3761358,0.5309560609387901,-0.13550173429986975,0.8140996587245183,0.5501859160360196,nan
1740373971.3800414,0.5442939687046776,-0.1729248608149759,0.8581155198697585,0.559712857249616,nan
1740373971.383947,0.5539564879116343,-0.207355682053432,0.9004173824361057,0.5654557171381168,nan
1740373971.3878524,0.5597824051302625,-0.23848128368328367,0.940696856619759,0.5672734535002574,nan
1740373971.3917637,0.5616471181673526,-0.26601909619990144,0.9786473693951717,0.5650610156176054,nan
1740373971.3956692,0.559464343299766,-0.28972024744342284,1.013966250167388,0.5587509770904211,nan
1740373971.3995748,0.5531874650613708,-0.30937261226212115,1.0463568356114012,0.5483148214266089,nan
1740373971.4034803,0.5428105118565955,-0.3248035238229264,1.0755305797986094,0.5337638634123115,nan
1740373971.4073858,0.5283687440537098,-0.335882114075446,1.1012091555365826,0.5151497925771497,nan
1740373971.4112914,0.5099388447421803,-0.34252125423886465,1.1231265327658693,0.492564828512959,nan
1740373971.415197,0.487638706989589,-0.3446790698719152,1.1410310198670055,0.46614148138107486,nan
1740373971.4191024,0.4616268151718305,-0.34236000907131015,1.1546872538321538,0.4360519146174339,nan
1740373971.423008,0.43210122174143845,-0.33561544658674436,1.1638781254483137,0.4025069105833577,nan
1740373971.4269135,0.3992981246084337,-0.32454381110137914,1.1684066259215822,0.3657544436784763,nan
1740373971.430819,0.363490054100872,-0.30929022756362035,1.168097601742821,0.32607786919594267,nan
1740373971.4347246,0.3249836822132584,-0.2900456712248382,1.1627994050520005,0.28379373992363727,nan
1740373971.4386353,0.2841172705053394,-0.26704563489284894,1.1523854272986953,0.23924926614354577,nan
1740373971.442541,0.2412577765472243,-0.24056831580543378,1.1367555046164106,0.19281943822025743,nan
1740373971.4464464,0.19679764218602944,-0.21093233341427445,1.115837184024911,0.14490383436478882,nan
1740373971.4503517,0.15115129010211004,-0.17849399419932,1.089586840343362,0.09592313937894802,nan
1740373971.4542572,0.10475135809890923,-0.14364412435894988,1.057990634533261,0.04631540319689969,nan
1740373971.4581628,0.058044703300639586,-0.10680449579502968,1.0210653050888672,-0.003467929185187504,nan
1740373971.4620683,0.011488210889814365,-0.0684238751879176,0.9788587850489509,-0.05296618229116782,nan
1740373971.4659739,-0.03445555582246091,-0.028973730089937377,0.9314506382113817,-0.10171377293931513,nan
1740373971.4698794,-0.07932282535821336,0.011056370185824683,0.8789523091856252,-0.14924465298391792,nan
1740373971.473785,-0.12265316792652467,0.051163617581680414,0.8215071830113888,-0.195096832226412,nan
1740373971.4776905,-0.16399408387897874,0.09083704775681137,0.7592904511981333,-0.23881694047660892,nan
1740373971.481596,-0.20290558869180994,0.12956279477172436,0.692508782193435,-0.2799647868875945,nan
1740373971.4855063,-0.2389647519921458,0.16682946843863197,0.621399795461537,-0.31811787420667176,nan
1740373971.4894118,-0.2717701481206627,0.2021336029008952,0.5462313395401546,-0.3528758254868244,nan
1740373971.4933174,-0.30094617608348206,0.23498512360242543,0.46730057563684363,-0.3838646810926821,nan
1740373971.497223,-0.3261472074916253,0.26491277890164555,0.3849328695191251,-0.4107410245124585,nan
1740373971.5011284,-0.34706152221272923,0.29146948218799734,0.2994804956382491,-0.43319589654981916,nan
1740373971.505034,-0.3634149929594901,0.31423751048091714,0.2113211585981458,-0.4509584589106764,nan
1740373971.5089395,-0.37497448190137656,0.3328335061358533,0.12085633823199084,-0.4637993700094024,nan
1740373971.512845,-0.3815509145963752,0.3469132294481989,0.028509465672269654,-0.4715338379835993,nan
1740373971.5167506,-0.38300199908022264,0.35617601162816565,-0.06527606111025233,-0.4740243184095131,nan
1740373971.520656,-0.379234560801272,0.36036885980665023,-0.1600390127739956,-0.4711828270315561,nan
1740373971.5245616,-0.3702064672262608,0.3592901684082461,-0.25530260455298515,-0.46297284093623414,nan
1740373971.5284672,-0.35592811933960267,0.35279299437210987,-0.35057690120425195,-0.44941076498726135,nan
1740373971.5323768,-0.3364634908877569,0.3407878572891804,-0.44536133858574356,-0.43056694396640427,nan
1740373971.5362823,-0.31193070004982504,0.32324502952552825,-0.539147348665173,-0.40656620470280563,nan
1740373971.5401878,-0.28250210221285804,0.3001962857825644,-0.6314210739995582,-0.37758791648940543,nan
1740373971.5440934,-0.24840389666098173,0.2717360862677153,-0.7216661570377381,-0.3438655622438133,nan
1740373971.547999,-0.20991524421533722,0.2380221726725697,-0.8093665889882583,-0.30568581713646553,nan
1740373971.5519044,-0.1673668971501005,0.1992755614350339,-0.8940096024666981,-0.26338713574367273,nan
1740373971.55581,-0.12113934702077458,0.1557799242502861,-0.97508859169341,-0.2173578531490396,nan
1740373971.5597155,-0.0716605003363845,0.10788035144262352,-1.0521060436579066,-0.16803380977485682,nan
1740373971.563621,-0.019402896249155893,0.055981499565114674,-1.124576463402582,-0.11589551403658503,nan
1740373971.5675266,0.03511951541427822,0.0005451304031500846,-1.1920292764083256,-0.06146486113964393,nan
1740373971.571432,0.09135501343422815,-0.05791294563239806,-1.2540116909898424,-0.005301430440180639,nan
1740373971.5753376,0.14871813558895655,-0.11882650298115668,-1.3100915036303546,0.05200161226702948,nan
1740373971.5792468,0.20659407029532398,-0.1815830868900494,-1.3598598303048808,0.10982197742601804,nan
1740373971.5831523,0.2643433762150671,-0.24552872197782394,-1.4029337470586893,0.16751304574221304,nan
1740373971.5870578,0.3213069933833839,-0.3099731082645861,-1.438958823422819,0.22440895668170757,nan
1740373971.5909634,0.37681150655101636,-0.3741952645202134,-1.467611532661046,0.27982995162545704,nan
1740373971.594869,0.4301746188861239,-0.4374495740975975,-1.4886015233512087,0.3330879292263495,nan
1740373971.5987744,0.4807107919820943,-0.4989721840907185,-1.5016737374067792,0.38349216823526733,nan
1740373971.60268,0.5277370062829619,-0.5579877047372099,-1.506610360339732,0.43035517115120997,nan
1740373971.6065855,0.5705785945875127,-0.6137161525105371,-1.5032325903504415,0.4729985805295963,nan
1740373971.610491,0.6085751002408997,-0.6653800773544715,-1.4914022137014171,0.5107591186678822,nan
1740373971.6143966,0.6410861109800725,-0.7122118120344477,-1.471022974785234,0.5429945006909462,nan
1740373971.618302,0.6674970191741337,-0.7534607796442103,-1.442041730329143,0.5690892707891293,nan
1740373971.6222076,0.6872246593969177,-0.7884007939348309,-1.404449378284528,0.5884605115243278,nan
1740373971.6261163,0.6997227748870416,-0.8163372863444365,-1.3582815531237267,0.6005633767152971,nan
1740373971.6300218,0.7044872654870638,-0.836614393413474,-1.3036190805040035,0.6048963994398822,nan
1740373971.6339273,0.7010611711011545,-0.8486218386791559,-1.2405881855525862,0.6010065281426469,nan
1740373971.6378329,0.6890393465592977,-0.8518015441555761,-1.169360450371338,0.5884938457013256,nan
1740373971.6417384,0.6680727860112532,-0.8456539081190287,-1.0901525177478266,0.5670159285707091,nan
1740373971.645644,0.6378725575777989,-0.829743688121763,-1.003225539484161,0.5362918057705907,nan
1740373971.6495495,0.5982133119392296,-0.8037054309369867,-0.9088843692084628,0.49610548049437736,nan
1740373971.653455,0.5489363318178301,-0.7672483944729441,-0.8074765010083303,0.44630898046276296,nan
1740373971.6573606,0.4899520928851226,-0.72016091055885,-0.6993907567131059,0.38682490680524223,nan
1740373971.661266,0.421242310466709,-0.6623141418697677,-0.5850557261438106,0.31764845519125023,nan
1740373971.6651716,0.3428614504954551,-0.5936651910857188,-0.4649379661377901,0.23884888711965913,nan
1740373971.6690772,0.2549376874436454,-0.5142595256326161,-0.33953996563075417,0.15057043367543452,nan
1740373971.6729853,0.15767329641057218,-0.4242326869849148,-0.20939788553324076,0.05303261863848297,nan
1740373971.6768906,0.051344471116523446,-0.3238112594744177,-0.07507908356283506,-0.053470007456355474,nan
1740373971.6807961,-0.06369943578150417,-0.2133130797952339,0.06282056442110466,-0.16856872589760136,nan
1740373971.6847017,-0.18703724892209814,-0.09314667486747889,0.2036795336956614,-0.2918220997346134,nan
1740373971.6886072,-0.3181778771641225,0.03619007763466918,0.3468536963994152,-0.42271800891128936,nan
1740373971.6925128,-0.45656278065255346,0.17411206502987941,0.4916795283214382,-0.5606762595755808,nan
1740373971.6964183,-0.6015689828482474,0.31994982378354486,0.6374774602275836,-0.7050517517550338,nan
1740373971.7003238,-0.7525126078276908,0.47295317740186626,0.7835553561347096,-0.8551381849085322,nan
1740373971.7042294,-0.9086529187897576,0.6322956066701054,0.929212099969587,-1.0101722763339989,nan
1740373971.708135,-1.0691968295226923,0.7970793242399672,1.0737412711713672,-1.1693384630702846,nan
1740373971.7120404,-1.2333038566216268,0.9663410191623827,1.2164348890217238,-1.331774053816437,nan
1740373971.715946,-1.4000914765390735,1.1390582308021655,1.3565872048213974,-1.4965747935387756,nan
1740373971.719858,-1.568640848129687,1.3141563057168935,1.4934985204818538,-1.662800799879322,nan
1740373971.7237635,-1.7380028582456521,1.4905158855882445,1.6264790116714432,-1.8294828272492276,nan
1740373971.727669,-1.9072044451770136,1.6669808692113626,1.7548525333514438,-1.9956288116162895,nan
1740373971.7315745,-2.075255152335838,1.8423667869245686,1.8779603853628062,-2.1602306465016854,nan
1740373971.73548,-2.241153862575039,2.0154695217421668,1.9951650156824692,-2.322271138609945,nan
1740373971.7393856,-2.403895661929249,2.1850743078769934,2.105853639061478,-2.4807310898463792,nan
1740373971.7432911,-2.562478780380237,2.349964934342058,2.2094417489874063,-2.634596451242893,nan
1740373971.7471967,-2.7159115564932512,2.5089330789322917,2.305376501281852,-2.7828654935275385,nan
1740373971.751102,-2.8632193724500916,2.6607876961330827,2.393139948149961,-2.924555938742835,nan
1740373971.7550075,-3.0034515061223406,2.804364381401286,2.4722521021424355,-3.0587119974463146,nan
1740373971.758913,-3.135687847383442,2.9385346338303733,2.542273810269406,-3.1844112566135427,nan
1740373971.7628186,-3.2590454268463507,3.062214939452269,2.6028094194175426,-3.3007713644046963,nan
1740373971.76673,-3.372684706626146,3.1743755983457174,2.6535092152631554,-3.406956459442408,nan
1740373971.7706356,-3.475815584552372,3.2740492203107228,2.6940716180406006,-3.502183294168879,nan
1740373971.7745411,-3.5677030654783812,3.360338816120311,2.724245119811611,-3.5857270041884233,nan
1740373971.7784467,-3.647672555936022,3.4324254142582875,2.7438299492811575,-3.656926478238265,nan
1740373971.7823522,-3.715114741341309,3.4895751365729533,2.752679451712089,-3.715189286542598,nan
1740373971.7862577,-3.769490008245503,3.531145670393878,2.750701173096128,-3.7599961287666592,nan
1740373971.7901633,-3.810332377718177,3.5565920793390204,2.7378576394343175,-3.7909047665698137,nan
1740373971.7940686,-3.8372529198142344,3.56547190024408,2.7141668237561003,-3.8075534098274053,nan
1740373971.797974,-3.849942623182532,3.5574494793321296,2.679702295352918,-3.809663529916341,nan
1740373971.8018796,-3.8481746981853377,3.532299506861607,2.6345930476085533,-3.797042078002408,nan
1740373971.8057852,-3.831806296378696,3.4899097159929218,2.579023002763133,-3.769583090989931,nan
1740373971.8096907,-3.80077963381647,3.430282718443364,2.513230193938701,-3.727268672656828,nan
1740373971.8136017,-3.7551225103462,3.3535369565978868,2.4375056267692314,-3.670169342459231,nan
1740373971.8175073,-3.6949482218239242,3.259906759049218,2.352191825003948,-3.598443749508132,nan
1740373971.8214128,-3.620454866947542,3.149741493991315,2.257681066476885,-3.512337754253368,nan
1740373971.825318,-3.531924055154574,3.0235038224210253,2.1544133178441607,-3.4121828854158296,nan
1740373971.8292236,-3.42971902671062,2.88176706064862,2.0428738784702345,-3.298394184644654,nan
1740373971.8331292,-3.3142822006906725,2.725211669112661,1.923590745781646,-3.1714674562012712,nan
1740373971.8370347,-3.186132170988809,2.554620891873106,1.797131716288104,-3.031975943646127,nan
1740373971.8409402,-3.0458601747462923,2.3708755783537687,1.6641012382827793,-2.8805664599877017,nan
1740373971.8448458,-2.8941260616287274,2.174948225858138,1.5251370339632782,-2.717955002009951,nan
1740373971.8487513,-2.7316537961768956,1.967896288029522,1.3809065103490956,-2.544921883488221,nan
1740373971.8526568,-2.559226528972493,1.7508548007090527,1.232102979898141,-2.362306425702211,nan
1740373971.8565624,-2.3776812755709607,1.5250283825072473,1.079441713132308,-2.171001247027421,nan
1740373971.8604727,-2.187903245033581,1.291682672794629,0.9236558468587976,-1.9719461964062917,nan
1740373971.8643782,-1.9908198624172964,1.052135274686064,0.7654921727096385,-1.7661219781427238,nan
1740373971.8682837,-1.7873945317339988,0.8077462748985464,0.6057068317067413,-1.5545435177077678,nan
1740373971.8721893,-1.578620187655053,0.5599084160641391,0.4450609413852532,-1.338253120072664,nan
1740373971.8760948,-1.3655126855988684,0.3100370001453985,0.2843161826660445,-1.118313473484035,nan
1740373971.8800004,-1.14910408079006,0.05955960400167307,0.12423037415210768,-0.8958005525549726,nan
1740373971.883906,-0.930435847412488,-0.19009431013084688,-0.03444693817209065,-0.6717964750584812,nan
1740373971.8878114,-0.7105520890930869,-0.4375038054708016,-0.1909788477392648,-0.44738236687401006,nan
1740373971.891717,-0.490492791650289,-0.6812668187616687,-0.3446453826643447,-0.22363128915481525,nan
1740373971.8956225,-0.2712871683251797,-0.9200103619243938,-0.49474770170106575,-0.0016012809590630372,nan
1740373971.899528,-0.05394714659369287,-1.1524004947685451,-0.6406121635621717,0.21767143067013614,nan
1740373971.9034336,0.16053895585383035,-1.3771519880746457,-0.7815942429114799,0.43317900286848177,nan
1740373971.9073474,0.37121252026825546,-1.5930375988870251,-0.9170822671595833,0.6439482831324964,nan
1740373971.911253,0.5771504376824659,-1.7988968830520655,-1.0465009492023098,0.8490468037602156,nan
1740373971.9151585,0.7774706005720131,-1.993644473873979,-1.1693146924275588,1.0475884216182272,nan
1740373971.919064,0.9713370373680115,-2.1762777602063847,-1.285030645675496,1.238738563465281,nan
1740373971.9229696,1.1579646550389182,-2.345883902314913,-1.393201487362005,1.421719040531972,nan
1740373971.926875,1.3366235583996025,-2.501646129390504,-1.4934279196568518,1.595812399800729,nan
1740373971.9307806,1.5066429184744923,-2.6428492686171423,-1.585360855436323,1.7603657834171194,nan
1740373971.9346862,1.6674143661038983,-2.7688844621493516,-1.6687032826938264,1.91479427185704,nan
1740373971.9385917,1.8183948910046819,-2.8792530351778107,-1.7432117931788573,2.0585836908377098,nan
1740373971.9424973,1.9591092306431106,-2.9735694853968506,-1.8086977642313231,2.1912928664553397,nan
1740373971.9464028,2.0891517375128337,-3.0515635715731873,-1.8650281850701735,2.312555317619857,nan
1740373971.9503083,2.2081877176978817,-3.113081486486998,-1.9121261211673022,2.422080379497368,nan
1740373971.9542174,2.3159542379028037,-3.1580861072082733,-1.9499708127737794,2.5196537563242645,nan
1740373971.958123,2.412260402412703,-3.186656323416581,-1.9785974061488178,2.605137506583259,nan
1740373971.9620285,2.4969871056691235,-3.1989854522033747,-1.9980963185553184,2.678469468091838,nan
1740373971.965934,2.5700862702780025,-3.1953787554456894,-2.0086122406116034,2.7396621350092247,nan
1740373971.9698396,2.631579584269058,-3.1762500833418295,-2.010342782109009,2.788801003081605,nan
1740373971.973745,2.681556755269133,-3.1421176749884787,-2.003536769901235,2.826042403581269,nan
1740373971.9776506,2.7201733029040835,-3.0935991538910246,-1.988492208925403,2.8516108503194575,nan
1740373971.9815562,2.7476479141753756,-3.031405762974386,-1.9655539198086531,2.8657959277931124,nan
1740373971.9854617,2.764259389741716,-2.9563358899420145,-1.9351108688297487,2.868948751932754,nan
1740373971.9893672,2.7703432119479894,-2.869267939662239,-1.89759320822519,2.861478038025545,nan
1740373971.9932728,2.7662877680614923,-2.771152615593169,-1.8534690469365496,2.8438458131698128,nan
1740373971.9971783,2.7525302644795637,-2.663004677044388,-1.8032409738739543,2.816562813054035,nan
1740373972.001087,2.7295523696469277,-2.545894243274656,-1.7474423576041196,2.7801836049263713,nan
1740373972.0049925,2.6978756250518767,-2.4209377190042116,-1.6866334480453966,2.735301480315789,nan
1740373972.008898,2.6580566649477775,-2.2892884188477196,-1.6213973072533567,2.682543162371378,nan
1740373972.0128036,2.610682286363148,-2.152126970425391,-1.5523355976959532,2.622563373595101,nan
1740373972.016709,2.5563644115160473,-2.0106515774665903,-1.4800642575358967,2.5560393102506054,nan
1740373972.0206146,2.4957349849361234,-1.8660682250706546,-1.4052090933499282,2.4836650698366785,nan
1740373972.0245202,2.429440847423124,-1.7195809094273542,-1.328401321411397,2.4061460777210906,nan
1740373972.0284257,2.358138628439873,-1.5723819737252414,-1.2502730891373468,2.3241935583458684,nan
1740373972.0323312,2.2824896976594804,-1.4256426306965129,-1.171453008548609,2.238519095348071,nan
1740373972.0362368,2.2031552151729863,-1.2805037502751861,-1.0925617336077844,2.149829323504477,nan
1740373972.0401423,2.1207913183293168,-1.138066988200215,-1.0142076130832867,2.0588207936204195,nan
1740373972.0440478,2.0360444813420133,-0.9993863281019063,-0.9369824501378493,1.9661750493618888,nan
1740373972.04796,1.9495470816764957,-0.8654601056991743,-0.8614573991584855,1.8725539525981267,nan
1740373972.0518656,1.861913204849967,-0.737223579243034,-0.7881790294352088,1.7785952911040463,nan
1740373972.055771,1.773734716657881,-0.6155421053094695,-0.7176655841629904,1.684908699495026,nan
1740373972.0596766,1.6855776290122113,-0.5012049735183428,-0.6504034618923149,1.5920719210602432,nan
1740373972.0635822,1.597978782565586,-0.39491994778450684,-0.5868439459967536,1.5006274347555433,nan
1740373972.0674877,1.5114428661305386,-0.29730855534681927,-0.5274002059715484,1.4110794680455068,nan
1740373972.0713933,1.4264397896150727,-0.2089021581276356,-0.4724445924369684,1.323891412580494,nan
1740373972.0752988,1.3434024238151725,-0.1301388340097651,-0.42230624560762053,1.239483655892528,nan
1740373972.0792043,1.2627247169632965,-0.06136108844222719,-0.37726903471857726,1.1582318384290646,nan
1740373972.0831099,1.1847601944607953,-0.002814409464574692,-0.33756984348739727,1.0804655413512971,nan
1740373972.0870154,1.1098208447531002,0.045353328162742075,-0.3033972141549913,1.0064674066388999,nan
1740373972.090921,1.0381763908704327,0.08309161145167794,-0.2748903600063821,0.9364726872008412,nan
1740373972.094833,0.9700539437841955,0.11044619939970406,-0.2521385535439805,0.8706692209261985,nan
1740373972.0987384,0.9056380304494321,0.12755721126947792,-0.23518089469131745,0.809197818952846,nan
1740373972.102644,0.845070986245214,0.1346564163527735,-0.22400646056503754,0.7521530549172303,nan
1740373972.1065495,0.7884536985141337,0.13206375546572796,-0.21855483548877291,0.6995844386052338,nan
1740373972.110455,0.7358466850645639,0.12018313095050036,-0.2187170170559622,0.6514979542807822,nan
1740373972.1143606,0.6872714888580426,0.09949750812849441,-0.22433669120172986,0.6078579410513621,nan
1740373972.1182659,0.6427123676803355,0.07056337690898813,-0.23521186643836972,0.5685892899619011,nan
1740373972.1221714,0.6021182554071847,0.034004627554828894,-0.2510968546667138,0.533579930111793,nan
1740373972.126077,0.5654049695409987,-0.009494100601292892,-0.2717045833179565,0.5026835739827651,nan
1740373972.1299825,0.5324576380266695,-0.05919453445114296,-0.29670922102838204,0.4757226903635538,nan
1740373972.133888,0.5031333169646298,-0.11431227971355122,-0.3257490966230626,0.45249167177366295,nan
1740373972.1377935,0.4772637697356991,-0.17402466109159978,-0.358429888903441,0.43276016213258006,nan
1740373972.1417048,0.4546583772410996,-0.2374788178156456,-0.39432806261608827,0.4162765095991675,nan
1740373972.1456103,0.43510714844515785,-0.3037999806435304,-0.4329945240431793,0.40277130902198877,nan
1740373972.1495159,0.41838380018797333,-0.3720998552971177,-0.47395846791523494,0.39196099829523345,nan
1740373972.1534214,0.4042488753080975,-0.4414850368965586,-0.5167313858180208,0.38355147310375187,nan
1740373972.157327,0.39245286847585636,-0.5110653802107465,-0.560811204961097,0.3772416850584872,nan
1740373972.1612325,0.38273932977845304,-0.5799622514689382,-0.6056865251066649,0.3727271890612462,nan
1740373972.165138,0.37484791700802167,-0.6473165890626684,-0.6508409206336105,0.36970360688341597,nan
1740373972.1690435,0.36851736877059604,-0.7122967026916611,-0.6957572741406193,0.36786997538216165,nan
1740373972.172949,0.3634883719424345,-0.7741057433490472,-0.7399221076796407,0.36693194949264507,nan
1740373972.1768546,0.3595062986332012,-0.8319887799713335,-0.7828298776605861,0.36660483210615435,nan
1740373972.1807601,0.3563237896541173,-0.8852394225633444,-0.8239871996815376,0.36661640514985316,nan
1740373972.1846657,0.3537031635126403,-0.9332059361090189,-0.8629169700156638,0.36670953860033545,nan
1740373972.1885765,0.3514186321412824,-0.9752967945523098,-0.8991623512238477,0.36664455676467145,nan
1740373972.192482,0.3492583068934439,-1.0109856295312307,-0.9322905903563993,0.36620134392209197,nan
1740373972.1963875,0.34702598077905333,-1.039815534321248,-0.9618966394513426,0.36518117430863023,nan
1740373972.200293,0.34454267544220174,-1.06140268953775,-0.987606549522192,0.36340825441669267,nan
1740373972.2041986,0.341647943976033,-1.0754392835043194,-1.0090806109442556,0.3607309686418227,nan
1740373972.2081041,0.3382009233008547,-1.0816957067551913,-1.0260162150828254,0.357022822409607,nan
1740373972.2120097,0.33408113247376153,-1.0800220068459825,-1.038150414145016,0.35218308002656035,nan
1740373972.2159152,0.329189015926092,-1.0703485964350559,-1.0452621585634205,0.34613709758973976,nan
1740373972.2198207,0.3234462332135625,-1.0526862144067286,-1.0471741937168115,0.33883635433133974,nan
1740373972.2237263,0.31679569938816005,-1.0271251465750155,-1.0437546004416836,0.3302581887377453,nan
1740373972.2276318,0.3092013825372671,-0.9938337191715204,-1.0349179665684667,0.3204052486398513,nan
1740373972.2315373,0.30064786736144944,-0.95305608482346,-1.0206261796061458,0.30930466719635963,nan
1740373972.2354476,0.2911396958567234,-0.9051093270093286,-1.0008888336764847,0.29700697925949443,nan
1740373972.2393532,0.2807004982103622,-0.850379914984585,-0.9757632468409477,0.28358479499995337,nan
1740373972.2432587,0.26937192889351474,-0.7893195468446911,-0.9453540880457207,0.26913124985385833,nan
1740373972.2471642,0.2572124246231495,-0.7224404236880749,-0.9098126160089239,0.2537582518200147,nan
1740373972.2510698,0.24429580235610512,-0.650310002711045,-0.8693355354644652,0.23759454886432996,nan
1740373972.2549753,0.23070971675758187,-0.5735452814681736,-0.8241634792345409,0.220783640665571,nan
1740373972.2588806,0.2165539976455622,-0.4928066694278675,-0.7745791276031564,0.20348156015124558,nan
1740373972.2627861,0.20193888874420576,-0.4087915063109154,-0.7209049793820126,0.1858545512153049,nan
1740373972.2666917,0.18698320967818852,-0.3222272894922127,-0.6635007918743183,0.16807666967444002,nan
1740373972.2705972,0.17181246350372412,-0.2338646749503163,-0.6027607096285471,0.150327334903587,nan
1740373972.2745028,0.15655691220038126,-0.14447031784924227,-0.5391101044111526,0.1327888596932301,nan
1740373972.2784083,0.14134964244289175,-0.05481961982083866,-0.47300215119387906,0.11564398569333978,nan
1740373972.282318,0.1263246436384164,0.03431054962123842,-0.4049141671280659,0.09907345135619527,nan
1740373972.2862236,0.11161491965877393,0.1221490903630956,-0.3353437424472251,0.08325361857037016,nan
1740373972.2901292,0.09735065492781207,0.20793780136790432,-0.26480469398356227,0.06835418320095303,nan
1740373972.2940347,0.08365745455215343,0.29093833792527796,-0.19382287348942118,0.05453599352905493,nan
1740373972.2979403,0.07065467702181007,0.37043893371119735,-0.12293186420776471,0.04194899913168996,nan
1740373972.3018458,0.05845387666998588,0.4457608275225857,-0.0526686001260099,0.0307303510780624,nan
1740373972.3057513,0.047157371584966246,0.5162643377121334,0.016431056934186818,0.02100267245909684,nan
1740373972.3096569,0.03685695102876958,0.5813545310140071,0.08383674679887514,0.012872516234290221,nan
1740373972.3135624,0.027632734655900854,0.6404864365828125,0.14902801124655093,0.006429025195805226,nan
1740373972.317468,0.019552193960948174,0.693169760625573,0.2114986295154763,0.001742806537652698,nan
1740373972.3213735,0.012669344436375126,0.7389730619449381,0.2707608538073575,-0.001134968897682656,nan
1740373972.325279,0.007024114912922102,0.7775273539833132,0.3263495102781337,-0.0021732351163551464,nan
1740373972.329188,0.0026418985061264577,0.8085291045113155,0.3778259319819368,-0.0013614621809396276,nan
1740373972.3330936,-0.0004667124747270753,0.8317426098868255,0.42478169148099626,0.0012901523325309272,nan
1740373972.3369992,-0.002306007362611503,0.8470017267678442,0.46684210234342394,0.005750731518231464,nan
1740373972.3409047,-0.00289505545998222,0.8542109502372139,0.5036694605109995,0.011969004309757371,nan
1740373972.3448102,-0.0022674255965303143,0.8533458334328405,0.5349659985171556,0.01987382248640813,nan
1740373972.3487158,-0.00047073258377144207,0.8444527499161174,0.5604765277559572,0.029374901951415025,nan
1740373972.3526213,0.0024339819256529935,0.8276480060966911,0.5799907464289243,0.04036377840083705,nan
1740373972.3565269,0.006373024928191909,0.8031163170073674,0.5933451934092064,0.05271496530887464,nan
1740373972.3604324,0.011260973046255972,0.7711086645338607,0.6004248310415171,0.06628730010680903,nan
1740373972.364338,0.017001726648075036,0.7319395627972785,0.6011642428195206,0.08092546254831229,nan
1740373972.3682435,0.023489683436603827,0.6859837607118623,0.5955484349270703,0.09646164755135689,nan
1740373972.3721488,0.03061101666595003,0.633672416748767,0.5836132337716475,0.11271737330223675,nan
1740373972.3760576,0.03824504214972618,0.5754887855836961,0.5654452748526705,0.1295054041141681,nan
1740373972.379963,0.046265657413639895,0.5119634605510286,0.5411815815683537,0.1466317664630516,nan
1740373972.3838685,0.05454283572136568,0.44366921963250316,0.511008735846462,0.16389783578555614,nan
1740373972.387774,0.06294415727299914,0.37121552604177516,0.4751616457603352,0.18110247102653207,nan
1740373972.3916795,0.0713363596417577,0.2952427372990944,0.43392191853551665,0.19804417356827286,nan
1740373972.395585,0.07958688947772805,0.21641607899952642,0.38761585053817343,0.21452324706522843,nan
1740373972.3994906,0.08756543766589614,0.1354194412453462,0.3366120489383623,0.23034393484382645,nan
1740373972.4033961,0.09514544047592666,0.05294905692523967,0.28131870273396625,0.2453165119050296,nan
1740373972.4073017,0.10220552977779317,-0.030292878327998225,0.2221805236804907,0.2592593091816965,nan
1740373972.4112072,0.1086309161130307,-0.1136045845860663,0.15967538037443044,0.272000648545856,nan
1740373972.4151127,0.11431468929692566,-0.1962910150440436,0.09431065126159649,0.2833806681225632,nan
1740373972.4190183,0.1191590222716046,-0.2776700540073763,0.02661932466578657,0.293253018734904,nan
1740373972.4229267,0.12307626512120513,-0.3570785386200043,-0.04284412396163373,0.30148641376463886,nan
1740373972.4268322,0.1259899174843312,-0.4338780496049874,-0.11350804550174112,0.3079660163488333,nan
1740373972.4307377,0.127835469040633,-0.5074604188874117,-0.18478808765109472,0.3125946496268601,nan
1740373972.4346433,0.12856109929134205,-0.577252905040105,-0.2560917873896313,0.3152938176850486,nan
1740373972.4385488,0.12812822948074545,-0.6427229910039114,-0.326823249320525,0.31600452689743225,nan
1740373972.4424543,0.12651192119885932,-0.7033827624499454,-0.39638787298055356,0.31468789950879617,nan
1740373972.4463599,0.12370111794656939,-0.7587928294319294,-0.46419709172411905,0.3113255735280736,nan
1740373972.4502654,0.11969872771409044,-0.8085657585795422,-0.5296730855863626,0.30591988527285785,nan
1740373972.454171,0.11452154640292596,-0.8523689879632047,-0.5922534306330776,0.2984938332058515,nan
1740373972.4580765,0.10820002369128202,-0.8899272018689283,-0.6513956477070999,0.28909082400773695,nan
1740373972.461982,0.10077787468439686,-0.9210241480089493,-0.7065816141799707,0.277774204114575,nan
1740373972.4658875,0.09231154238596578,-0.9455038851086789,-0.7573218033087562,0.26462658218809726,nan
1740373972.4697995,0.08286951765694861,-0.9632714543008462,-0.8031593170737197,0.24974895016135695,nan
1740373972.4737048,0.07253152487649045,-0.9742929732710685,-0.843673679923229,0.23325961258821273,nan
1740373972.4776103,0.06138758297033678,-0.9785951575829563,-0.878484362665909,0.21529293600193705,nan
1740373972.481516,0.04953695281000288,-0.9762642790133698,-0.9072540078125386,0.1959979318361206,nan
1740373972.4854214,0.03708698319734907,-0.9674445759987661,-0.929691329965371,0.17553668816158935,nan
1740373972.489327,0.02415186872176005,-0.9523361363824067,-0.9455536673623703,0.15408266702937878,nan
1740373972.4932325,0.010851333700088495,-0.9311922775122532,-0.9546491633885147,0.1318188855668427,nan
1740373972.497138,-0.0026907428263251813,-0.9043164533259085,-0.9568385597444403,0.10893600013850681,nan
1740373972.5010436,-0.016347745465309968,-0.8720587223298333,-0.9520365859913319,0.0856303138440692,nan
1740373972.504949,-0.029991768219938767,-0.8348118142967209,-0.9402129333462131,0.06210172837392346,nan
1740373972.5088546,-0.04349507135846446,-0.7930068370320863,-0.9213928038583242,0.03855166177079999,nan
1740373972.5127602,-0.05673153308694867,-0.747108667667657,-0.8956570294292494,0.015180953949987978,nan
1740373972.5166714,-0.0695780798085939,-0.6976110755979733,-0.8631417585202215,-0.00781221809233052,nan
1740373972.520577,-0.08191607903491113,-0.6450316263651449,-0.8240377117925208,-0.03023439360277034,nan
1740373972.5244825,-0.09363267946730558,-0.5899064174969235,-0.7785890113239081,-0.051898828520846964,nan
1740373972.528388,-0.10462208338800266,-0.5327846985019978,-0.7270915914084021,-0.07262742224411892,nan
1740373972.5322936,-0.11478673727923215,-0.47422342791524214,-0.6698912022513607,-0.09225255070451673,nan
1740373972.536199,-0.12403842752041731,-0.4147818204612588,-0.6073810210904004,-0.11061878676392892,nan
1740373972.5401046,-0.13229926908439538,-0.355015937068338,-0.5399988883792469,-0.12758449014245887,nan
1740373972.5440102,-0.13950257635346075,-0.2954733696234185,-0.46822418964131823,-0.14302325047873804,nan
1740373972.5479157,-0.14559360649124561,-0.23668807102292802,-0.392574406408776,-0.15682516867359203,nan
1740373972.5518212,-0.15053016722263404,-0.17917537926045649,-0.3136013622885108,-0.1688979633699015,nan
1740373972.5557268,-0.15428308237573435,-0.12342728202043554,-0.23188719261789334,-0.17916789125494278,nan
1740373972.5596323,-0.15683651011114724,-0.06990796554209178,-0.1480400683707317,-0.18758047181775098,nan
1740373972.563543,-0.15818811038744948,-0.01904968840857224,-0.06268970693015218,-0.19410100923300924,nan
1740373972.5674486,-0.15834905987043466,0.02875098256517316,0.023517295955678665,-0.19871490615355486,nan
1740373972.5713542,-0.1573439141695499,0.07313654098958465,0.10992227729046834,-0.2014277663541152,nan
1740373972.5752597,-0.15521031896010729,0.11379148486130328,0.19585942412829258,-0.20226528535721955,nan
1740373972.579165,-0.15199857320645058,0.1504448109564262,0.28066075930721046,-0.20127293036592728,nan
1740373972.5830705,-0.14777104932154447,0.18287203936723057,0.3636611573140996,-0.19851541300471148,nan
1740373972.586976,-0.14260147666533926,0.21089675264185262,0.44420335172168973,-0.19407596050736883,nan
1740373972.5908816,-0.13657409628099432,0.23439163885412817,0.521642895687859,-0.18805539306750688,nan
1740373972.5947871,-0.12978269617871852,0.2532790328699513,0.595353037360097,-0.18057101706179843,nan
1740373972.5986927,-0.12232953778680423,0.2675309550387451,0.6647294726815677,-0.17175534574882115,nan
1740373972.6025982,-0.11432418538429152,0.2771686514756916,0.7291949390441175,-0.16175466081756243,nan
1740373972.6065037,-0.10588225139717597,0.2822616449644453,0.7882036144699883,-0.15072742979193118,nan
1740373972.6104143,-0.09712407136870817,0.28292631025426884,0.8412452885179168,-0.1388425957743323,nan
1740373972.6143198,-0.08817332319439865,0.2793239921045647,0.8878492728883393,-0.1262777573177934,nan
1740373972.6182253,-0.07915560583552374,0.2716586887998546,0.9275880217321487,-0.11321725733920547,nan
1740373972.6221309,-0.07019699318469746,0.26017432797817325,0.9600804339314608,-0.0998502009148033,nan
1740373972.6260364,-0.06142257904847598,0.2451516654467859,0.9849948121007382,-0.08636842252383402,nan
1740373972.629942,-0.052955029331932565,0.2269048411653864,1.00205145573244,-0.07296442382036974,nan
1740373972.6338475,-0.044913157457389594,0.20577762972613695,1.0110248687614476,-0.0598293033113981,nan
1740373972.637753,-0.037410538824515484,0.18213942542323844,1.011745564824004,-0.047150699398960744,nan
1740373972.6416585,-0.030554179724039333,0.15638100435732252,1.0041014566155082,-0.03511076810449294,nan
1740373972.645564,-0.024443255556663726,0.12891010794108587,0.9880388189822501,-0.02388421643646166,nan
1740373972.6494696,-0.019167932488023922,0.10014689364573992,0.963562818689059,-0.013636411791612242,nan
1740373972.6533751,-0.014808285797375715,0.0705192998410067,0.9307376071613761,-0.004521587001636881,nan
1740373972.6572847,-0.011433327161186429,0.04045837212709298,0.8896859758797588,0.003318840341016019,nan
1740373972.6611903,-0.009100151963561905,0.010393598632355526,0.8405885774801588,0.009757816812125631,nan
1740373972.6650958,-0.007853216455465988,-0.019251698643037763,0.7836827189577622,0.014684054218629686,nan
1740373972.6690013,-0.007723753207313026,-0.04806487021296294,0.7192607366591497,0.018003268183633615,nan
1740373972.6729069,-0.008729331829080148,-0.07564829830380942,0.647667965950999,0.019639241299096735,nan
1740373972.6768124,-0.010873570384059176,-0.10162356569280574,0.569300321548191,0.019534699680674943,nan
1740373972.680718,-0.014146001312922804,-0.125635393174958,0.484601507445816,0.017651993661514997,nan
1740373972.6846235,-0.018522094030821556,-0.147355307202883,0.3940598782047309,0.013973575358078848,nan
1740373972.688529,-0.023963434679072724,-0.16648500216643436,0.2982049759674094,0.008502267911180708,nan
1740373972.6924345,-0.030418061822394416,-0.1827593650381157,0.19760377000927878,0.001261323328319759,nan
1740373972.69634,-0.03782095520022551,-0.19594913367232505,0.09285662784190539,-0.007705731992370687,nan
1740373972.7002456,-0.04609467298431901,-0.20586316387492695,-0.01540695113861854,-0.01833546281240729,nan
1740373972.7041547,-0.0551501313818424,-0.21235028441566497,-0.12653280673690143,-0.030545098281857627,nan
1740373972.7080603,-0.06488751887078371,-0.21530072339843506,-0.23984675959009993,-0.04423330733375034,nan
1740373972.7119658,-0.07519733587893981,-0.21464709379096703,-0.35465938796644636,-0.05928116866880106,nan
1740373972.7158713,-0.08596154933483756,-0.21036493040196688,-0.4702709034387526,-0.0755533257693703,nan
1740373972.7197769,-0.09705485024331528,-0.20247277513574752,-0.5859760885170271,-0.09289931549185879,nan
1740373972.7236824,-0.10834600128378656,-0.19103181190672533,-0.7010692589914558,-0.11115505701227202,nan
1740373972.727588,-0.11969926040791216,-0.17614505711394818,-0.8148492136969859,-0.13014448625834096,nan
1740373972.7314935,-0.13097586553638216,-0.1579561160146884,-0.9266241346626671,-0.14968131946981056,nan
1740373972.735399,-0.14203556473152054,-0.13664751965250072,-1.0357164011495983,-0.16957092820144387,nan
1740373972.7393045,-0.15273817566131914,-0.11243866114704705,-1.1414672819050782,-0.18961230693413877,nan
1740373972.74321,-0.16294515777764937,-0.08558335409999705,-1.2432414710597868,-0.20960011350002827,nan
1740373972.7471156,-0.17252118041135542,-0.05636703957530684,-1.3404314344592279,-0.22932676176701278,nan
1740373972.7510245,-0.18133566994263567,-0.0251036715375973,-1.4324615348384198,-0.24858454547472486,nan
1740373972.75493,-0.18926431933732296,0.007867686253699714,-1.518791906105565,-0.26716777177277573,nan
1740373972.7588356,-0.19619054364787258,0.04218651612369172,-1.5989220490803842,-0.2848748828869528,nan
1740373972.762741,-0.20200686555911526,0.0774747169581743,-1.6723941233181394,-0.30151054443090375,nan
1740373972.7666466,-0.20661621570892638,0.11334064908342263,-1.7387959121218524,-0.31688767918904576,nan
1740373972.7705522,-0.20993313332657243,0.1493833117479604,-1.7977634404821536,-0.3308294257177073,nan
1740373972.7744577,-0.21188485369876764,0.185196610218557,-1.8489832284647056,-0.3431710018408322,nan
1740373972.7783632,-0.2124122700859632,0.22037366874927486,-1.892194165466067,-0.35376145404652276,nan
1740373972.7822688,-0.21147075895799136,0.25451114536748065,-1.9271889937566797,-0.36246527491206504,nan
1740373972.7861743,-0.20903085878649408,0.28721350454600947,-1.9538153927995365,-0.36916387198659184,nan
1740373972.7900796,-0.20507879410792398,0.3180972043933544,-1.9719766589503822,-0.3737568730292553,nan
1740373972.7939851,-0.19961683814029194,0.3467947559867729,-1.9816319782846408,-0.37616325412193663,nan
1740373972.7978935,-0.19266350888355602,0.3729586138854027,-1.9827962934325345,-0.3763222789330108,nan
1740373972.801799,-0.18425359534071406,0.3962648586763485,-1.975539768411985,-0.37419423928480244,nan
1740373972.8057046,-0.17443801224703817,0.4164166346071909,-1.9599868585042093,-0.36976098915353084,nan
1740373972.8096101,-0.1632834834704734,0.4331473079202393,-1.9363149951953398,-0.3630262662868249,nan
1740373972.8135157,-0.15087205602889786,0.44622331440079144,-1.9047528990857032,-0.3540157977398686,nan
1740373972.8174212,-0.13730044844132697,0.45544666785390975,-1.8655785364239847,-0.342777187785667,nan
