timestamps,TP9,AF7,AF8,TP10,Right AUX
1740789302.3368323,-24.90234375,-35.64453125,-39.55078125,-34.66796875,0.0
1740789302.340738,-28.3203125,-41.015625,-41.015625,-35.64453125,0.0
1740789302.3446438,-22.94921875,-40.52734375,-43.9453125,-30.76171875,0.0
1740789302.3485498,-18.5546875,-30.76171875,-37.109375,-17.578125,0.0
1740789302.3524556,-22.94921875,-29.78515625,-34.66796875,-19.53125,0.0
1740789302.3563614,-28.80859375,-30.76171875,-44.921875,-29.78515625,0.0
1740789302.3602672,-35.64453125,-32.71484375,-50.29296875,-33.203125,0.0
1740789302.3641732,-38.0859375,-36.1328125,-53.7109375,-37.109375,0.0
1740789302.368079,-36.1328125,-42.48046875,-56.15234375,-36.1328125,0.0
1740789302.3719847,-37.59765625,-49.31640625,-56.640625,-36.1328125,0.0
1740789302.3758907,-37.59765625,-43.45703125,-57.12890625,-40.0390625,0.0
1740789302.3797965,-33.69140625,-39.55078125,-52.734375,-34.66796875,0.0
1740789302.3837059,-32.71484375,-40.52734375,-52.24609375,-33.69140625,0.0
1740789302.3876116,-36.1328125,-36.62109375,-52.24609375,-36.62109375,0.0
1740789302.3915174,-29.78515625,-30.76171875,-47.36328125,-31.25,0.0
1740789302.3954234,-25.87890625,-38.0859375,-48.33984375,-31.25,0.0
1740789302.3993292,-30.2734375,-44.921875,-45.41015625,-33.203125,0.0
1740789302.403235,-23.4375,-43.45703125,-38.0859375,-30.76171875,0.0
1740789302.407141,-16.11328125,-30.2734375,-37.59765625,-27.34375,0.0
1740789302.4110467,-15.13671875,-25.390625,-40.0390625,-21.97265625,0.0
1740789302.4149525,-24.4140625,-41.50390625,-43.45703125,-24.90234375,0.0
1740789302.4188583,-34.1796875,-39.0625,-45.41015625,-39.0625,0.0
1740789302.4227643,-27.34375,-24.90234375,-40.52734375,-43.45703125,0.0
1740789302.42667,-26.3671875,-25.390625,-38.57421875,-35.64453125,0.0
1740789302.4305792,-31.25,-31.73828125,-42.48046875,-34.1796875,0.0
1740789302.434485,-34.1796875,-43.9453125,-40.52734375,-38.57421875,0.0
1740789302.4383907,-36.62109375,-41.50390625,-33.203125,-36.62109375,0.0
1740789302.4422967,-36.62109375,-36.62109375,-33.69140625,-28.3203125,0.0
1740789302.4462025,-35.15625,-36.62109375,-34.66796875,-28.3203125,0.0
1740789302.4501083,-37.59765625,-33.203125,-35.15625,-28.3203125,0.0
1740789302.454014,-40.52734375,-32.2265625,-38.0859375,-25.87890625,0.0
1740789302.45792,-34.66796875,-44.921875,-35.64453125,-30.2734375,0.0
1740789302.4618258,-27.34375,-47.36328125,-33.69140625,-29.296875,0.0
1740789302.4657316,-31.25,-35.64453125,-29.296875,-26.85546875,0.0
1740789302.4696374,-28.80859375,-34.66796875,-29.296875,-32.71484375,0.0
1740789302.4735434,-28.80859375,-32.2265625,-35.64453125,-31.73828125,0.0
1740789302.477452,-27.83203125,-30.2734375,-36.62109375,-26.85546875,0.0
1740789302.4813578,-29.296875,-35.15625,-35.64453125,-33.203125,0.0
1740789302.4852636,-39.0625,-35.64453125,-37.59765625,-38.0859375,0.0
1740789302.4891694,-31.73828125,-37.59765625,-35.64453125,-38.0859375,0.0
1740789302.4930754,-31.73828125,-41.9921875,-41.9921875,-33.69140625,0.0
1740789302.4969811,-35.64453125,-37.109375,-46.875,-28.3203125,0.0
1740789302.500887,-30.2734375,-34.66796875,-40.0390625,-25.390625,0.0
1740789302.5047927,-29.296875,-37.59765625,-35.15625,-22.94921875,0.0
1740789302.5086987,-31.73828125,-30.76171875,-35.64453125,-26.3671875,0.0
1740789302.5126045,-28.3203125,-29.296875,-39.0625,-33.203125,0.0
1740789302.5165102,-19.04296875,-36.1328125,-38.0859375,-33.203125,0.0
1740789302.5204163,-24.90234375,-31.73828125,-41.015625,-34.66796875,0.0
1740789302.5243244,-36.62109375,-37.59765625,-43.9453125,-38.0859375,0.0
1740789302.5282304,-36.62109375,-43.9453125,-45.41015625,-35.64453125,0.0
1740789302.5321362,-29.78515625,-40.52734375,-46.875,-35.64453125,0.0
1740789302.536042,-28.3203125,-38.0859375,-43.45703125,-39.55078125,0.0
1740789302.5399477,-31.25,-39.0625,-41.015625,-42.48046875,0.0
1740789302.5438538,-30.76171875,-42.96875,-42.96875,-38.0859375,0.0
1740789302.5477595,-33.69140625,-49.8046875,-45.8984375,-41.015625,0.0
1740789302.5516653,-36.1328125,-51.26953125,-45.8984375,-48.33984375,0.0
1740789302.5555713,-34.1796875,-42.48046875,-46.875,-45.8984375,0.0
1740789302.559477,-30.76171875,-40.0390625,-49.8046875,-41.9921875,0.0
1740789302.5633829,-36.62109375,-41.9921875,-46.38671875,-41.50390625,0.0
1740789302.5672886,-43.9453125,-46.875,-45.41015625,-41.015625,0.0
1740789302.5711968,-34.66796875,-47.8515625,-45.8984375,-40.52734375,0.0
1740789302.5751026,-24.90234375,-36.62109375,-40.0390625,-34.1796875,0.0
1740789302.5790083,-22.4609375,-32.2265625,-41.015625,-27.83203125,0.0
1740789302.5829144,-24.90234375,-34.1796875,-42.48046875,-28.3203125,0.0
1740789302.5868201,-35.15625,-34.1796875,-44.921875,-34.1796875,0.0
1740789302.590726,-37.109375,-40.0390625,-47.36328125,-36.1328125,0.0
1740789302.5946317,-34.1796875,-52.734375,-41.015625,-27.34375,0.0
1740789302.5985377,-28.80859375,-49.31640625,-39.55078125,-27.34375,0.0
1740789302.6024435,-29.296875,-42.48046875,-38.57421875,-41.015625,0.0
1740789302.6063492,-33.203125,-51.7578125,-36.62109375,-39.0625,0.0
1740789302.6102552,-35.15625,-50.29296875,-42.48046875,-35.15625,0.0
1740789302.614161,-39.0625,-41.9921875,-46.38671875,-41.9921875,0.0
1740789302.6180687,0.0,-36.1328125,-43.9453125,-37.59765625,0.0
1740789302.6219745,0.0,-38.0859375,-39.0625,-33.203125,0.0
1740789302.6258802,0.0,-42.48046875,-42.96875,-42.96875,0.0
1740789302.6297863,0.0,-44.43359375,-47.8515625,-41.50390625,0.0
1740789302.633692,0.0,-40.0390625,-45.8984375,-33.203125,0.0
1740789302.6375978,0.0,-45.8984375,-41.015625,-31.25,0.0
1740789302.6415036,0.0,-47.36328125,-40.0390625,-32.2265625,0.0
1740789302.6454096,0.0,-25.390625,-42.96875,-35.15625,0.0
1740789302.6493154,0.0,-27.34375,-39.55078125,-34.1796875,0.0
1740789302.6532211,0.0,-43.45703125,-35.15625,-33.69140625,0.0
1740789302.657127,0.0,-44.43359375,-37.109375,-33.203125,0.0
1740789302.661033,0.0,-38.57421875,-40.0390625,-27.34375,0.0
1740789302.664943,-21.97265625,-35.64453125,-42.48046875,-28.80859375,0.0
1740789302.6688488,-18.5546875,-36.62109375,-48.828125,-30.76171875,0.0
1740789302.6727545,-10.7421875,-30.2734375,-44.43359375,-25.87890625,0.0
1740789302.6766605,-17.08984375,-26.3671875,-42.48046875,-29.296875,0.0
1740789302.6805663,-23.4375,-31.73828125,-45.8984375,-24.4140625,0.0
1740789302.684472,-17.08984375,-41.015625,-43.9453125,-16.6015625,0.0
1740789302.6883779,-14.16015625,-38.57421875,-40.52734375,-20.99609375,0.0
1740789302.6922839,-14.16015625,-29.78515625,-40.0390625,-18.06640625,0.0
1740789302.6961896,-10.7421875,-36.1328125,-41.015625,-18.06640625,0.0
1740789302.7000954,-14.6484375,-47.36328125,-39.0625,-20.99609375,0.0
1740789302.7040012,-18.06640625,-39.55078125,-40.0390625,-19.53125,0.0
1740789302.7079072,-16.6015625,-28.80859375,-42.96875,-28.80859375,0.0
1740789302.711817,-20.5078125,-34.66796875,-40.52734375,-27.34375,0.0
1740789302.7157228,-26.3671875,-44.43359375,-44.43359375,-26.85546875,0.0
1740789302.7196288,-26.3671875,-42.48046875,-47.36328125,-31.25,0.0
1740789302.7235346,-29.296875,-41.015625,-44.921875,-28.80859375,0.0
1740789302.7274404,-28.3203125,-43.45703125,-41.9921875,-26.3671875,0.0
1740789302.7313464,-25.390625,-41.9921875,-36.62109375,-17.08984375,0.0
1740789302.7352521,-28.80859375,-29.296875,-41.015625,-19.53125,0.0
1740789302.739158,-34.1796875,-24.90234375,-38.0859375,-29.296875,0.0
1740789302.7430637,-34.1796875,-41.015625,-36.62109375,-26.85546875,0.0
1740789302.7469697,-29.296875,-43.9453125,-50.78125,-26.85546875,0.0
1740789302.7508755,-26.85546875,-35.64453125,-53.22265625,-27.34375,0.0
1740789302.7547812,-25.390625,-36.62109375,-51.26953125,-25.390625,0.0
1740789302.7586908,-23.4375,-33.203125,-49.8046875,-25.87890625,0.0
1740789302.7625966,-19.53125,-33.69140625,-46.875,-30.76171875,0.0
1740789302.7665024,-20.01953125,-36.62109375,-44.43359375,-34.66796875,0.0
1740789302.7704084,-19.04296875,-30.76171875,-45.8984375,-35.64453125,0.0
1740789302.7743142,-14.16015625,-31.25,-49.8046875,-38.0859375,0.0
1740789302.77822,-21.484375,-41.9921875,-49.31640625,-37.109375,0.0
1740789302.782126,-24.4140625,-38.57421875,-53.22265625,-35.15625,0.0
1740789302.7860317,-20.99609375,-29.296875,-53.7109375,-32.71484375,0.0
1740789302.7899375,-22.94921875,-30.2734375,-44.921875,-22.94921875,0.0
1740789302.7938433,-30.2734375,-30.2734375,-46.38671875,-21.484375,0.0
1740789302.7977493,-33.69140625,-34.1796875,-51.26953125,-27.83203125,0.0
1740789302.801655,-35.15625,-44.43359375,-43.9453125,-30.2734375,0.0
1740789302.8055642,-39.0625,-44.921875,-41.50390625,-36.62109375,0.0
1740789302.80947,-41.50390625,-40.52734375,-42.48046875,-34.66796875,0.0
1740789302.8133757,-34.66796875,-35.15625,-38.0859375,-28.80859375,0.0
1740789302.8172817,-30.2734375,-39.55078125,-39.55078125,-28.3203125,0.0
1740789302.8211875,-39.0625,-48.828125,-37.109375,-28.3203125,0.0
1740789302.8250933,-37.59765625,-45.8984375,-39.55078125,-34.66796875,0.0
1740789302.828999,-29.296875,-34.1796875,-41.9921875,-37.109375,0.0
1740789302.832905,-26.85546875,-39.55078125,-38.0859375,-28.80859375,0.0
1740789302.8368108,-28.3203125,-49.8046875,-40.0390625,-24.4140625,0.0
1740789302.8407166,-30.76171875,-36.1328125,-39.55078125,-26.3671875,0.0
1740789302.8446226,-34.1796875,-35.64453125,-44.43359375,-37.59765625,0.0
1740789302.8485284,-31.73828125,-44.43359375,-49.8046875,-39.55078125,0.0
1740789302.8524368,-35.15625,-38.57421875,-46.38671875,-28.80859375,0.0
1740789302.8563428,-26.85546875,-28.3203125,-39.55078125,-30.76171875,0.0
1740789302.8602486,-13.671875,-31.25,-39.55078125,-31.25,0.0
1740789302.8641543,-16.6015625,-36.62109375,-46.38671875,-23.92578125,0.0
1740789302.86806,-23.92578125,-35.15625,-45.41015625,-17.578125,0.0
1740789302.8719661,-23.92578125,-35.15625,-41.015625,-19.04296875,0.0
1740789302.875872,-23.92578125,-36.1328125,-43.45703125,-25.87890625,0.0
1740789302.8797777,-28.80859375,-41.50390625,-40.0390625,-31.25,0.0
1740789302.8836837,-33.69140625,-38.57421875,-38.0859375,-37.59765625,0.0
1740789302.8875895,-35.64453125,-30.76171875,-42.48046875,-41.50390625,0.0
1740789302.8914952,-33.69140625,-32.71484375,-44.921875,-37.109375,0.0
1740789302.895401,-38.0859375,-39.0625,-49.31640625,-32.2265625,0.0
1740789302.8993094,-36.1328125,-33.69140625,-45.41015625,-28.3203125,0.0
1740789302.9032152,-25.87890625,-29.78515625,-40.0390625,-27.34375,0.0
1740789302.907121,-24.4140625,-36.62109375,-43.9453125,-32.2265625,0.0
1740789302.9110267,-25.390625,-32.71484375,-40.52734375,-36.62109375,0.0
1740789302.9149327,-16.6015625,-28.80859375,-38.57421875,-35.15625,0.0
1740789302.9188385,-21.97265625,-34.66796875,-50.78125,-39.0625,0.0
1740789302.9227443,-24.4140625,-42.96875,-50.78125,-35.15625,0.0
1740789302.92665,-24.90234375,-42.48046875,-44.921875,-25.390625,0.0
1740789302.930556,-26.3671875,-20.99609375,-41.50390625,-26.3671875,0.0
1740789302.9344618,-24.90234375,-26.85546875,-42.48046875,-32.71484375,0.0
1740789302.9383676,-28.3203125,-34.66796875,-43.45703125,-35.15625,0.0
1740789302.9422734,-29.296875,-26.85546875,-40.0390625,-29.296875,0.0
1740789302.9461813,-28.3203125,-30.76171875,-45.41015625,-29.78515625,0.0
1740789302.9500873,-29.78515625,-29.296875,-46.38671875,-32.71484375,0.0
1740789302.953993,-30.2734375,-28.3203125,-46.875,-22.4609375,0.0
1740789302.9578989,-28.80859375,-26.3671875,-48.828125,-20.5078125,0.0
1740789302.9618046,-34.66796875,-24.90234375,-45.41015625,-24.90234375,0.0
1740789302.9657106,-35.15625,-27.83203125,-42.96875,-24.4140625,0.0
1740789302.9696164,-34.1796875,-42.96875,-45.8984375,-24.90234375,0.0
1740789302.9735222,-33.69140625,-39.55078125,-48.828125,-30.76171875,0.0
1740789302.977428,-34.66796875,-29.78515625,-48.33984375,-38.57421875,0.0
1740789302.981334,-35.64453125,-38.57421875,-49.8046875,-41.015625,0.0
1740789302.9852397,-28.3203125,-41.015625,-45.8984375,-40.0390625,0.0
1740789302.9891455,-33.203125,-43.45703125,-41.9921875,-40.52734375,0.0
1740789302.9930532,0.0,-37.109375,-44.921875,-42.96875,0.0
1740789302.9969592,0.0,-37.109375,-51.7578125,-43.45703125,0.0
1740789303.000865,0.0,-43.9453125,-47.36328125,-42.96875,0.0
1740789303.0047708,0.0,-38.57421875,-43.45703125,-39.0625,0.0
1740789303.0086765,0.0,-37.109375,-46.875,-42.48046875,0.0
1740789303.0125825,0.0,-38.57421875,-48.33984375,-41.015625,0.0
1740789303.0164883,0.0,-42.96875,-47.8515625,-40.0390625,0.0
1740789303.020394,0.0,-35.15625,-50.29296875,-48.828125,0.0
1740789303.0242999,0.0,-30.76171875,-49.8046875,-44.921875,0.0
1740789303.0282059,0.0,-34.66796875,-42.48046875,-36.62109375,0.0
1740789303.0321116,0.0,-29.296875,-46.38671875,-34.66796875,0.0
1740789303.0360174,0.0,-33.203125,-52.734375,-38.0859375,0.0
1740789303.0399275,-29.78515625,-40.52734375,-46.38671875,-31.73828125,0.0
1740789303.0438333,-33.69140625,-38.57421875,-44.921875,-33.203125,0.0
1740789303.0477393,-40.0390625,-38.57421875,-47.36328125,-41.9921875,0.0
1740789303.051645,-34.66796875,-36.1328125,-45.41015625,-42.48046875,0.0
1740789303.0555508,-37.109375,-37.59765625,-43.45703125,-42.96875,0.0
1740789303.0594566,-34.66796875,-44.921875,-38.57421875,-41.9921875,0.0
1740789303.0633626,-31.73828125,-40.0390625,-43.9453125,-42.48046875,0.0
1740789303.0672684,-27.34375,-34.1796875,-46.38671875,-43.9453125,0.0
1740789303.0711741,-24.4140625,-35.64453125,-44.43359375,-45.41015625,0.0
1740789303.07508,-29.78515625,-42.48046875,-46.875,-43.9453125,0.0
1740789303.078986,-20.5078125,-39.0625,-44.921875,-40.52734375,0.0
1740789303.0828917,-20.5078125,-32.71484375,-45.41015625,-41.50390625,0.0
1740789303.0868013,-24.4140625,-29.78515625,-45.8984375,-39.0625,0.0
1740789303.0907073,-18.06640625,-33.203125,-42.48046875,-39.0625,0.0
1740789303.094613,-16.6015625,-32.71484375,-40.0390625,-41.9921875,0.0
1740789303.0985188,-24.4140625,-30.2734375,-41.50390625,-40.0390625,0.0
1740789303.1024246,-26.85546875,-36.1328125,-42.48046875,-36.62109375,0.0
1740789303.1063306,-20.01953125,-37.59765625,-43.45703125,-37.109375,0.0
1740789303.1102364,-23.4375,-30.2734375,-45.41015625,-39.0625,0.0
1740789303.1141422,-30.2734375,-22.4609375,-40.0390625,-30.76171875,0.0
1740789303.118048,-30.76171875,-32.71484375,-39.0625,-23.4375,0.0
1740789303.121954,-25.390625,-42.96875,-42.48046875,-18.5546875,0.0
1740789303.1258597,-21.484375,-26.3671875,-42.96875,-22.4609375,0.0
1740789303.1297655,-29.78515625,-34.1796875,-49.31640625,-33.69140625,0.0
1740789303.1336749,-31.25,-40.52734375,-49.31640625,-32.71484375,0.0
1740789303.1375809,-22.4609375,-28.3203125,-42.48046875,-28.3203125,0.0
1740789303.1414866,-25.87890625,-34.1796875,-38.0859375,-30.2734375,0.0
1740789303.1453924,-30.76171875,-38.57421875,-38.57421875,-28.80859375,0.0
1740789303.1492982,-33.69140625,-45.41015625,-45.41015625,-27.83203125,0.0
1740789303.1532042,-31.25,-50.78125,-46.875,-29.296875,0.0
1740789303.15711,-29.296875,-40.0390625,-45.8984375,-33.69140625,0.0
1740789303.1610157,-33.203125,-36.1328125,-52.24609375,-35.15625,0.0
1740789303.1649218,-30.2734375,-43.45703125,-51.26953125,-23.92578125,0.0
1740789303.1688275,-31.73828125,-42.48046875,-43.9453125,-25.87890625,0.0
1740789303.1727333,-33.203125,-32.2265625,-42.96875,-32.71484375,0.0
1740789303.176639,-32.2265625,-33.69140625,-50.78125,-25.87890625,0.0
1740789303.1805482,-37.59765625,-40.0390625,-54.6875,-33.203125,0.0
1740789303.184454,-36.62109375,-41.015625,-50.78125,-38.0859375,0.0
1740789303.1883597,-24.90234375,-38.0859375,-44.921875,-31.25,0.0
1740789303.1922657,-20.5078125,-37.59765625,-41.50390625,-29.78515625,0.0
1740789303.1961715,-23.4375,-36.1328125,-43.45703125,-27.34375,0.0
1740789303.2000773,-22.4609375,-39.0625,-45.41015625,-31.73828125,0.0
1740789303.203983,-24.4140625,-37.109375,-46.38671875,-33.69140625,0.0
1740789303.207889,-26.3671875,-35.15625,-44.43359375,-30.2734375,0.0
1740789303.2117949,-26.85546875,-41.50390625,-41.015625,-25.390625,0.0
1740789303.2157006,-23.4375,-29.78515625,-40.0390625,-26.3671875,0.0
1740789303.2196064,-25.87890625,-27.83203125,-38.0859375,-31.73828125,0.0
1740789303.2235124,-32.2265625,-33.69140625,-40.52734375,-29.296875,0.0
1740789303.2274208,-26.3671875,-34.1796875,-43.45703125,-25.390625,0.0
1740789303.2313268,-24.90234375,-33.69140625,-37.59765625,-34.66796875,0.0
1740789303.2352326,-23.4375,-29.78515625,-35.64453125,-32.2265625,0.0
1740789303.2391384,-29.296875,-34.66796875,-41.015625,-33.203125,0.0
1740789303.2430444,-31.25,-36.1328125,-42.96875,-34.66796875,0.0
1740789303.2469501,-18.06640625,-32.2265625,-42.48046875,-26.3671875,0.0
1740789303.250856,-16.11328125,-27.83203125,-40.52734375,-26.85546875,0.0
1740789303.2547617,-18.5546875,-32.2265625,-44.43359375,-28.3203125,0.0
1740789303.2586677,-23.4375,-30.76171875,-48.33984375,-25.390625,0.0
1740789303.2625735,-23.4375,-31.25,-43.9453125,-34.1796875,0.0
1740789303.2664793,-21.484375,-37.59765625,-41.9921875,-42.48046875,0.0
1740789303.270385,-26.85546875,-35.64453125,-37.109375,-38.57421875,0.0
1740789303.2742934,-26.3671875,-33.69140625,-32.71484375,-39.55078125,0.0
1740789303.2781992,-21.484375,-32.71484375,-38.57421875,-44.921875,0.0
1740789303.282105,-22.94921875,-41.9921875,-39.55078125,-45.8984375,0.0
1740789303.286011,-24.90234375,-44.921875,-41.015625,-41.9921875,0.0
1740789303.2899168,-33.69140625,-46.875,-41.015625,-43.9453125,0.0
1740789303.2938225,-36.62109375,-45.41015625,-39.0625,-41.9921875,0.0
1740789303.2977283,-33.203125,-45.8984375,-41.015625,-38.57421875,0.0
1740789303.3016343,-36.62109375,-46.875,-38.0859375,-40.52734375,0.0
1740789303.30554,-40.52734375,-34.1796875,-37.59765625,-40.52734375,0.0
1740789303.3094459,-31.73828125,-36.62109375,-39.0625,-36.1328125,0.0
1740789303.3133516,-27.34375,-44.43359375,-38.0859375,-29.296875,0.0
1740789303.3172576,-25.87890625,-39.55078125,-36.62109375,-28.80859375,0.0
1740789303.3211658,0.0,-41.9921875,-40.52734375,-30.76171875,0.0
1740789303.3250716,0.0,-45.8984375,-42.48046875,-24.90234375,0.0
1740789303.3289773,0.0,-39.0625,-39.55078125,-14.6484375,0.0
1740789303.3328831,0.0,-37.109375,-44.43359375,-16.6015625,0.0
1740789303.3367891,0.0,-41.50390625,-45.41015625,-25.390625,0.0
1740789303.340695,0.0,-43.45703125,-43.45703125,-28.3203125,0.0
1740789303.3446007,0.0,-45.41015625,-45.8984375,-27.83203125,0.0
1740789303.3485065,0.0,-41.9921875,-42.96875,-28.3203125,0.0
1740789303.3524125,0.0,-30.76171875,-44.43359375,-30.2734375,0.0
1740789303.3563182,0.0,-31.25,-47.36328125,-27.83203125,0.0
1740789303.360224,0.0,-32.71484375,-48.828125,-30.76171875,0.0
1740789303.3641298,0.0,-31.73828125,-43.45703125,-30.76171875,0.0
1740789303.3680375,-35.15625,-30.2734375,-39.55078125,-30.2734375,0.0
1740789303.3719432,-25.87890625,-35.15625,-40.0390625,-26.3671875,0.0
1740789303.375849,-20.99609375,-33.203125,-35.15625,-16.11328125,0.0
1740789303.3797548,-24.90234375,-27.34375,-33.203125,-24.4140625,0.0
1740789303.3836608,-28.3203125,-34.1796875,-36.1328125,-40.52734375,0.0
1740789303.3875666,-32.71484375,-42.48046875,-38.0859375,-42.48046875,0.0
1740789303.3914723,-38.0859375,-42.48046875,-38.57421875,-46.875,0.0
1740789303.3953784,-36.62109375,-19.04296875,-34.1796875,-47.8515625,0.0
1740789303.3992841,-54.6875,-15.13671875,-44.43359375,-58.59375,0.0
1740789303.40319,-69.82421875,-28.80859375,-53.7109375,-72.265625,0.0
1740789303.4070957,-73.73046875,-30.2734375,-46.875,-79.58984375,0.0
1740789303.4110017,-82.03125,-18.06640625,-52.734375,-87.890625,0.0
1740789303.4149115,-91.796875,-7.8125,-63.96484375,-105.95703125,0.0
1740789303.4188175,-102.05078125,-2.9296875,-60.05859375,-121.58203125,0.0
1740789303.4227233,-136.71875,-12.20703125,-78.125,-148.92578125,0.0
1740789303.426629,-164.55078125,-13.18359375,-91.796875,-178.22265625,0.0
1740789303.4305348,-177.734375,-2.9296875,-97.16796875,-198.73046875,0.0
1740789303.4344409,-184.5703125,1.46484375,-102.5390625,-211.42578125,0.0
1740789303.4383466,-208.0078125,12.6953125,-103.02734375,-233.88671875,0.0
1740789303.4422524,-229.00390625,22.94921875,-100.09765625,-237.79296875,0.0
1740789303.4461584,-225.09765625,22.4609375,-100.5859375,-229.00390625,0.0
1740789303.4500642,-226.07421875,15.625,-100.09765625,-230.46875,0.0
1740789303.45397,-217.7734375,11.23046875,-94.23828125,-215.33203125,0.0
1740789303.4578757,-205.56640625,10.7421875,-95.21484375,-200.68359375,0.0
1740789303.4617856,-194.3359375,-2.9296875,-91.796875,-194.82421875,0.0
1740789303.4656916,-170.41015625,-13.18359375,-79.58984375,-169.43359375,0.0
1740789303.4695973,-156.25,-5.37109375,-76.66015625,-155.76171875,0.0
1740789303.473503,-135.7421875,-11.71875,-76.66015625,-133.7890625,0.0
1740789303.4774091,-110.3515625,-26.85546875,-71.2890625,-103.02734375,0.0
1740789303.481315,-95.703125,-33.203125,-66.40625,-88.8671875,0.0
1740789303.4852207,-72.75390625,-29.78515625,-63.4765625,-75.68359375,0.0
1740789303.4891264,-62.98828125,-30.2734375,-57.6171875,-69.3359375,0.0
1740789303.4930325,-58.59375,-48.828125,-47.8515625,-55.17578125,0.0
1740789303.4969382,-44.43359375,-61.03515625,-40.52734375,-38.0859375,0.0
1740789303.500844,-28.80859375,-49.31640625,-36.62109375,-29.296875,0.0
1740789303.5047498,-19.53125,-38.57421875,-38.0859375,-20.01953125,0.0
1740789303.5086594,0.0,-50.78125,-39.0625,-13.18359375,0.0
1740789303.5125654,0.0,-56.640625,-34.1796875,-5.37109375,0.0
1740789303.5164711,0.0,-51.7578125,-34.66796875,0.0,0.0
1740789303.520377,0.0,-50.29296875,-35.64453125,-0.9765625,0.0
1740789303.524283,0.0,-56.15234375,-27.34375,6.34765625,0.0
1740789303.5281887,0.0,-62.01171875,-25.87890625,14.16015625,0.0
1740789303.5320945,0.0,-56.15234375,-30.76171875,19.04296875,0.0
1740789303.5360003,0.0,-53.22265625,-27.83203125,29.296875,0.0
1740789303.5399063,0.0,-55.6640625,-21.97265625,30.76171875,0.0
1740789303.543812,0.0,-47.36328125,-20.01953125,32.2265625,0.0
1740789303.5477178,0.0,-38.57421875,-20.99609375,37.109375,0.0
1740789303.5516236,0.0,-44.921875,-21.484375,35.15625,0.0
1740789303.5555246,-19.53125,-45.41015625,-20.5078125,31.73828125,0.0
1740789303.5594304,-15.13671875,-38.0859375,-22.4609375,38.57421875,0.0
1740789303.5633364,-7.32421875,-41.015625,-26.85546875,37.59765625,0.0
1740789303.5672421,3.41796875,-50.78125,-25.390625,32.2265625,0.0
1740789303.571148,12.20703125,-51.26953125,-24.90234375,34.66796875,0.0
1740789303.5750537,4.39453125,-48.33984375,-24.90234375,35.15625,0.0
1740789303.5789597,14.16015625,-52.734375,-20.99609375,32.2265625,0.0
1740789303.5828655,28.3203125,-58.59375,-20.99609375,28.3203125,0.0
1740789303.5867712,28.80859375,-58.59375,-27.83203125,30.2734375,0.0
1740789303.590677,34.1796875,-49.8046875,-29.296875,25.390625,0.0
1740789303.594583,40.0390625,-40.52734375,-23.4375,22.4609375,0.0
1740789303.5984888,39.55078125,-40.0390625,-22.94921875,26.3671875,0.0
1740789303.6023974,29.296875,-45.8984375,-20.01953125,20.99609375,0.0
1740789303.6063032,29.296875,-46.38671875,-22.94921875,15.625,0.0
1740789303.610209,30.76171875,-41.015625,-32.71484375,18.5546875,0.0
1740789303.6141148,28.80859375,-45.8984375,-35.15625,18.5546875,0.0
1740789303.6180208,25.87890625,-50.78125,-38.57421875,15.625,0.0
1740789303.6219265,19.04296875,-51.7578125,-40.52734375,16.11328125,0.0
1740789303.6258323,19.04296875,-48.33984375,-36.62109375,17.578125,0.0
1740789303.6297383,16.6015625,-48.828125,-38.0859375,18.5546875,0.0
1740789303.633644,2.9296875,-50.29296875,-41.9921875,6.8359375,0.0
1740789303.6375499,2.9296875,-39.0625,-39.55078125,0.0,0.0
1740789303.6414557,11.71875,-38.57421875,-34.66796875,11.71875,0.0
1740789303.6453617,4.8828125,-42.48046875,-36.1328125,12.20703125,0.0
1740789303.6492698,-3.41796875,-40.52734375,-38.0859375,7.32421875,0.0
1740789303.6531756,-3.41796875,-37.109375,-41.015625,4.39453125,0.0
1740789303.6570814,2.9296875,-43.9453125,-45.41015625,-0.48828125,0.0
1740789303.6609874,-0.9765625,-47.36328125,-44.43359375,2.44140625,0.0
1740789303.6648932,-2.44140625,-44.43359375,-40.0390625,6.34765625,0.0
1740789303.668799,4.8828125,-36.62109375,-35.64453125,8.7890625,0.0
1740789303.672705,8.7890625,-37.59765625,-37.109375,8.7890625,0.0
1740789303.6766107,4.39453125,-42.48046875,-37.59765625,9.27734375,0.0
1740789303.6805165,4.8828125,-35.64453125,-36.62109375,7.8125,0.0
1740789303.6844223,9.765625,-30.2734375,-35.15625,7.32421875,0.0
1740789303.6883283,5.859375,-33.203125,-37.109375,1.46484375,0.0
1740789303.692234,3.90625,-42.48046875,-42.48046875,1.46484375,0.0
1740789303.6961422,8.7890625,-41.50390625,-40.0390625,2.44140625,0.0
1740789303.700048,9.765625,-32.71484375,-35.15625,-3.90625,0.0
1740789303.7039537,5.37109375,-39.0625,-38.57421875,-5.37109375,0.0
1740789303.7078595,-0.48828125,-37.59765625,-34.66796875,-4.39453125,0.0
1740789303.7117655,0.48828125,-30.76171875,-34.66796875,-5.37109375,0.0
1740789303.7156713,2.9296875,-32.71484375,-35.64453125,-6.34765625,0.0
1740789303.719577,3.90625,-33.69140625,-36.62109375,-9.27734375,0.0
1740789303.7234828,-1.953125,-29.296875,-40.52734375,-17.578125,0.0
1740789303.7273889,-5.859375,-23.92578125,-39.55078125,-19.53125,0.0
1740789303.7312946,-0.9765625,-31.25,-41.9921875,-12.6953125,0.0
1740789303.7352004,-3.90625,-31.25,-39.55078125,-8.7890625,0.0
1740789303.7391064,-12.6953125,-30.76171875,-40.0390625,-19.53125,0.0
1740789303.743014,-10.7421875,-36.1328125,-41.50390625,-24.4140625,0.0
1740789303.7469199,-17.08984375,-38.57421875,-42.96875,-23.4375,0.0
1740789303.7508256,-21.484375,-36.1328125,-46.38671875,-27.83203125,0.0
1740789303.7547314,-19.04296875,-33.69140625,-47.36328125,-35.15625,0.0
1740789303.7586374,-19.53125,-37.59765625,-45.41015625,-35.64453125,0.0
1740789303.7625432,-16.6015625,-39.0625,-47.36328125,-30.76171875,0.0
1740789303.766449,-30.2734375,-39.55078125,-47.36328125,-31.25,0.0
1740789303.770355,-28.3203125,-30.76171875,-43.9453125,-33.69140625,0.0
1740789303.7742608,-15.625,-27.34375,-49.31640625,-28.80859375,0.0
1740789303.7781665,-20.99609375,-35.64453125,-49.8046875,-24.90234375,0.0
1740789303.7820723,-20.5078125,-32.71484375,-46.875,-25.87890625,0.0
1740789303.7859783,-18.06640625,-29.296875,-44.43359375,-29.296875,0.0
1740789303.7898853,-20.99609375,-38.57421875,-46.38671875,-28.3203125,0.0
1740789303.793791,-27.83203125,-36.62109375,-53.22265625,-29.78515625,0.0
1740789303.797697,-20.01953125,-31.73828125,-45.41015625,-33.203125,0.0
1740789303.8016028,-15.13671875,-38.0859375,-41.50390625,-26.85546875,0.0
1740789303.8055086,-24.4140625,-42.96875,-48.33984375,-29.296875,0.0
1740789303.8094144,-21.484375,-50.78125,-48.33984375,-26.3671875,0.0
1740789303.8133204,-19.53125,-44.43359375,-42.48046875,-20.5078125,0.0
1740789303.8172262,-22.94921875,-32.71484375,-41.50390625,-21.484375,0.0
1740789303.821132,-22.94921875,-33.203125,-43.45703125,-28.3203125,0.0
1740789303.8250377,-29.78515625,-38.57421875,-44.43359375,-31.25,0.0
1740789303.8289437,-29.78515625,-35.64453125,-47.36328125,-22.94921875,0.0
1740789303.8328495,-18.06640625,-28.80859375,-42.48046875,-23.92578125,0.0
1740789303.836759,-19.04296875,-34.66796875,-40.52734375,-28.3203125,0.0
1740789303.840665,-20.99609375,-33.69140625,-40.0390625,-20.99609375,0.0
1740789303.8445709,-23.92578125,-31.25,-43.45703125,-22.94921875,0.0
1740789303.8484766,-24.90234375,-34.66796875,-50.29296875,-28.80859375,0.0
1740789303.8523827,-18.06640625,-36.62109375,-45.8984375,-24.4140625,0.0
1740789303.8562884,-18.5546875,-35.15625,-43.9453125,-17.578125,0.0
1740789303.8601942,-23.4375,-26.3671875,-46.38671875,-17.578125,0.0
1740789303.8641,-21.97265625,-27.83203125,-45.8984375,-24.4140625,0.0
1740789303.868006,-14.16015625,-35.15625,-40.52734375,-19.53125,0.0
1740789303.8719118,-15.13671875,-31.73828125,-37.109375,-11.71875,0.0
1740789303.8758175,-23.4375,-24.4140625,-39.0625,-13.671875,0.0
1740789303.8797233,-25.87890625,-31.25,-44.921875,-15.13671875,0.0
1740789303.8836327,-21.97265625,-32.71484375,-40.52734375,-12.20703125,0.0
1740789303.8875384,-18.5546875,-30.76171875,-36.1328125,-14.16015625,0.0
1740789303.8914444,-27.34375,-33.203125,-49.8046875,-23.92578125,0.0
1740789303.8953502,-25.87890625,-34.66796875,-54.19921875,-25.390625,0.0
1740789303.899256,-19.04296875,-32.2265625,-44.43359375,-28.80859375,0.0
1740789303.903162,-25.390625,-32.71484375,-41.015625,-35.15625,0.0
1740789303.9070678,-22.4609375,-31.73828125,-37.109375,-31.25,0.0
1740789303.9109735,-15.625,-29.296875,-40.0390625,-24.90234375,0.0
1740789303.9148793,-19.53125,-36.62109375,-43.9453125,-30.76171875,0.0
1740789303.9187853,-28.80859375,-37.109375,-41.50390625,-35.15625,0.0
1740789303.922691,-37.59765625,-31.73828125,-40.52734375,-35.15625,0.0
1740789303.9265969,-36.1328125,-33.203125,-37.109375,-36.62109375,0.0
1740789303.930506,-34.1796875,-36.1328125,-43.9453125,-45.8984375,0.0
1740789303.934412,-32.71484375,-31.73828125,-41.015625,-45.41015625,0.0
1740789303.9383178,-26.85546875,-32.2265625,-34.66796875,-41.9921875,0.0
1740789303.9422235,-37.109375,-36.1328125,-43.9453125,-42.48046875,0.0
1740789303.9461293,-43.9453125,-34.66796875,-47.36328125,-36.1328125,0.0
1740789303.9500353,-37.109375,-38.0859375,-44.43359375,-30.76171875,0.0
1740789303.953941,-34.66796875,-36.62109375,-39.55078125,-35.15625,0.0
1740789303.9578469,-28.80859375,-37.59765625,-32.71484375,-29.78515625,0.0
1740789303.961753,-28.80859375,-45.41015625,-32.2265625,-21.484375,0.0
1740789303.9656587,-24.4140625,-26.3671875,-31.73828125,-26.3671875,0.0
1740789303.9695644,-12.20703125,-21.97265625,-36.62109375,-24.4140625,0.0
1740789303.9734702,-14.6484375,-33.203125,-40.0390625,-18.5546875,0.0
1740789303.9773788,-17.578125,-33.69140625,-32.71484375,-17.578125,0.0
1740789303.9812846,-21.97265625,-35.15625,-34.1796875,-16.6015625,0.0
1740789303.9851906,-20.5078125,-40.0390625,-37.109375,-16.11328125,0.0
1740789303.9890964,-11.71875,-40.52734375,-41.50390625,-19.53125,0.0
1740789303.9930022,-11.23046875,-37.59765625,-43.45703125,-17.08984375,0.0
1740789303.996908,-16.6015625,-30.76171875,-38.57421875,-13.18359375,0.0
1740789304.000814,-13.671875,-25.390625,-38.57421875,-11.23046875,0.0
1740789304.0047197,-10.7421875,-41.50390625,-37.59765625,-16.6015625,0.0
1740789304.0086255,-14.16015625,-40.0390625,-35.15625,-20.5078125,0.0
1740789304.0125313,-14.6484375,-28.80859375,-33.69140625,-16.11328125,0.0
1740789304.0164373,-13.671875,-38.57421875,-36.1328125,-13.671875,0.0
1740789304.020343,-13.18359375,-44.921875,-37.59765625,-20.99609375,0.0
1740789304.0242512,-16.11328125,-37.109375,-37.109375,-24.4140625,0.0
1740789304.028157,-14.16015625,-35.64453125,-35.64453125,-19.04296875,0.0
1740789304.032063,-14.6484375,-51.26953125,-41.015625,-23.92578125,0.0
1740789304.0359688,-19.53125,-45.8984375,-46.875,-28.3203125,0.0
1740789304.0398746,-21.97265625,-39.55078125,-43.45703125,-23.92578125,0.0
1740789304.0437803,-16.11328125,-41.9921875,-41.50390625,-23.4375,0.0
1740789304.0476863,-12.6953125,-45.41015625,-43.45703125,-25.390625,0.0
1740789304.051592,-25.87890625,-46.875,-41.015625,-25.390625,0.0
1740789304.055498,-34.66796875,-32.71484375,-34.66796875,-24.4140625,0.0
1740789304.0594037,-20.99609375,-31.25,-39.55078125,-24.4140625,0.0
1740789304.0633097,-20.99609375,-33.203125,-46.38671875,-29.296875,0.0
1740789304.0672154,-32.71484375,-35.64453125,-47.36328125,-29.78515625,0.0
1740789304.0711236,-32.2265625,-35.64453125,-46.875,-32.2265625,0.0
1740789304.0750294,-26.85546875,-30.2734375,-39.55078125,-31.25,0.0
1740789304.0789351,-21.97265625,-31.25,-31.73828125,-22.4609375,0.0
1740789304.082841,-18.06640625,-29.78515625,-39.55078125,-24.4140625,0.0
1740789304.086747,-20.5078125,-30.76171875,-44.43359375,-30.2734375,0.0
1740789304.0906527,-20.01953125,-33.203125,-41.9921875,-30.2734375,0.0
1740789304.0945585,-20.01953125,-37.109375,-42.96875,-27.83203125,0.0
1740789304.0984643,-23.4375,-32.71484375,-42.48046875,-30.76171875,0.0
1740789304.1023703,-24.90234375,-23.92578125,-45.8984375,-35.64453125,0.0
1740789304.106276,-24.4140625,-32.2265625,-48.33984375,-32.71484375,0.0
1740789304.1101818,-24.90234375,-37.109375,-43.45703125,-28.80859375,0.0
1740789304.1140876,-25.87890625,-31.25,-38.57421875,-28.80859375,0.0
1740789304.1179955,-19.04296875,-21.97265625,-37.109375,-30.2734375,0.0
1740789304.1219013,-25.87890625,-30.2734375,-42.48046875,-31.73828125,0.0
1740789304.125807,-28.3203125,-37.109375,-46.38671875,-31.73828125,0.0
1740789304.1297128,-21.97265625,-24.90234375,-45.41015625,-31.73828125,0.0
1740789304.1336188,-25.390625,-20.99609375,-42.96875,-38.0859375,0.0
1740789304.1375246,-24.90234375,-28.3203125,-43.9453125,-37.109375,0.0
1740789304.1414304,-28.80859375,-37.109375,-48.828125,-37.59765625,0.0
1740789304.1453362,-24.90234375,-30.76171875,-40.52734375,-30.2734375,0.0
1740789304.1492422,-20.99609375,-27.83203125,-32.71484375,-27.34375,0.0
1740789304.153148,-28.80859375,-34.1796875,-41.50390625,-31.73828125,0.0
1740789304.1570537,-31.73828125,-34.1796875,-42.96875,-31.25,0.0
1740789304.1609595,-30.2734375,-29.296875,-38.57421875,-33.69140625,0.0
1740789304.1648667,-27.34375,-33.69140625,-39.55078125,-32.2265625,0.0
1740789304.1687725,-20.01953125,-29.296875,-35.64453125,-30.76171875,0.0
1740789304.1726785,-30.2734375,-26.85546875,-40.52734375,-34.1796875,0.0
1740789304.1765842,-33.203125,-38.0859375,-49.31640625,-37.59765625,0.0
1740789304.18049,-24.4140625,-42.48046875,-47.8515625,-33.69140625,0.0
1740789304.184396,-23.4375,-41.9921875,-46.875,-34.1796875,0.0
1740789304.1883018,-25.87890625,-39.55078125,-49.31640625,-38.0859375,0.0
1740789304.1922076,-28.80859375,-33.69140625,-46.875,-37.59765625,0.0
1740789304.1961133,-25.390625,-26.3671875,-41.9921875,-34.66796875,0.0
1740789304.2000194,-32.2265625,-39.0625,-40.52734375,-32.71484375,0.0
1740789304.2039251,-38.0859375,-53.22265625,-42.48046875,-41.015625,0.0
1740789304.207831,-29.78515625,-43.9453125,-47.36328125,-43.45703125,0.0
1740789304.2117407,-24.90234375,-41.015625,-49.31640625,-36.1328125,0.0
1740789304.2156465,-32.2265625,-40.0390625,-45.8984375,-37.109375,0.0
1740789304.2195523,-28.3203125,-37.109375,-38.57421875,-30.2734375,0.0
1740789304.223458,-18.06640625,-33.203125,-34.66796875,-22.4609375,0.0
1740789304.227364,-23.92578125,-33.203125,-31.73828125,-17.08984375,0.0
1740789304.2312698,-24.4140625,-35.15625,-33.69140625,-18.5546875,0.0
1740789304.2351756,-21.97265625,-29.296875,-37.59765625,-26.85546875,0.0
1740789304.2390816,-28.80859375,-31.73828125,-36.1328125,-33.203125,0.0
1740789304.2429874,-30.76171875,-38.57421875,-40.52734375,-31.25,0.0
1740789304.2468932,-29.78515625,-40.0390625,-34.66796875,-21.97265625,0.0
1740789304.250799,-24.4140625,-30.2734375,-30.2734375,-21.484375,0.0
1740789304.254705,-23.4375,-29.296875,-35.15625,-27.34375,0.0
1740789304.2586143,-30.2734375,-38.0859375,-43.45703125,-32.2265625,0.0
1740789304.26252,-40.52734375,-43.45703125,-51.26953125,-41.015625,0.0
1740789304.2664258,-42.96875,-44.921875,-53.22265625,-44.43359375,0.0
1740789304.2703319,-40.52734375,-42.96875,-54.6875,-44.43359375,0.0
1740789304.2742376,-41.9921875,-40.52734375,-53.7109375,-44.43359375,0.0
1740789304.2781434,-40.52734375,-40.52734375,-47.36328125,-37.109375,0.0
1740789304.2820492,-33.69140625,-37.109375,-38.57421875,-34.66796875,0.0
1740789304.2859552,-31.73828125,-34.1796875,-39.55078125,-33.69140625,0.0
1740789304.289861,-28.80859375,-39.0625,-46.875,-29.296875,0.0
1740789304.2937667,-23.4375,-33.203125,-42.96875,-25.87890625,0.0
1740789304.2976725,-22.94921875,-29.296875,-39.55078125,-25.390625,0.0
1740789304.3015785,-23.4375,-34.1796875,-43.9453125,-29.78515625,0.0
1740789304.3054876,0.0,-26.85546875,-37.59765625,-31.73828125,0.0
1740789304.3093934,0.0,-24.90234375,-37.59765625,-28.3203125,0.0
1740789304.3132994,0.0,-24.4140625,-40.52734375,-29.296875,0.0
1740789304.3172052,0.0,-24.4140625,-39.55078125,-24.90234375,0.0
1740789304.321111,0.0,-33.69140625,-41.50390625,-26.3671875,0.0
1740789304.3250167,0.0,-39.0625,-41.9921875,-35.15625,0.0
1740789304.3289227,0.0,-31.25,-36.62109375,-27.83203125,0.0
1740789304.3328285,0.0,-32.71484375,-40.0390625,-22.94921875,0.0
1740789304.3367343,0.0,-39.0625,-39.0625,-24.4140625,0.0
1740789304.3406403,0.0,-35.15625,-37.109375,-23.92578125,0.0
1740789304.344546,0.0,-37.59765625,-42.48046875,-27.83203125,0.0
1740789304.3484519,0.0,-39.0625,-36.62109375,-32.71484375,0.0
1740789304.3523605,-21.97265625,-33.69140625,-38.0859375,-32.71484375,0.0
1740789304.3562663,-30.2734375,-26.3671875,-40.52734375,-36.1328125,0.0
1740789304.360172,-30.76171875,-30.2734375,-44.43359375,-38.57421875,0.0
1740789304.364078,-30.76171875,-37.109375,-52.24609375,-40.52734375,0.0
1740789304.3679838,-30.76171875,-31.25,-50.78125,-35.64453125,0.0
1740789304.3718896,-25.87890625,-23.4375,-46.38671875,-28.3203125,0.0
1740789304.3757954,-22.4609375,-25.87890625,-42.48046875,-26.85546875,0.0
1740789304.3797014,-24.4140625,-33.69140625,-42.96875,-22.94921875,0.0
1740789304.3836071,-21.97265625,-27.83203125,-37.109375,-21.97265625,0.0
1740789304.387513,-18.5546875,-26.3671875,-32.71484375,-19.04296875,0.0
1740789304.3914187,-23.92578125,-37.109375,-45.41015625,-18.06640625,0.0
1740789304.3953247,-28.80859375,-35.15625,-48.33984375,-23.4375,0.0
1740789304.3992329,-25.87890625,-35.15625,-44.921875,-27.34375,0.0
1740789304.4031386,-20.01953125,-36.62109375,-40.0390625,-32.2265625,0.0
1740789304.4070446,-15.625,-41.015625,-35.64453125,-34.1796875,0.0
1740789304.4109504,-20.01953125,-43.9453125,-35.64453125,-35.15625,0.0
1740789304.4148562,-16.6015625,-35.15625,-36.62109375,-30.76171875,0.0
1740789304.418762,-13.671875,-38.0859375,-35.15625,-23.92578125,0.0
1740789304.422668,-20.5078125,-34.66796875,-36.62109375,-28.80859375,0.0
1740789304.4265738,-23.92578125,-30.2734375,-40.52734375,-31.73828125,0.0
1740789304.4304795,-20.5078125,-31.25,-41.50390625,-25.87890625,0.0
1740789304.4343853,-18.06640625,-32.2265625,-40.0390625,-22.94921875,0.0
1740789304.4382913,-19.53125,-36.62109375,-34.66796875,-17.578125,0.0
1740789304.442197,-23.92578125,-36.62109375,-38.57421875,-23.92578125,0.0
1740789304.4461052,-25.390625,-36.62109375,-41.015625,-28.80859375,0.0
1740789304.450011,-22.94921875,-26.85546875,-36.1328125,-19.04296875,0.0
1740789304.4539168,-26.85546875,-31.73828125,-38.0859375,-21.97265625,0.0
1740789304.4578226,-32.71484375,-37.109375,-41.015625,-24.4140625,0.0
1740789304.4617286,-22.4609375,-18.5546875,-38.57421875,-20.99609375,0.0
1740789304.4656343,-17.08984375,-27.83203125,-38.0859375,-21.97265625,0.0
1740789304.46954,-24.90234375,-47.8515625,-41.015625,-25.390625,0.0
1740789304.473446,-15.13671875,-39.0625,-40.0390625,-17.08984375,0.0
1740789304.477352,-4.39453125,-23.92578125,-33.203125,-11.71875,0.0
1740789304.4812577,-17.578125,-36.1328125,-36.62109375,-23.92578125,0.0
1740789304.4851635,-27.83203125,-44.43359375,-41.9921875,-29.296875,0.0
1740789304.4890692,-23.4375,-36.62109375,-40.52734375,-30.2734375,0.0
1740789304.4929776,-31.25,-33.69140625,-41.50390625,-33.69140625,0.0
1740789304.4968834,-38.57421875,-39.55078125,-38.57421875,-35.15625,0.0
1740789304.5007892,-36.1328125,-41.015625,-35.15625,-34.1796875,0.0
1740789304.5046952,-29.78515625,-36.62109375,-34.66796875,-26.3671875,0.0
1740789304.508601,-34.1796875,-36.1328125,-33.203125,-23.4375,0.0
1740789304.5125067,-32.71484375,-45.8984375,-39.0625,-26.3671875,0.0
1740789304.5164127,-25.390625,-51.7578125,-41.015625,-28.80859375,0.0
1740789304.5203185,-30.76171875,-36.62109375,-41.50390625,-38.57421875,0.0
1740789304.5242243,-24.90234375,-20.99609375,-38.0859375,-36.62109375,0.0
1740789304.52813,-20.99609375,-25.87890625,-35.64453125,-30.2734375,0.0
1740789304.532036,-27.34375,-31.25,-34.1796875,-34.66796875,0.0
1740789304.5359418,-21.484375,-27.83203125,-30.76171875,-32.71484375,0.0
1740789304.5398488,-16.11328125,-29.296875,-35.64453125,-27.34375,0.0
1740789304.5437548,-19.04296875,-31.73828125,-39.0625,-25.87890625,0.0
1740789304.5476606,-12.20703125,-29.296875,-35.15625,-29.78515625,0.0
1740789304.5515664,-9.765625,-19.04296875,-33.203125,-31.73828125,0.0
1740789304.5554721,-11.71875,-18.5546875,-35.64453125,-34.1796875,0.0
1740789304.5593781,-9.765625,-29.78515625,-30.76171875,-31.25,0.0
1740789304.563284,-18.5546875,-39.55078125,-28.3203125,-27.83203125,0.0
1740789304.5671897,-20.99609375,-31.73828125,-36.62109375,-33.203125,0.0
1740789304.5710957,-28.80859375,-41.9921875,-42.96875,-34.1796875,0.0
1740789304.5750015,-40.0390625,-45.8984375,-43.9453125,-36.1328125,0.0
1740789304.5789073,-32.2265625,-31.73828125,-45.41015625,-39.55078125,0.0
1740789304.582813,-28.80859375,-33.203125,-41.9921875,-33.69140625,0.0
1740789304.5867229,-30.2734375,-36.62109375,-38.0859375,-29.78515625,0.0
1740789304.5906286,-28.80859375,-35.15625,-42.96875,-38.0859375,0.0
1740789304.5945344,-28.3203125,-33.69140625,-43.45703125,-38.57421875,0.0
1740789304.5984404,-33.69140625,-33.203125,-40.52734375,-39.0625,0.0
1740789304.6023462,-38.0859375,-36.62109375,-38.57421875,-40.52734375,0.0
1740789304.606252,-37.109375,-43.9453125,-38.57421875,-32.71484375,0.0
1740789304.610158,-35.15625,-43.45703125,-41.9921875,-37.59765625,0.0
1740789304.6140637,-29.78515625,-35.15625,-40.52734375,-38.57421875,0.0
1740789304.6179695,-35.15625,-41.50390625,-33.69140625,-32.2265625,0.0
1740789304.6218753,-40.0390625,-49.31640625,-39.0625,-38.57421875,0.0
1740789304.6257813,-28.3203125,-32.2265625,-38.0859375,-40.52734375,0.0
1740789304.629687,-29.296875,-30.2734375,-30.2734375,-36.1328125,0.0
1740789304.6335967,-28.3203125,-36.62109375,-31.25,-35.15625,0.0
1740789304.6375024,-24.4140625,-33.69140625,-32.71484375,-29.296875,0.0
1740789304.6414082,-27.34375,-23.4375,-35.64453125,-26.3671875,0.0
1740789304.6453142,-25.390625,-26.3671875,-33.69140625,-28.3203125,0.0
1740789304.64922,-33.203125,-39.0625,-34.66796875,-29.78515625,0.0
1740789304.6531258,-35.15625,-39.55078125,-44.921875,-30.76171875,0.0
1740789304.6570315,-21.97265625,-32.2265625,-43.45703125,-24.90234375,0.0
1740789304.6609375,-26.3671875,-29.78515625,-42.48046875,-29.296875,0.0
1740789304.6648433,-31.25,-37.109375,-48.828125,-34.1796875,0.0
1740789304.668749,-31.73828125,-33.69140625,-44.43359375,-29.296875,0.0
1740789304.6726549,-38.57421875,-28.3203125,-40.0390625,-33.203125,0.0
1740789304.6765609,-36.62109375,-32.71484375,-41.015625,-35.64453125,0.0
1740789304.68047,-37.59765625,-39.55078125,-42.96875,-30.2734375,0.0
1740789304.6843758,-32.71484375,-38.57421875,-46.38671875,-33.69140625,0.0
1740789304.6882818,-19.53125,-34.1796875,-45.8984375,-37.59765625,0.0
1740789304.6921875,-22.4609375,-31.73828125,-44.43359375,-37.59765625,0.0
1740789304.6960933,-23.92578125,-28.80859375,-42.48046875,-38.0859375,0.0
1740789304.699999,-19.53125,-21.97265625,-34.66796875,-35.15625,0.0
1740789304.703905,-28.3203125,-9.27734375,-38.0859375,-38.57421875,0.0
1740789304.7078109,-28.3203125,-18.06640625,-48.33984375,-34.66796875,0.0
1740789304.7117167,-20.5078125,-32.71484375,-50.78125,-28.3203125,0.0
1740789304.7156224,-25.87890625,-23.92578125,-44.43359375,-25.390625,0.0
1740789304.7195284,-20.99609375,-21.97265625,-38.57421875,-24.4140625,0.0
1740789304.7234342,-18.06640625,-24.90234375,-40.0390625,-28.3203125,0.0
1740789304.7273457,-22.4609375,-25.87890625,-41.9921875,-25.390625,0.0
1740789304.7312517,-25.390625,-17.578125,-41.9921875,-30.76171875,0.0
1740789304.7351575,-26.85546875,-15.13671875,-44.921875,-35.64453125,0.0
1740789304.7390633,-19.53125,-20.01953125,-49.31640625,-29.296875,0.0
1740789304.742969,-16.6015625,-23.4375,-43.45703125,-23.92578125,0.0
1740789304.746875,-20.5078125,-27.83203125,-37.109375,-24.90234375,0.0
1740789304.7507808,-19.04296875,-27.34375,-40.0390625,-36.1328125,0.0
1740789304.7546866,-24.4140625,-34.1796875,-47.36328125,-38.57421875,0.0
1740789304.7585924,-31.25,-30.76171875,-52.24609375,-38.0859375,0.0
1740789304.7624984,-28.80859375,-21.484375,-51.26953125,-38.57421875,0.0
1740789304.7664042,-20.99609375,-25.87890625,-45.41015625,-33.203125,0.0
1740789304.77031,-26.3671875,-28.80859375,-40.0390625,-31.25,0.0
1740789304.7742183,-24.4140625,-30.76171875,-38.57421875,-26.3671875,0.0
1740789304.7781243,-19.04296875,-32.2265625,-42.48046875,-24.90234375,0.0
1740789304.78203,-23.4375,-33.203125,-44.43359375,-29.78515625,0.0
1740789304.7859359,-18.5546875,-31.73828125,-47.36328125,-33.203125,0.0
1740789304.7898417,-15.625,-27.34375,-48.33984375,-29.78515625,0.0
1740789304.7937477,-22.4609375,-25.390625,-48.33984375,-29.296875,0.0
1740789304.7976534,-19.53125,-27.83203125,-49.31640625,-28.80859375,0.0
1740789304.8015592,-19.53125,-36.1328125,-47.8515625,-28.80859375,0.0
1740789304.8054652,-25.87890625,-39.55078125,-50.29296875,-32.2265625,0.0
1740789304.809371,-22.94921875,-34.66796875,-48.33984375,-31.73828125,0.0
1740789304.8132768,-24.4140625,-42.96875,-48.33984375,-33.69140625,0.0
1740789304.8171825,-30.2734375,-49.31640625,-49.8046875,-33.69140625,0.0
1740789304.8210907,-24.90234375,-35.15625,-42.96875,-31.73828125,0.0
1740789304.8249965,-24.90234375,-29.78515625,-36.1328125,-30.76171875,0.0
1740789304.8289025,-31.25,-34.66796875,-40.0390625,-30.76171875,0.0
1740789304.8328083,-27.34375,-35.15625,-44.43359375,-34.1796875,0.0
1740789304.836714,-19.04296875,-29.296875,-40.52734375,-26.85546875,0.0
1740789304.8406198,-19.53125,-26.3671875,-36.1328125,-21.484375,0.0
