timestamps,TP9,AF7,AF8,TP10,Right AUX
1740790135.3573122,-15.625,-53.22265625,-37.59765625,-24.90234375,0.0
1740790135.361218,-19.04296875,-47.36328125,-40.52734375,-31.25,0.0
1740790135.365124,-24.90234375,-42.48046875,-41.015625,-33.69140625,0.0
1740790135.36903,-17.578125,-41.9921875,-38.0859375,-31.73828125,0.0
1740790135.372936,-13.671875,-39.55078125,-33.69140625,-29.78515625,0.0
1740790135.3768418,-23.92578125,-51.7578125,-36.1328125,-27.83203125,0.0
1740790135.3807478,-28.3203125,-49.31640625,-40.52734375,-31.73828125,0.0
1740790135.3846538,-26.3671875,-38.57421875,-40.52734375,-29.78515625,0.0
1740790135.3885598,-19.53125,-48.33984375,-41.015625,-28.3203125,0.0
1740790135.3924656,-21.484375,-38.57421875,-38.57421875,-33.203125,0.0
1740790135.3963716,-26.85546875,-35.64453125,-32.71484375,-33.69140625,0.0
1740790135.4002776,-25.390625,-50.29296875,-38.0859375,-34.1796875,0.0
1740790135.4041848,-28.3203125,-43.45703125,-39.55078125,-37.59765625,0.0
1740790135.4080908,-30.76171875,-35.15625,-35.64453125,-37.59765625,0.0
1740790135.4119968,-31.25,-40.52734375,-38.57421875,-36.1328125,0.0
1740790135.4159029,-23.4375,-47.8515625,-36.62109375,-29.78515625,0.0
1740790135.4198086,-19.04296875,-45.41015625,-28.3203125,-25.87890625,0.0
1740790135.4237146,-29.296875,-44.921875,-35.15625,-27.83203125,0.0
1740790135.4276206,-24.90234375,-43.45703125,-38.57421875,-29.296875,0.0
1740790135.4315267,-21.97265625,-45.8984375,-40.0390625,-40.52734375,0.0
1740790135.4354324,-29.78515625,-47.36328125,-42.48046875,-48.828125,0.0
1740790135.4393384,-27.83203125,-38.57421875,-29.78515625,-43.45703125,0.0
1740790135.4432445,-22.94921875,-46.38671875,-30.76171875,-35.64453125,0.0
1740790135.4471505,-28.80859375,-50.78125,-38.57421875,-36.1328125,0.0
1740790135.4510577,-25.87890625,-38.57421875,-33.69140625,-29.78515625,0.0
1740790135.4549637,-12.6953125,-36.1328125,-30.76171875,-20.01953125,0.0
1740790135.4588697,-8.7890625,-39.0625,-37.59765625,-20.5078125,0.0
1740790135.4627755,-13.671875,-41.9921875,-41.50390625,-24.90234375,0.0
1740790135.4666815,-10.7421875,-40.52734375,-41.50390625,-23.4375,0.0
1740790135.4705875,-16.6015625,-38.0859375,-39.0625,-27.34375,0.0
1740790135.4744935,-17.08984375,-34.1796875,-37.109375,-28.80859375,0.0
1740790135.4783993,-15.625,-38.0859375,-43.45703125,-24.4140625,0.0
1740790135.4823053,-20.5078125,-31.73828125,-35.64453125,-27.34375,0.0
1740790135.4862113,-17.578125,-31.73828125,-33.203125,-25.390625,0.0
1740790135.4901173,-14.6484375,-36.1328125,-37.109375,-24.4140625,0.0
1740790135.494023,-17.578125,-32.2265625,-38.0859375,-35.15625,0.0
1740790135.4979315,-20.99609375,-38.57421875,-38.57421875,-40.52734375,0.0
1740790135.5018375,-28.3203125,-39.55078125,-37.109375,-39.55078125,0.0
1740790135.5057435,-25.390625,-32.2265625,-40.52734375,-36.62109375,0.0
1740790135.5096495,-19.53125,-31.73828125,-38.57421875,-35.64453125,0.0
1740790135.5135553,-23.4375,-38.57421875,-38.57421875,-34.1796875,0.0
1740790135.5174613,-26.3671875,-44.921875,-41.50390625,-33.203125,0.0
1740790135.5213673,-28.3203125,-50.29296875,-43.9453125,-32.71484375,0.0
1740790135.5252733,-31.73828125,-53.7109375,-44.43359375,-38.57421875,0.0
1740790135.529179,-27.34375,-37.59765625,-30.76171875,-40.0390625,0.0
1740790135.533085,-24.4140625,-35.64453125,-32.2265625,-34.66796875,0.0
1740790135.5369911,-26.85546875,-40.52734375,-38.57421875,-36.1328125,0.0
1740790135.5408971,-27.83203125,-36.62109375,-36.62109375,-45.41015625,0.0
1740790135.5448039,-24.4140625,-28.80859375,-34.66796875,-40.0390625,0.0
1740790135.5487099,-23.4375,-29.78515625,-36.1328125,-36.1328125,0.0
1740790135.552616,-28.3203125,-39.0625,-41.50390625,-38.0859375,0.0
1740790135.556522,-27.34375,-44.921875,-43.45703125,-30.2734375,0.0
1740790135.5604277,-26.3671875,-43.9453125,-44.43359375,-29.296875,0.0
1740790135.5643337,-29.296875,-49.31640625,-47.8515625,-34.66796875,0.0
1740790135.5682397,-29.78515625,-51.7578125,-44.43359375,-37.109375,0.0
1740790135.5721457,-25.87890625,-39.55078125,-33.203125,-29.78515625,0.0
1740790135.5760515,-28.80859375,-41.50390625,-33.203125,-28.3203125,0.0
1740790135.5799575,-27.34375,-52.24609375,-40.52734375,-32.2265625,0.0
1740790135.5838635,-22.94921875,-63.4765625,-44.921875,-27.83203125,0.0
1740790135.5877695,-25.390625,-49.31640625,-39.55078125,-35.15625,0.0
1740790135.5916762,-33.69140625,-41.9921875,-41.9921875,-46.875,0.0
1740790135.5955822,-36.62109375,-52.734375,-47.8515625,-47.8515625,0.0
1740790135.599488,-27.83203125,-49.8046875,-43.9453125,-45.8984375,0.0
1740790135.603394,-25.390625,-43.9453125,-42.48046875,-42.48046875,0.0
1740790135.6073,-26.85546875,-45.41015625,-40.52734375,-34.1796875,0.0
1740790135.611206,-28.80859375,-47.8515625,-44.43359375,-33.203125,0.0
1740790135.6151118,-32.71484375,-53.7109375,-45.41015625,-37.59765625,0.0
1740790135.6190178,-29.296875,-50.29296875,-36.62109375,-41.015625,0.0
1740790135.6229239,-22.94921875,-48.33984375,-34.66796875,-32.2265625,0.0
1740790135.6268299,-28.80859375,-52.24609375,-40.52734375,-30.76171875,0.0
1740790135.6307359,-30.76171875,-43.45703125,-39.0625,-41.9921875,0.0
1740790135.6346416,-28.3203125,-38.57421875,-38.57421875,-43.45703125,0.0
1740790135.6385498,-30.2734375,-41.50390625,-40.52734375,-34.66796875,0.0
1740790135.6424558,-28.3203125,-50.78125,-44.43359375,-33.203125,0.0
1740790135.6463616,-33.203125,-53.7109375,-46.875,-48.828125,0.0
1740790135.6502676,-34.66796875,-47.8515625,-45.41015625,-53.7109375,0.0
1740790135.6541736,-21.97265625,-43.45703125,-45.41015625,-45.41015625,0.0
1740790135.6580796,-16.11328125,-43.9453125,-44.921875,-31.73828125,0.0
1740790135.6619854,-21.97265625,-45.41015625,-41.9921875,-32.2265625,0.0
1740790135.6658914,-23.92578125,-43.9453125,-39.0625,-42.48046875,0.0
1740790135.6697974,-21.484375,-46.875,-38.57421875,-41.015625,0.0
1740790135.6737034,-21.484375,-56.640625,-42.48046875,-35.64453125,0.0
1740790135.6776092,-20.99609375,-42.48046875,-33.203125,-36.1328125,0.0
1740790135.6815152,-15.625,-35.15625,-31.73828125,-32.71484375,0.0
1740790135.685423,-12.20703125,-38.0859375,-36.1328125,-30.2734375,0.0
1740790135.689329,-14.6484375,-33.69140625,-35.15625,-30.76171875,0.0
1740790135.693235,-18.5546875,-35.15625,-34.66796875,-32.2265625,0.0
1740790135.6971407,-18.5546875,-41.9921875,-34.66796875,-41.50390625,0.0
1740790135.7010467,-21.97265625,-42.96875,-37.109375,-41.9921875,0.0
1740790135.7049527,-25.87890625,-43.45703125,-40.52734375,-35.64453125,0.0
1740790135.7088587,-20.5078125,-41.9921875,-36.1328125,-40.0390625,0.0
1740790135.7127645,-19.04296875,-34.1796875,-29.78515625,-41.9921875,0.0
1740790135.7166705,-22.4609375,-42.48046875,-36.62109375,-43.9453125,0.0
1740790135.7205765,-18.06640625,-44.43359375,-40.52734375,-41.50390625,0.0
1740790135.7244825,-7.8125,-27.83203125,-27.83203125,-30.2734375,0.0
1740790135.7283883,-11.71875,-33.203125,-32.2265625,-26.3671875,0.0
1740790135.732296,-20.01953125,-42.96875,-39.0625,-28.3203125,0.0
1740790135.736202,-20.99609375,-35.64453125,-36.62109375,-25.87890625,0.0
1740790135.7401078,-26.85546875,-31.73828125,-33.203125,-31.25,0.0
1740790135.7440138,-23.92578125,-39.0625,-34.1796875,-36.62109375,0.0
1740790135.7479198,-22.4609375,-45.8984375,-36.62109375,-38.0859375,0.0
1740790135.7518258,-31.25,-46.875,-38.0859375,-40.52734375,0.0
1740790135.7557316,-29.78515625,-41.50390625,-39.0625,-36.62109375,0.0
1740790135.7596376,-20.99609375,-33.69140625,-37.59765625,-33.69140625,0.0
1740790135.7635436,-20.99609375,-42.96875,-45.41015625,-35.15625,0.0
1740790135.7674496,-26.3671875,-37.59765625,-43.45703125,-33.69140625,0.0
1740790135.7713554,-24.4140625,-26.3671875,-36.62109375,-29.78515625,0.0
1740790135.7752614,-30.76171875,-31.73828125,-40.52734375,-31.25,0.0
1740790135.7791688,-32.71484375,-34.1796875,-40.52734375,-31.73828125,0.0
1740790135.7830746,-28.80859375,-29.78515625,-36.1328125,-36.1328125,0.0
1740790135.7869806,-28.3203125,-30.76171875,-40.0390625,-36.62109375,0.0
1740790135.7908866,-26.85546875,-36.62109375,-42.48046875,-36.1328125,0.0
1740790135.7947927,-21.97265625,-35.15625,-36.62109375,-39.0625,0.0
1740790135.7986984,-20.5078125,-37.59765625,-43.45703125,-38.0859375,0.0
1740790135.8026044,-23.92578125,-38.0859375,-44.43359375,-36.62109375,0.0
1740790135.8065104,-24.90234375,-44.43359375,-48.33984375,-32.71484375,0.0
1740790135.8104165,-26.85546875,-42.48046875,-51.26953125,-32.71484375,0.0
1740790135.8143222,-20.5078125,-33.203125,-38.57421875,-35.15625,0.0
1740790135.8182282,-21.97265625,-42.48046875,-39.0625,-29.296875,0.0
1740790135.8221343,-29.78515625,-51.26953125,-43.9453125,-31.25,0.0
1740790135.8260415,-34.66796875,-52.734375,-42.96875,-32.71484375,0.0
1740790135.8299472,-39.0625,-48.828125,-39.0625,-34.66796875,0.0
1740790135.8338532,-34.1796875,-47.36328125,-38.0859375,-34.1796875,0.0
1740790135.8377593,-28.80859375,-54.6875,-38.0859375,-30.76171875,0.0
1740790135.8416653,-30.2734375,-47.36328125,-39.0625,-43.9453125,0.0
1740790135.845571,-34.66796875,-42.96875,-41.50390625,-48.828125,0.0
1740790135.849477,-41.015625,-51.26953125,-45.8984375,-46.38671875,0.0
1740790135.853383,-38.57421875,-53.22265625,-47.36328125,-38.57421875,0.0
1740790135.857289,-39.0625,-38.57421875,-44.921875,-39.0625,0.0
1740790135.8611948,-40.0390625,-32.71484375,-44.921875,-47.36328125,0.0
1740790135.8651009,-34.1796875,-39.0625,-41.015625,-42.96875,0.0
1740790135.8690069,-33.203125,-37.59765625,-34.66796875,-37.109375,0.0
1740790135.8729138,-28.3203125,-38.57421875,-37.109375,-33.69140625,0.0
1740790135.8768198,-19.53125,-41.50390625,-40.0390625,-30.2734375,0.0
1740790135.8807259,-24.90234375,-46.875,-38.0859375,-32.2265625,0.0
1740790135.8846316,-26.85546875,-44.921875,-30.2734375,-36.62109375,0.0
1740790135.8885376,-24.4140625,-35.64453125,-24.90234375,-34.1796875,0.0
1740790135.8924437,-20.99609375,-37.59765625,-26.3671875,-26.3671875,0.0
1740790135.8963497,-15.13671875,-41.50390625,-26.3671875,-22.94921875,0.0
1740790135.9002554,-21.484375,-37.59765625,-25.87890625,-23.92578125,0.0
1740790135.9041615,-23.92578125,-30.2734375,-24.90234375,-28.80859375,0.0
1740790135.9080675,-15.13671875,-27.34375,-22.4609375,-27.83203125,0.0
1740790135.9119735,-17.578125,-38.0859375,-29.296875,-27.34375,0.0
1740790135.9158792,-21.484375,-40.52734375,-34.66796875,-26.85546875,0.0
1740790135.9197862,-21.484375,-32.2265625,-29.78515625,-25.87890625,0.0
1740790135.9236922,-21.97265625,-37.59765625,-30.2734375,-26.85546875,0.0
1740790135.927598,-11.23046875,-42.96875,-32.71484375,-17.08984375,0.0
1740790135.931504,-13.671875,-40.0390625,-33.69140625,-20.5078125,0.0
1740790135.93541,-21.484375,-39.55078125,-34.66796875,-27.83203125,0.0
1740790135.939316,-21.484375,-42.96875,-35.64453125,-24.4140625,0.0
1740790135.9432218,-23.4375,-50.29296875,-40.0390625,-19.04296875,0.0
1740790135.9471278,-27.34375,-39.0625,-36.1328125,-25.87890625,0.0
1740790135.9510338,-30.2734375,-28.80859375,-28.3203125,-29.78515625,0.0
1740790135.9549398,-28.80859375,-43.45703125,-32.2265625,-27.34375,0.0
1740790135.9588456,-28.80859375,-48.828125,-38.57421875,-27.34375,0.0
1740790135.9627516,-31.25,-45.41015625,-37.109375,-30.2734375,0.0
1740790135.9666584,-27.83203125,-43.9453125,-36.1328125,-33.69140625,0.0
1740790135.9705644,-22.4609375,-46.875,-38.0859375,-30.2734375,0.0
1740790135.9744704,-25.390625,-44.921875,-36.62109375,-32.2265625,0.0
1740790135.9783764,-28.80859375,-42.96875,-35.15625,-36.62109375,0.0
1740790135.9822822,-35.15625,-44.43359375,-42.96875,-37.109375,0.0
1740790135.9861882,-37.109375,-51.7578125,-46.38671875,-30.76171875,0.0
1740790135.9900942,-35.64453125,-46.38671875,-46.875,-21.97265625,0.0
1740790135.9940002,-34.66796875,-32.71484375,-44.921875,-26.3671875,0.0
1740790135.997906,-32.2265625,-32.2265625,-40.52734375,-31.25,0.0
1740790136.001812,-25.87890625,-35.15625,-37.59765625,-26.3671875,0.0
1740790136.005718,-26.85546875,-34.66796875,-38.0859375,-27.34375,0.0
1740790136.009624,-30.2734375,-29.296875,-36.62109375,-34.66796875,0.0
1740790136.0135317,-24.4140625,-25.87890625,-33.203125,-35.64453125,0.0
1740790136.0174377,-28.3203125,-38.57421875,-37.59765625,-40.52734375,0.0
1740790136.0213437,-29.78515625,-45.41015625,-38.57421875,-39.0625,0.0
1740790136.0252497,-26.85546875,-45.41015625,-36.62109375,-33.69140625,0.0
1740790136.0291557,-27.34375,-46.875,-41.9921875,-39.0625,0.0
1740790136.0330615,-20.01953125,-48.33984375,-40.0390625,-34.66796875,0.0
1740790136.0369675,-16.6015625,-41.9921875,-37.59765625,-37.109375,0.0
1740790136.0408735,-18.06640625,-36.62109375,-39.55078125,-39.55078125,0.0
1740790136.0447795,-21.97265625,-38.57421875,-35.64453125,-37.109375,0.0
1740790136.0486853,-24.4140625,-50.29296875,-38.0859375,-31.25,0.0
1740790136.0525913,-18.06640625,-36.1328125,-33.203125,-30.2734375,0.0
1740790136.0564973,-10.25390625,-28.3203125,-30.2734375,-31.73828125,0.0
1740790136.060405,-18.06640625,-39.55078125,-38.0859375,-33.69140625,0.0
1740790136.064311,-20.5078125,-39.55078125,-38.57421875,-38.57421875,0.0
1740790136.0682168,-20.5078125,-40.0390625,-35.15625,-39.55078125,0.0
1740790136.0721228,-25.390625,-43.9453125,-36.62109375,-40.0390625,0.0
1740790136.0760288,-26.3671875,-45.8984375,-39.55078125,-39.0625,0.0
1740790136.0799348,-29.296875,-45.41015625,-40.52734375,-38.0859375,0.0
1740790136.0838406,-31.25,-43.9453125,-42.48046875,-40.0390625,0.0
1740790136.0877466,-27.34375,-35.64453125,-36.1328125,-40.52734375,0.0
1740790136.0916526,-26.85546875,-41.015625,-36.1328125,-38.57421875,0.0
1740790136.0955586,-28.3203125,-41.015625,-44.921875,-38.0859375,0.0
1740790136.0994644,-26.85546875,-29.78515625,-41.50390625,-47.8515625,0.0
1740790136.1033704,-21.97265625,-31.73828125,-39.0625,-46.38671875,0.0
1740790136.107278,-23.92578125,-29.78515625,-39.55078125,-44.921875,0.0
1740790136.111184,-27.83203125,-33.203125,-40.0390625,-54.6875,0.0
1740790136.11509,-28.80859375,-37.59765625,-41.50390625,-54.19921875,0.0
1740790136.118996,-36.1328125,-42.96875,-42.96875,-48.33984375,0.0
1740790136.122902,-33.203125,-43.45703125,-37.109375,-41.9921875,0.0
1740790136.1268077,-28.80859375,-40.0390625,-36.62109375,-43.45703125,0.0
1740790136.1307137,-37.59765625,-43.45703125,-41.50390625,-45.41015625,0.0
1740790136.1346197,-35.64453125,-45.41015625,-44.921875,-37.109375,0.0
1740790136.1385257,-33.203125,-53.7109375,-44.43359375,-30.2734375,0.0
1740790136.1424315,-34.1796875,-42.48046875,-32.71484375,-33.69140625,0.0
1740790136.1463375,-33.203125,-33.69140625,-30.76171875,-32.2265625,0.0
1740790136.1502435,-21.97265625,-41.015625,-30.76171875,-24.90234375,0.0
1740790136.154151,-21.484375,-39.55078125,-35.15625,-27.83203125,0.0
1740790136.1580567,-35.15625,-41.9921875,-39.0625,-32.71484375,0.0
1740790136.1619627,-35.64453125,-39.0625,-37.109375,-25.87890625,0.0
1740790136.1658688,-30.2734375,-41.015625,-34.66796875,-30.2734375,0.0
1740790136.1697748,-30.76171875,-47.8515625,-35.15625,-36.62109375,0.0
1740790136.1736805,-34.66796875,-55.17578125,-36.62109375,-35.64453125,0.0
1740790136.1775866,-31.73828125,-50.78125,-32.2265625,-33.69140625,0.0
1740790136.1814926,-26.3671875,-47.8515625,-34.1796875,-32.2265625,0.0
1740790136.1853986,-26.3671875,-49.8046875,-30.76171875,-40.0390625,0.0
1740790136.1893044,-22.94921875,-39.0625,-24.4140625,-41.015625,0.0
1740790136.1932104,-22.94921875,-40.52734375,-34.1796875,-31.73828125,0.0
1740790136.1971164,-23.92578125,-39.0625,-35.15625,-22.94921875,0.0
1740790136.2010236,-23.92578125,-33.69140625,-27.83203125,-26.85546875,0.0
1740790136.2049296,-23.92578125,-36.1328125,-30.2734375,-42.48046875,0.0
1740790136.2088356,-25.87890625,-41.50390625,-30.76171875,-43.9453125,0.0
1740790136.2127416,-31.25,-43.9453125,-27.83203125,-41.015625,0.0
1740790136.2166474,-20.5078125,-36.62109375,-25.390625,-42.48046875,0.0
1740790136.2205534,-14.6484375,-40.0390625,-21.484375,-40.52734375,0.0
1740790136.2244594,-22.4609375,-47.36328125,-25.87890625,-40.52734375,0.0
1740790136.2283654,-20.5078125,-50.29296875,-38.57421875,-37.109375,0.0
1740790136.2322712,-23.92578125,-41.50390625,-37.109375,-38.57421875,0.0
1740790136.2361772,-32.71484375,-38.57421875,-34.1796875,-42.48046875,0.0
1740790136.2400832,-29.78515625,-46.875,-41.9921875,-39.55078125,0.0
1740790136.2439892,-23.92578125,-47.36328125,-37.59765625,-31.25,0.0
1740790136.2478962,-23.4375,-42.48046875,-28.80859375,-25.87890625,0.0
1740790136.2518022,-22.4609375,-43.9453125,-33.69140625,-34.66796875,0.0
1740790136.255708,-17.08984375,-46.875,-39.55078125,-40.52734375,0.0
1740790136.259614,-20.01953125,-42.48046875,-39.55078125,-36.1328125,0.0
1740790136.26352,-28.3203125,-40.52734375,-40.52734375,-36.1328125,0.0
1740790136.267426,-29.78515625,-48.828125,-41.9921875,-37.109375,0.0
1740790136.2713318,-24.4140625,-53.22265625,-44.43359375,-31.73828125,0.0
1740790136.2752378,-28.3203125,-55.17578125,-47.36328125,-39.55078125,0.0
1740790136.2791438,-36.62109375,-48.828125,-37.109375,-45.8984375,0.0
1740790136.2830498,-33.203125,-40.52734375,-30.76171875,-36.1328125,0.0
1740790136.2869556,-30.2734375,-47.8515625,-39.0625,-35.15625,0.0
1740790136.2908616,-24.4140625,-52.734375,-36.1328125,-40.52734375,0.0
1740790136.2947686,-23.92578125,-43.45703125,-28.3203125,-43.45703125,0.0
1740790136.2986743,-28.80859375,-40.52734375,-33.203125,-40.52734375,0.0
1740790136.3025804,-29.78515625,-43.45703125,-35.64453125,-40.52734375,0.0
1740790136.3064864,-31.25,-40.0390625,-35.15625,-39.55078125,0.0
1740790136.3103924,-31.25,-38.0859375,-36.62109375,-38.0859375,0.0
1740790136.3142982,-35.15625,-42.48046875,-35.15625,-40.0390625,0.0
1740790136.3182042,-34.1796875,-57.6171875,-42.96875,-37.59765625,0.0
1740790136.3221102,-32.71484375,-51.7578125,-36.1328125,-38.57421875,0.0
1740790136.3260162,-25.87890625,-34.66796875,-28.3203125,-34.66796875,0.0
1740790136.329922,-20.99609375,-34.66796875,-33.203125,-31.25,0.0
1740790136.333828,-23.92578125,-35.64453125,-37.59765625,-31.25,0.0
1740790136.337734,-22.94921875,-32.71484375,-40.52734375,-29.296875,0.0
1740790136.3416407,-18.06640625,-30.76171875,-38.57421875,-28.80859375,0.0
1740790136.3455467,-8.7890625,-26.3671875,-36.1328125,-27.34375,0.0
1740790136.3494527,-13.671875,-35.15625,-32.71484375,-33.203125,0.0
1740790136.3533585,-24.90234375,-42.48046875,-30.76171875,-34.66796875,0.0
1740790136.3572645,-23.92578125,-35.64453125,-43.45703125,-37.59765625,0.0
1740790136.3611705,-22.94921875,-40.52734375,-49.31640625,-39.0625,0.0
1740790136.3650765,-23.4375,-48.828125,-41.50390625,-29.78515625,0.0
1740790136.3689823,-29.78515625,-44.921875,-36.1328125,-30.2734375,0.0
1740790136.3728883,-28.3203125,-35.15625,-38.0859375,-37.109375,0.0
1740790136.3767943,-21.484375,-41.50390625,-39.0625,-31.73828125,0.0
1740790136.3807003,-29.78515625,-42.48046875,-38.57421875,-29.78515625,0.0
1740790136.3846061,-32.2265625,-41.015625,-43.9453125,-28.3203125,0.0
1740790136.388514,-25.87890625,-46.38671875,-49.31640625,-32.2265625,0.0
1740790136.39242,-29.78515625,-50.78125,-50.29296875,-46.875,0.0
1740790136.396326,-31.73828125,-49.8046875,-45.8984375,-47.36328125,0.0
1740790136.400232,-27.34375,-47.8515625,-48.33984375,-43.45703125,0.0
1740790136.4041378,-28.3203125,-47.8515625,-44.43359375,-32.2265625,0.0
1740790136.4080439,-29.78515625,-53.7109375,-44.43359375,-29.296875,0.0
1740790136.4119499,-29.296875,-50.78125,-43.9453125,-37.59765625,0.0
1740790136.415856,-31.25,-42.96875,-37.109375,-37.109375,0.0
1740790136.4197617,-25.87890625,-38.57421875,-40.0390625,-30.2734375,0.0
1740790136.4236677,-21.97265625,-45.41015625,-53.22265625,-25.87890625,0.0
1740790136.4275737,-25.390625,-42.48046875,-49.8046875,-33.69140625,0.0
1740790136.4314797,-27.34375,-37.59765625,-43.9453125,-35.15625,0.0
1740790136.4353874,-25.87890625,-38.57421875,-50.29296875,-37.109375,0.0
1740790136.4392931,-21.484375,-31.73828125,-44.921875,-35.15625,0.0
1740790136.4431992,-23.92578125,-27.83203125,-40.0390625,-30.76171875,0.0
1740790136.4471052,-20.01953125,-29.296875,-32.2265625,-23.92578125,0.0
1740790136.4510112,-18.5546875,-36.62109375,-31.73828125,-27.34375,0.0
1740790136.4549172,-20.99609375,-42.96875,-34.66796875,-24.4140625,0.0
1740790136.458823,-29.296875,-41.9921875,-40.52734375,-26.3671875,0.0
1740790136.462729,-37.59765625,-29.296875,-43.45703125,-37.59765625,0.0
1740790136.466635,-30.76171875,-35.15625,-41.9921875,-34.66796875,0.0
1740790136.470541,-30.2734375,-47.36328125,-41.50390625,-34.66796875,0.0
1740790136.4744468,-26.3671875,-36.62109375,-35.64453125,-37.59765625,0.0
1740790136.4783528,-21.484375,-38.0859375,-39.0625,-42.96875,0.0
1740790136.4822605,-29.296875,-38.0859375,-45.41015625,-50.78125,0.0
1740790136.4861662,-35.15625,-34.1796875,-43.9453125,-49.31640625,0.0
1740790136.4900723,-32.71484375,-31.73828125,-39.55078125,-44.921875,0.0
1740790136.4939783,-27.83203125,-29.296875,-39.0625,-41.015625,0.0
1740790136.4978843,-24.90234375,-29.296875,-41.9921875,-39.0625,0.0
1740790136.50179,-25.390625,-23.4375,-43.45703125,-37.109375,0.0
1740790136.505696,-26.85546875,-20.5078125,-45.41015625,-35.64453125,0.0
1740790136.509602,-24.4140625,-24.4140625,-40.52734375,-31.73828125,0.0
1740790136.513508,-20.5078125,-35.15625,-44.921875,-29.78515625,0.0
1740790136.5174139,-23.4375,-31.73828125,-38.0859375,-34.66796875,0.0
1740790136.5213199,-20.01953125,-21.97265625,-27.34375,-31.25,0.0
1740790136.5252259,-9.27734375,-18.5546875,-20.5078125,-12.6953125,0.0
1740790136.5291333,-9.27734375,-21.97265625,-20.01953125,-11.23046875,0.0
1740790136.533039,-15.625,-23.4375,-29.296875,-22.4609375,0.0
1740790136.536945,-40.52734375,-26.3671875,-35.64453125,-43.45703125,0.0
1740790136.540851,-51.26953125,-23.92578125,-42.48046875,-49.8046875,0.0
1740790136.5447571,-52.24609375,-2.9296875,-33.69140625,-54.6875,0.0
1740790136.548663,-84.9609375,-13.671875,-39.55078125,-92.7734375,0.0
1740790136.552569,-115.234375,-4.8828125,-54.6875,-122.55859375,0.0
1740790136.556475,-140.13671875,25.390625,-64.453125,-145.99609375,0.0
1740790136.560381,-192.87109375,33.203125,-87.890625,-192.3828125,0.0
1740790136.5642867,-240.234375,34.1796875,-100.5859375,-242.67578125,0.0
1740790136.5681927,-260.7421875,32.2265625,-102.05078125,-261.23046875,0.0
1740790136.5720987,-278.80859375,31.73828125,-111.328125,-270.5078125,0.0
1740790136.576006,-290.52734375,43.45703125,-113.76953125,-280.2734375,0.0
1740790136.579912,-291.50390625,60.546875,-111.81640625,-287.59765625,0.0
1740790136.583818,-290.52734375,62.98828125,-107.421875,-284.1796875,0.0
1740790136.587724,-289.0625,54.19921875,-100.5859375,-268.06640625,0.0
1740790136.5916297,-270.99609375,52.734375,-92.28515625,-254.39453125,0.0
1740790136.5955358,-252.9296875,43.9453125,-95.21484375,-249.51171875,0.0
1740790136.5994418,-239.74609375,31.25,-89.84375,-240.72265625,0.0
1740790136.6033478,-220.21484375,14.6484375,-79.1015625,-214.35546875,0.0
1740790136.6072536,-206.54296875,12.20703125,-72.265625,-196.77734375,0.0
1740790136.6111596,-187.5,3.41796875,-67.87109375,-173.33984375,0.0
1740790136.6150656,-164.0625,-15.625,-67.87109375,-156.73828125,0.0
1740790136.6189716,-143.06640625,-28.80859375,-63.4765625,-140.13671875,0.0
1740790136.62288,-107.91015625,-21.97265625,-46.875,-110.3515625,0.0
1740790136.6267858,-88.8671875,-23.92578125,-39.0625,-85.44921875,0.0
1740790136.6306918,-72.265625,-36.1328125,-36.1328125,-63.96484375,0.0
1740790136.6345978,-49.8046875,-38.0859375,-33.69140625,-49.31640625,0.0
1740790136.6385038,-49.8046875,-41.9921875,-31.73828125,-43.45703125,0.0
1740790136.6424096,-42.48046875,-54.6875,-30.2734375,-35.64453125,0.0
1740790136.6463156,-30.2734375,-69.82421875,-30.2734375,-21.484375,0.0
1740790136.6502216,-26.3671875,-74.21875,-28.3203125,-14.6484375,0.0
1740790136.6541276,-18.5546875,-70.3125,-22.4609375,-17.578125,0.0
1740790136.6580334,-11.23046875,-78.61328125,-19.04296875,-5.37109375,0.0
1740790136.6619394,2.44140625,-83.0078125,-20.01953125,12.20703125,0.0
1740790136.6658454,18.5546875,-78.125,-19.53125,26.85546875,0.0
1740790136.6697521,23.92578125,-73.73046875,-14.16015625,27.83203125,0.0
1740790136.6736581,23.4375,-81.0546875,-16.6015625,24.90234375,0.0
1740790136.6775641,29.78515625,-87.890625,-19.53125,38.57421875,0.0
1740790136.6814702,38.0859375,-83.49609375,-10.7421875,47.36328125,0.0
1740790136.685376,40.0390625,-83.49609375,-8.7890625,44.43359375,0.0
1740790136.689282,43.9453125,-89.84375,-14.6484375,51.7578125,0.0
1740790136.693188,47.36328125,-91.796875,-13.671875,59.08203125,0.0
1740790136.697094,52.24609375,-87.890625,-6.34765625,63.96484375,0.0
1740790136.7009997,51.26953125,-85.44921875,-7.8125,62.01171875,0.0
1740790136.7049057,52.24609375,-84.47265625,-4.8828125,62.98828125,0.0
1740790136.7088118,60.546875,-96.6796875,-3.90625,72.265625,0.0
1740790136.7127178,57.12890625,-89.84375,-3.41796875,63.96484375,0.0
1740790136.7166245,55.6640625,-77.63671875,1.953125,57.12890625,0.0
1740790136.7205303,58.59375,-75.1953125,-1.46484375,65.91796875,0.0
1740790136.7244363,49.31640625,-74.21875,-7.32421875,61.03515625,0.0
1740790136.7283423,56.15234375,-69.82421875,-1.46484375,56.640625,0.0
1740790136.7322483,56.15234375,-71.2890625,-6.34765625,51.7578125,0.0
1740790136.736154,49.8046875,-76.66015625,-18.06640625,50.78125,0.0
1740790136.74006,47.8515625,-65.91796875,-12.20703125,52.734375,0.0
1740790136.743966,46.38671875,-57.6171875,-6.34765625,45.8984375,0.0
1740790136.747872,46.38671875,-61.5234375,-12.20703125,43.45703125,0.0
1740790136.751778,48.33984375,-59.5703125,-13.18359375,42.48046875,0.0
1740790136.755684,49.8046875,-59.5703125,-14.6484375,39.0625,0.0
1740790136.75959,42.96875,-58.59375,-16.11328125,34.66796875,0.0
1740790136.7634978,38.57421875,-59.5703125,-9.765625,33.69140625,0.0
1740790136.7674036,43.9453125,-62.01171875,-7.32421875,34.1796875,0.0
1740790136.7713096,44.43359375,-63.4765625,-9.27734375,30.2734375,0.0
1740790136.7752156,38.57421875,-57.6171875,-12.6953125,31.73828125,0.0
1740790136.7791216,32.2265625,-62.01171875,-20.5078125,31.25,0.0
1740790136.7830274,39.0625,-71.2890625,-24.4140625,27.34375,0.0
1740790136.7869334,37.59765625,-66.40625,-22.94921875,22.4609375,0.0
1740790136.7908394,32.2265625,-58.59375,-25.390625,13.18359375,0.0
1740790136.7947454,37.59765625,-59.08203125,-24.4140625,9.27734375,0.0
1740790136.7986515,35.15625,-71.2890625,-25.390625,20.5078125,0.0
1740790136.8025572,24.90234375,-61.5234375,-23.92578125,15.13671875,0.0
1740790136.8064632,26.3671875,-49.31640625,-21.97265625,7.8125,0.0
1740790136.810371,24.90234375,-54.19921875,-25.87890625,6.8359375,0.0
1740790136.814277,14.6484375,-55.17578125,-29.296875,-0.48828125,0.0
1740790136.8181827,17.578125,-51.7578125,-27.34375,-1.953125,0.0
1740790136.8220887,17.08984375,-49.31640625,-25.390625,3.90625,0.0
1740790136.8259947,8.30078125,-54.6875,-30.76171875,-0.9765625,0.0
1740790136.8299007,6.34765625,-59.5703125,-33.69140625,-8.30078125,0.0
1740790136.8338068,8.7890625,-54.19921875,-31.25,-3.90625,0.0
1740790136.8377125,13.671875,-41.9921875,-32.2265625,-5.37109375,0.0
1740790136.8416185,14.16015625,-45.41015625,-38.57421875,-10.25390625,0.0
1740790136.8455245,9.765625,-53.7109375,-37.59765625,-6.8359375,0.0
1740790136.8494306,13.671875,-44.921875,-20.5078125,-3.90625,0.0
1740790136.8533363,16.6015625,-46.875,-19.53125,0.0,0.0
1740790136.857244,12.6953125,-49.8046875,-31.25,0.0,0.0
1740790136.86115,8.7890625,-40.52734375,-31.25,-7.32421875,0.0
1740790136.8650558,7.8125,-37.109375,-29.296875,-5.37109375,0.0
1740790136.8689618,11.71875,-39.55078125,-30.2734375,0.0,0.0
1740790136.8728678,13.18359375,-46.38671875,-27.83203125,0.48828125,0.0
1740790136.8767738,9.765625,-48.33984375,-23.4375,-0.9765625,0.0
1740790136.8806796,2.44140625,-38.57421875,-18.5546875,-0.9765625,0.0
1740790136.8845856,3.90625,-38.57421875,-14.6484375,-2.44140625,0.0
1740790136.8884916,5.37109375,-56.640625,-26.3671875,-4.39453125,0.0
1740790136.8923976,-4.39453125,-51.26953125,-31.73828125,-9.27734375,0.0
1740790136.8963034,-4.8828125,-44.43359375,-33.69140625,-17.08984375,0.0
1740790136.9002094,-2.44140625,-45.8984375,-41.50390625,-22.94921875,0.0
1740790136.9041169,-4.39453125,-46.875,-37.59765625,-21.484375,0.0
1740790136.9080229,-4.39453125,-49.31640625,-27.83203125,-22.94921875,0.0
1740790136.9119287,-8.7890625,-46.875,-26.3671875,-24.90234375,0.0
1740790136.9158347,-11.23046875,-43.9453125,-27.34375,-19.04296875,0.0
1740790136.9197407,-9.765625,-40.52734375,-21.484375,-14.6484375,0.0
1740790136.9236467,-8.30078125,-32.2265625,-27.34375,-19.04296875,0.0
1740790136.9275525,-8.7890625,-29.296875,-33.69140625,-23.4375,0.0
1740790136.9314585,-11.23046875,-41.015625,-32.71484375,-23.4375,0.0
1740790136.9353645,-18.06640625,-50.29296875,-37.59765625,-21.484375,0.0
1740790136.9392705,-23.92578125,-41.015625,-33.203125,-26.85546875,0.0
1740790136.9431763,-20.01953125,-36.1328125,-33.69140625,-28.3203125,0.0
1740790136.9470823,-16.11328125,-38.0859375,-38.0859375,-25.87890625,0.0
1740790136.9509895,-18.06640625,-41.9921875,-43.45703125,-29.78515625,0.0
1740790136.9548955,-14.16015625,-36.62109375,-39.0625,-20.01953125,0.0
1740790136.9588015,-10.25390625,-33.203125,-31.73828125,-14.6484375,0.0
1740790136.9627075,-7.8125,-41.9921875,-37.109375,-19.53125,0.0
1740790136.9666133,-5.859375,-36.1328125,-41.015625,-19.04296875,0.0
1740790136.9705193,-11.23046875,-42.96875,-37.59765625,-23.92578125,0.0
1740790136.9744253,-11.23046875,-46.38671875,-36.1328125,-23.92578125,0.0
1740790136.9783313,-14.6484375,-43.9453125,-42.48046875,-20.99609375,0.0
1740790136.982237,-27.34375,-41.50390625,-48.33984375,-21.97265625,0.0
1740790136.986143,-30.76171875,-37.109375,-48.33984375,-22.4609375,0.0
1740790136.9900491,-22.4609375,-35.64453125,-44.43359375,-25.87890625,0.0
1740790136.9939551,-19.53125,-38.0859375,-39.0625,-26.3671875,0.0
1740790136.997862,-20.01953125,-38.57421875,-39.0625,-24.90234375,0.0
1740790137.001768,-20.5078125,-39.0625,-43.45703125,-23.92578125,0.0
1740790137.005674,-24.4140625,-45.8984375,-43.9453125,-23.92578125,0.0
1740790137.00958,-23.4375,-41.015625,-42.96875,-23.4375,0.0
1740790137.013486,-22.94921875,-39.55078125,-43.9453125,-27.34375,0.0
1740790137.017392,-26.85546875,-45.8984375,-44.921875,-27.83203125,0.0
1740790137.0212977,-21.484375,-46.38671875,-42.96875,-20.5078125,0.0
1740790137.0252037,-22.94921875,-47.36328125,-40.52734375,-21.97265625,0.0
1740790137.0291097,-32.71484375,-38.57421875,-36.1328125,-31.25,0.0
1740790137.0330157,-33.69140625,-40.0390625,-36.1328125,-38.57421875,0.0
1740790137.0369215,-34.1796875,-45.8984375,-38.0859375,-41.015625,0.0
1740790137.0408275,-32.2265625,-42.48046875,-35.64453125,-39.0625,0.0
1740790137.0447345,-34.1796875,-40.0390625,-31.73828125,-40.0390625,0.0
1740790137.0486403,-34.1796875,-43.9453125,-32.71484375,-36.62109375,0.0
1740790137.0525463,-34.66796875,-48.828125,-33.203125,-35.64453125,0.0
1740790137.0564523,-30.76171875,-44.43359375,-21.97265625,-29.78515625,0.0
1740790137.0603583,-21.97265625,-39.0625,-18.5546875,-22.4609375,0.0
1740790137.064264,-32.2265625,-41.015625,-34.1796875,-26.3671875,0.0
1740790137.06817,-39.55078125,-45.8984375,-37.109375,-26.85546875,0.0
1740790137.072076,-32.71484375,-35.64453125,-28.80859375,-22.4609375,0.0
1740790137.075982,-33.69140625,-29.296875,-27.34375,-30.2734375,0.0
1740790137.0798879,-33.69140625,-38.57421875,-28.80859375,-32.71484375,0.0
1740790137.0837939,-29.296875,-43.45703125,-28.3203125,-34.1796875,0.0
1740790137.0877,-28.3203125,-38.57421875,-29.296875,-33.69140625,0.0
1740790137.091608,-30.76171875,-39.55078125,-32.71484375,-32.71484375,0.0
1740790137.0955138,-27.34375,-49.31640625,-31.73828125,-36.1328125,0.0
1740790137.0994198,-24.4140625,-48.33984375,-34.1796875,-39.0625,0.0
1740790137.1033258,-24.90234375,-38.0859375,-30.76171875,-33.203125,0.0
1740790137.1072319,-25.87890625,-38.57421875,-29.296875,-28.3203125,0.0
1740790137.1111376,-28.3203125,-46.875,-34.1796875,-35.15625,0.0
1740790137.1150436,-23.4375,-45.8984375,-32.71484375,-35.64453125,0.0
1740790137.1189497,-16.11328125,-38.0859375,-28.80859375,-31.73828125,0.0
1740790137.1228557,-16.11328125,-38.57421875,-27.83203125,-28.80859375,0.0
1740790137.1267614,-15.13671875,-40.0390625,-34.1796875,-25.390625,0.0
1740790137.1306674,-20.5078125,-38.0859375,-37.59765625,-35.15625,0.0
1740790137.1345735,-25.87890625,-33.203125,-43.45703125,-41.9921875,0.0
1740790137.1384814,0.0,-30.76171875,-45.41015625,-36.1328125,0.0
1740790137.1423874,0.0,-37.59765625,-41.50390625,-38.0859375,0.0
1740790137.1462934,0.0,-42.96875,-42.96875,-43.9453125,0.0
1740790137.1501994,0.0,-46.875,-47.8515625,-46.875,0.0
1740790137.1541052,0.0,-47.8515625,-46.875,-41.015625,0.0
1740790137.1580112,0.0,-51.26953125,-42.96875,-36.1328125,0.0
1740790137.1619172,0.0,-43.45703125,-41.015625,-43.45703125,0.0
1740790137.1658232,0.0,-34.1796875,-36.1328125,-44.43359375,0.0
1740790137.169729,0.0,-35.64453125,-29.296875,-40.52734375,0.0
1740790137.173635,0.0,-51.26953125,-42.48046875,-36.1328125,0.0
1740790137.177541,0.0,-47.36328125,-43.45703125,-41.50390625,0.0
1740790137.181447,0.0,-36.62109375,-38.0859375,-48.33984375,0.0
1740790137.1853547,-21.484375,-41.9921875,-40.52734375,-44.921875,0.0
1740790137.1892605,-15.625,-42.48046875,-43.45703125,-44.921875,0.0
1740790137.1931665,-20.99609375,-37.59765625,-41.9921875,-38.57421875,0.0
1740790137.1970725,-25.87890625,-40.0390625,-34.66796875,-36.1328125,0.0
1740790137.2009785,-23.92578125,-52.734375,-39.55078125,-42.48046875,0.0
1740790137.2048843,-31.25,-57.12890625,-46.38671875,-45.41015625,0.0
1740790137.2087903,-32.2265625,-46.875,-45.41015625,-45.41015625,0.0
1740790137.2126963,-25.87890625,-41.50390625,-42.48046875,-41.9921875,0.0
1740790137.2166023,-27.83203125,-47.36328125,-41.50390625,-36.1328125,0.0
1740790137.220508,-27.34375,-46.38671875,-43.45703125,-34.1796875,0.0
1740790137.224414,-20.5078125,-36.62109375,-38.0859375,-37.109375,0.0
1740790137.2283201,-17.578125,-39.55078125,-35.15625,-42.48046875,0.0
1740790137.232229,-19.53125,-33.69140625,-37.109375,-37.109375,0.0
1740790137.236135,-17.578125,-27.34375,-35.15625,-29.78515625,0.0
1740790137.240041,-14.6484375,-24.4140625,-28.3203125,-26.3671875,0.0
1740790137.2439468,-15.13671875,-22.4609375,-35.15625,-23.4375,0.0
1740790137.2478528,-19.04296875,-27.83203125,-46.38671875,-33.203125,0.0
1740790137.2517588,-16.6015625,-39.0625,-45.41015625,-35.15625,0.0
1740790137.2556648,-9.27734375,-37.59765625,-39.55078125,-25.390625,0.0
1740790137.2595706,-15.13671875,-31.25,-38.0859375,-22.4609375,0.0
1740790137.2634766,-21.484375,-45.8984375,-42.96875,-23.4375,0.0
1740790137.2673826,-24.4140625,-41.015625,-37.109375,-27.34375,0.0
1740790137.2712886,-23.4375,-33.69140625,-32.71484375,-29.78515625,0.0
1740790137.2751944,-18.06640625,-36.62109375,-33.203125,-30.76171875,0.0
1740790137.2791018,-22.4609375,-33.69140625,-37.109375,-32.71484375,0.0
1740790137.2830079,-22.4609375,-30.76171875,-43.9453125,-26.85546875,0.0
1740790137.2869139,-16.6015625,-31.25,-41.015625,-21.484375,0.0
1740790137.2908196,-15.625,-38.57421875,-36.62109375,-19.04296875,0.0
1740790137.2947257,-16.11328125,-44.921875,-36.62109375,-21.97265625,0.0
1740790137.2986317,-16.6015625,-44.43359375,-37.109375,-33.203125,0.0
1740790137.3025377,-17.578125,-39.0625,-41.015625,-29.78515625,0.0
1740790137.3064435,-15.13671875,-33.203125,-43.45703125,-23.92578125,0.0
1740790137.3103495,-6.8359375,-26.85546875,-34.1796875,-29.296875,0.0
1740790137.3142555,-11.71875,-22.94921875,-33.69140625,-32.71484375,0.0
1740790137.3181615,-18.5546875,-24.4140625,-36.1328125,-30.2734375,0.0
1740790137.3220673,-20.01953125,-41.50390625,-41.015625,-32.2265625,0.0
1740790137.3259745,-25.390625,-46.875,-35.64453125,-29.78515625,0.0
1740790137.3298805,-24.90234375,-33.203125,-25.390625,-25.390625,0.0
1740790137.3337865,-21.484375,-36.62109375,-26.3671875,-20.01953125,0.0
1740790137.3376925,-19.53125,-39.55078125,-25.390625,-14.6484375,0.0
1740790137.3415983,-20.01953125,-33.69140625,-21.484375,-21.97265625,0.0
1740790137.3455043,-16.11328125,-35.64453125,-24.4140625,-23.4375,0.0
1740790137.3494103,-19.53125,-46.38671875,-29.78515625,-23.4375,0.0
1740790137.3533163,-22.4609375,-57.12890625,-34.66796875,-22.94921875,0.0
1740790137.357222,-17.578125,-43.45703125,-27.83203125,-16.11328125,0.0
1740790137.361128,-19.53125,-40.52734375,-24.90234375,-23.4375,0.0
1740790137.365034,-29.78515625,-51.26953125,-30.76171875,-25.87890625,0.0
1740790137.36894,-29.296875,-37.59765625,-25.87890625,-15.625,0.0
1740790137.372847,-18.06640625,-30.76171875,-23.4375,-17.578125,0.0
1740790137.376753,-18.06640625,-38.57421875,-20.5078125,-17.08984375,0.0
1740790137.3806589,-25.390625,-37.109375,-20.99609375,-25.87890625,0.0
1740790137.3845649,-26.3671875,-37.59765625,-29.296875,-38.57421875,0.0
1740790137.388471,-24.90234375,-40.0390625,-31.73828125,-31.25,0.0
1740790137.392377,-23.92578125,-41.9921875,-31.73828125,-26.85546875,0.0
1740790137.3962827,-20.99609375,-45.41015625,-34.1796875,-30.76171875,0.0
1740790137.4001887,-20.01953125,-44.921875,-32.2265625,-28.3203125,0.0
1740790137.4040947,-21.97265625,-35.15625,-24.90234375,-27.34375,0.0
1740790137.4080007,-26.85546875,-45.41015625,-28.3203125,-28.3203125,0.0
1740790137.4119065,-28.3203125,-61.5234375,-38.0859375,-35.15625,0.0
1740790137.4158125,-21.97265625,-50.29296875,-28.80859375,-36.62109375,0.0
1740790137.4197195,-21.484375,-39.0625,-25.87890625,-31.73828125,0.0
1740790137.4236252,-24.4140625,-43.9453125,-32.71484375,-25.87890625,0.0
1740790137.4275312,-17.578125,-45.8984375,-30.76171875,-31.25,0.0
1740790137.4314373,-20.99609375,-45.41015625,-29.78515625,-30.2734375,0.0
1740790137.4353433,-30.76171875,-46.38671875,-32.2265625,-25.87890625,0.0
1740790137.439249,-27.34375,-45.8984375,-31.25,-30.2734375,0.0
1740790137.443155,-28.80859375,-53.22265625,-36.62109375,-30.2734375,0.0
1740790137.447061,-32.71484375,-44.921875,-36.1328125,-31.25,0.0
1740790137.450967,-26.3671875,-35.15625,-31.25,-28.3203125,0.0
1740790137.4548728,-24.4140625,-40.0390625,-37.109375,-31.73828125,0.0
1740790137.4587789,-26.85546875,-36.62109375,-41.50390625,-37.109375,0.0
1740790137.4626849,-28.80859375,-41.50390625,-39.55078125,-39.55078125,0.0
1740790137.4665916,-29.296875,-55.6640625,-42.48046875,-48.33984375,0.0
1740790137.4704976,-23.92578125,-52.24609375,-42.96875,-37.109375,0.0
1740790137.4744036,-19.04296875,-48.33984375,-37.59765625,-25.390625,0.0
1740790137.4783096,-25.390625,-49.8046875,-33.69140625,-36.1328125,0.0
1740790137.4822154,-29.296875,-47.8515625,-33.69140625,-36.62109375,0.0
1740790137.4861214,-23.4375,-57.6171875,-31.25,-23.92578125,0.0
1740790137.4900274,-20.99609375,-57.12890625,-28.80859375,-21.97265625,0.0
1740790137.4939334,-21.484375,-43.9453125,-32.2265625,-33.69140625,0.0
1740790137.4978392,-22.4609375,-43.45703125,-38.0859375,-41.9921875,0.0
1740790137.5017452,-25.87890625,-43.45703125,-37.59765625,-40.52734375,0.0
1740790137.5056512,-26.85546875,-45.8984375,-39.55078125,-41.015625,0.0
1740790137.5095572,-23.4375,-45.8984375,-34.1796875,-32.2265625,0.0
1740790137.513465,-24.90234375,-44.921875,-31.25,-32.2265625,0.0
1740790137.517371,-21.484375,-45.41015625,-34.1796875,-39.55078125,0.0
1740790137.521277,-19.04296875,-43.9453125,-30.2734375,-41.015625,0.0
1740790137.525183,-19.53125,-44.43359375,-34.66796875,-41.9921875,0.0
1740790137.5290887,-17.578125,-41.50390625,-38.57421875,-39.0625,0.0
1740790137.5329947,-16.6015625,-49.31640625,-40.0390625,-31.25,0.0
1740790137.5369008,-16.6015625,-44.43359375,-37.109375,-29.78515625,0.0
1740790137.5408068,-19.53125,-33.203125,-32.2265625,-34.1796875,0.0
1740790137.5447125,-22.4609375,-38.0859375,-37.59765625,-35.64453125,0.0
1740790137.5486186,-24.4140625,-45.41015625,-41.015625,-34.66796875,0.0
1740790137.5525246,-20.01953125,-33.69140625,-32.71484375,-35.15625,0.0
1740790137.5564306,-16.11328125,-30.76171875,-36.1328125,-36.1328125,0.0
1740790137.5603383,-13.18359375,-35.15625,-38.57421875,-35.64453125,0.0
1740790137.564244,-15.625,-34.66796875,-38.0859375,-27.34375,0.0
1740790137.56815,-7.8125,-26.85546875,-34.66796875,-24.4140625,0.0
1740790137.572056,-8.7890625,-31.73828125,-34.66796875,-23.92578125,0.0
1740790137.575962,-17.578125,-43.45703125,-34.66796875,-19.04296875,0.0
1740790137.5798678,-18.06640625,-43.9453125,-30.76171875,-26.85546875,0.0
1740790137.5837739,-16.6015625,-35.15625,-28.3203125,-24.90234375,0.0
1740790137.5876799,-19.04296875,-28.3203125,-26.3671875,-21.484375,0.0
1740790137.5915859,-20.01953125,-39.55078125,-36.62109375,-26.3671875,0.0
1740790137.5954916,-15.625,-49.31640625,-41.9921875,-18.5546875,0.0
1740790137.5993977,-11.23046875,-35.15625,-36.1328125,-17.08984375,0.0
1740790137.6033037,-9.765625,-32.71484375,-37.59765625,-23.92578125,0.0
1740790137.607211,-11.71875,-39.0625,-35.64453125,-20.01953125,0.0
1740790137.6111171,-5.37109375,-31.25,-27.34375,-16.6015625,0.0
1740790137.6150231,-4.8828125,-27.34375,-23.92578125,-23.92578125,0.0
1740790137.6189291,-9.765625,-30.76171875,-25.87890625,-33.203125,0.0
1740790137.622835,-9.27734375,-36.1328125,-32.71484375,-28.3203125,0.0
1740790137.626741,-17.08984375,-45.8984375,-32.2265625,-21.484375,0.0
1740790137.630647,-17.578125,-44.43359375,-23.92578125,-18.5546875,0.0
1740790137.634553,-8.30078125,-32.71484375,-27.83203125,-21.97265625,0.0
1740790137.638459,-19.53125,-43.9453125,-37.109375,-22.4609375,0.0
1740790137.6423647,-25.390625,-47.36328125,-31.25,-21.484375,0.0
1740790137.6462708,-19.04296875,-41.015625,-33.203125,-27.83203125,0.0
1740790137.6501768,-21.97265625,-48.33984375,-35.64453125,-31.25,0.0
1740790137.6540842,-24.90234375,-47.8515625,-35.64453125,-26.85546875,0.0
1740790137.65799,-23.92578125,-41.015625,-41.015625,-25.87890625,0.0
1740790137.661896,-22.94921875,-38.57421875,-38.57421875,-27.83203125,0.0
1740790137.665802,-23.92578125,-35.15625,-37.59765625,-26.3671875,0.0
1740790137.669708,-26.3671875,-36.1328125,-36.62109375,-25.87890625,0.0
1740790137.6736138,-18.5546875,-44.43359375,-36.62109375,-24.4140625,0.0
1740790137.6775198,-18.06640625,-41.015625,-35.15625,-23.92578125,0.0
1740790137.6814258,-30.2734375,-45.8984375,-40.0390625,-33.69140625,0.0
1740790137.6853318,-31.73828125,-51.26953125,-43.45703125,-37.59765625,0.0
1740790137.6892376,-28.80859375,-31.73828125,-32.2265625,-33.203125,0.0
1740790137.6931436,-31.25,-33.69140625,-32.71484375,-30.76171875,0.0
1740790137.6970496,-27.34375,-43.45703125,-39.55078125,-33.69140625,0.0
1740790137.7009568,-25.87890625,-39.55078125,-39.0625,-36.62109375,0.0
1740790137.7048628,-28.80859375,-37.109375,-37.59765625,-37.109375,0.0
1740790137.7087688,-32.71484375,-42.48046875,-38.57421875,-33.203125,0.0
1740790137.7126746,-29.78515625,-49.31640625,-43.9453125,-34.66796875,0.0
1740790137.7165806,-29.78515625,-43.45703125,-42.48046875,-41.50390625,0.0
1740790137.7204866,-35.64453125,-37.109375,-38.0859375,-36.1328125,0.0
1740790137.7243927,-32.71484375,-41.50390625,-41.015625,-37.109375,0.0
1740790137.7282984,-39.0625,-53.7109375,-47.36328125,-31.73828125,0.0
1740790137.7322044,-32.2265625,-46.38671875,-43.9453125,-28.80859375,0.0
1740790137.7361104,-21.484375,-34.1796875,-41.015625,-29.78515625,0.0
1740790137.7400165,-23.92578125,-36.62109375,-40.52734375,-24.90234375,0.0
1740790137.7439222,-25.87890625,-37.109375,-40.0390625,-30.2734375,0.0
1740790137.7478294,-25.390625,-36.1328125,-37.59765625,-35.64453125,0.0
1740790137.7517352,-28.3203125,-41.015625,-34.1796875,-33.69140625,0.0
1740790137.7556412,-26.85546875,-44.43359375,-35.64453125,-27.83203125,0.0
1740790137.7595472,-30.2734375,-47.36328125,-38.0859375,-29.296875,0.0
1740790137.7634532,-36.1328125,-49.8046875,-39.55078125,-34.1796875,0.0
1740790137.767359,-29.296875,-49.8046875,-40.52734375,-40.0390625,0.0
1740790137.771265,-28.3203125,-52.734375,-39.55078125,-41.50390625,0.0
1740790137.775171,-29.78515625,-52.734375,-41.015625,-29.78515625,0.0
1740790137.779077,-29.78515625,-42.48046875,-40.52734375,-31.73828125,0.0
1740790137.7829828,-26.85546875,-38.57421875,-36.62109375,-31.25,0.0
1740790137.7868888,-20.99609375,-43.45703125,-38.57421875,-33.69140625,0.0
1740790137.7907948,-23.92578125,-46.38671875,-38.0859375,-38.0859375,0.0
1740790137.7947018,-23.4375,-38.57421875,-32.71484375,-34.66796875,0.0
1740790137.7986076,-20.01953125,-32.71484375,-33.69140625,-35.15625,0.0
1740790137.8025136,-26.85546875,-41.50390625,-40.0390625,-32.2265625,0.0
1740790137.8064196,-25.87890625,-43.9453125,-37.59765625,-23.92578125,0.0
1740790137.8103256,-32.71484375,-42.48046875,-36.1328125,-31.73828125,0.0
1740790137.8142314,-35.15625,-42.96875,-38.0859375,-38.57421875,0.0
1740790137.8181374,-21.97265625,-45.41015625,-40.0390625,-28.3203125,0.0
1740790137.8220434,-27.34375,-41.50390625,-38.57421875,-34.1796875,0.0
1740790137.8259494,-29.78515625,-35.15625,-32.2265625,-35.64453125,0.0
1740790137.8298552,-22.94921875,-39.0625,-38.57421875,-29.296875,0.0
1740790137.8337612,-27.83203125,-44.43359375,-43.9453125,-31.73828125,0.0
1740790137.8376672,-31.25,-41.50390625,-44.921875,-35.15625,0.0
1740790137.841574,-28.3203125,-43.9453125,-46.875,-29.78515625,0.0
1740790137.84548,-29.296875,-45.8984375,-43.9453125,-31.25,0.0
1740790137.849386,-36.62109375,-50.29296875,-47.8515625,-36.1328125,0.0
1740790137.8532917,-41.9921875,-47.8515625,-43.45703125,-35.15625,0.0
1740790137.8571978,-37.109375,-50.29296875,-37.109375,-41.015625,0.0
1740790137.8611038,-34.1796875,-61.03515625,-48.33984375,-43.9453125,0.0
