timestamps,TP9,AF7,AF8,TP10,Right AUX
1740447778.5798,-56.15234375,-49.8046875,-57.12890625,-33.69140625,0.0
1740447778.5837057,-55.17578125,-50.29296875,-62.01171875,-66.40625,0.0
1740447778.5876114,-38.0859375,-46.38671875,-62.98828125,-63.4765625,0.0
1740447778.5915174,-18.06640625,-43.45703125,-52.24609375,-38.57421875,0.0
1740447778.5954232,-24.4140625,-50.29296875,-51.26953125,-36.1328125,0.0
1740447778.599329,-37.109375,-51.26953125,-52.734375,-38.57421875,0.0
1740447778.6032348,-35.64453125,-41.015625,-52.24609375,-38.57421875,0.0
1740447778.6071405,-49.31640625,-38.57421875,-51.7578125,-39.0625,0.0
1740447778.6110466,-53.22265625,-52.734375,-56.640625,-47.8515625,0.0
1740447778.6149523,-44.921875,-50.29296875,-60.546875,-51.26953125,0.0
1740447778.618858,-46.875,-43.9453125,-58.10546875,-47.36328125,0.0
1740447778.6227639,-53.7109375,-48.828125,-60.05859375,-43.45703125,0.0
1740447778.6266744,-41.015625,-48.33984375,-62.5,-39.55078125,0.0
1740447778.6305804,-30.2734375,-40.52734375,-53.22265625,-40.0390625,0.0
1740447778.6344862,-39.55078125,-42.96875,-51.26953125,-37.109375,0.0
1740447778.638392,-41.9921875,-47.36328125,-56.15234375,-36.1328125,0.0
1740447778.6422977,-38.57421875,-45.8984375,-54.6875,-28.3203125,0.0
1740447778.6462035,-41.015625,-44.921875,-57.12890625,-25.87890625,0.0
1740447778.6501095,-36.62109375,-42.96875,-62.5,-40.0390625,0.0
1740447778.6540153,-44.43359375,-49.8046875,-66.40625,-31.25,0.0
1740447778.657921,-30.2734375,-57.12890625,-67.3828125,-20.01953125,0.0
1740447778.6618268,-18.06640625,-45.8984375,-61.03515625,-46.875,0.0
1740447778.6657326,-32.71484375,-41.50390625,-53.22265625,-54.19921875,0.0
1740447778.6696386,-32.2265625,-50.29296875,-51.26953125,-34.66796875,0.0
1740447778.673549,-34.66796875,-54.19921875,-56.640625,-44.43359375,0.0
1740447778.6774547,-43.9453125,-47.36328125,-63.4765625,-47.36328125,0.0
1740447778.6813605,-50.78125,-47.8515625,-67.3828125,-31.25,0.0
1740447778.6852665,-53.7109375,-45.8984375,-66.40625,-53.22265625,0.0
1740447778.6891723,-33.203125,-36.62109375,-63.96484375,-54.6875,0.0
1740447778.693078,-33.203125,-40.52734375,-63.96484375,-44.43359375,0.0
1740447778.6969838,-49.31640625,-41.50390625,-62.01171875,-47.36328125,0.0
1740447778.7008896,-32.2265625,-40.0390625,-62.01171875,-42.96875,0.0
1740447778.7047956,-22.4609375,-24.4140625,-60.05859375,-38.57421875,0.0
1740447778.7087014,-34.66796875,-3.90625,-55.17578125,-35.64453125,0.0
1740447778.7126071,-24.90234375,-6.8359375,-52.734375,-33.203125,0.0
1740447778.716513,-34.1796875,-20.5078125,-60.546875,-45.41015625,0.0
1740447778.720423,-34.66796875,-21.484375,-63.96484375,-51.7578125,0.0
1740447778.7243288,-34.66796875,-17.578125,-60.546875,-45.8984375,0.0
1740447778.7282345,-44.921875,-24.90234375,-62.01171875,-41.50390625,0.0
1740447778.7321403,-51.26953125,-29.296875,-62.5,-53.22265625,0.0
1740447778.736046,-55.6640625,-24.4140625,-65.91796875,-62.01171875,0.0
1740447778.739952,-46.875,-31.25,-63.4765625,-50.78125,0.0
1740447778.7438579,-45.8984375,-38.57421875,-55.17578125,-33.69140625,0.0
1740447778.7477636,-44.43359375,-26.3671875,-51.26953125,-41.9921875,0.0
1740447778.7516694,-44.43359375,-0.48828125,-51.26953125,-62.5,0.0
1740447778.7555752,-53.22265625,27.83203125,-59.5703125,-61.5234375,0.0
1740447778.759481,-54.6875,30.76171875,-65.91796875,-64.453125,0.0
1740447778.763387,-51.26953125,27.83203125,-60.546875,-53.7109375,0.0
1740447778.7672963,-43.45703125,30.2734375,-56.640625,-51.26953125,0.0
1740447778.771202,-40.0390625,30.2734375,-56.15234375,-41.50390625,0.0
1740447778.775108,-41.9921875,32.2265625,-55.17578125,-28.80859375,0.0
1740447778.7790139,-44.43359375,27.34375,-61.03515625,-41.9921875,0.0
1740447778.7829196,-43.45703125,23.92578125,-63.4765625,-55.17578125,0.0
1740447778.7868254,-28.80859375,20.99609375,-63.4765625,-47.36328125,0.0
1740447778.7907312,-32.71484375,15.625,-62.01171875,-33.69140625,0.0
1740447778.7946372,-43.9453125,14.16015625,-62.5,-49.31640625,0.0
1740447778.798543,-39.0625,16.6015625,-61.5234375,-49.8046875,0.0
1740447778.8024487,-41.9921875,12.6953125,-60.546875,-41.9921875,0.0
1740447778.8063545,-51.7578125,7.32421875,-59.5703125,-52.24609375,0.0
1740447778.8102603,-44.921875,10.25390625,-58.59375,-52.734375,0.0
1740447778.8141694,-43.9453125,8.7890625,-59.5703125,-47.36328125,0.0
1740447778.8180752,-44.921875,4.39453125,-58.59375,-41.015625,0.0
1740447778.821981,-36.1328125,3.90625,-55.6640625,-38.57421875,0.0
1740447778.825887,-33.203125,2.9296875,-51.26953125,-32.71484375,0.0
1740447778.8297927,-37.109375,-3.90625,-60.05859375,-55.6640625,0.0
1740447778.8336985,-41.50390625,-7.8125,-63.4765625,-64.453125,0.0
1740447778.8376043,-36.62109375,-11.71875,-57.6171875,-44.43359375,0.0
1740447778.84151,-39.55078125,-6.8359375,-51.7578125,-32.2265625,0.0
1740447778.845416,-42.48046875,-10.25390625,-55.6640625,-53.22265625,0.0
1740447778.8493218,-39.0625,-14.6484375,-61.5234375,-62.01171875,0.0
1740447778.8532276,-43.9453125,-14.16015625,-60.546875,-52.734375,0.0
1740447778.8571334,-42.96875,-15.13671875,-63.96484375,-54.19921875,0.0
1740447778.8610451,-39.0625,-16.11328125,-63.96484375,-40.52734375,0.0
1740447778.864951,-61.5234375,-17.08984375,-60.546875,-43.9453125,0.0
1740447778.868857,-49.8046875,-13.671875,-61.5234375,-42.96875,0.0
1740447778.8727627,-34.1796875,-11.71875,-60.546875,-40.0390625,0.0
1740447778.8766685,-41.9921875,-16.11328125,-59.5703125,-43.45703125,0.0
1740447778.8805742,-41.015625,-23.92578125,-61.5234375,-25.87890625,0.0
1740447778.88448,-51.7578125,-29.296875,-63.4765625,-37.109375,0.0
1740447778.888386,-52.734375,-22.4609375,-60.546875,-57.12890625,0.0
1740447778.8922918,-39.55078125,-22.94921875,-59.5703125,-50.29296875,0.0
1740447778.8961976,-35.64453125,-36.1328125,-66.89453125,-51.7578125,0.0
1740447778.9001033,-40.0390625,-28.3203125,-62.98828125,-56.640625,0.0
1740447778.904009,-40.0390625,-19.04296875,-61.03515625,-49.8046875,0.0
1740447778.9079206,-37.59765625,-23.92578125,-63.96484375,-52.24609375,0.0
1740447778.9118264,-45.41015625,-30.2734375,-63.4765625,-62.01171875,0.0
1740447778.9157321,-42.48046875,-25.87890625,-64.94140625,-53.22265625,0.0
1740447778.919638,-38.57421875,-25.390625,-68.359375,-43.9453125,0.0
1740447778.923544,-36.62109375,-32.71484375,-69.82421875,-55.6640625,0.0
1740447778.9274497,-42.96875,-35.15625,-68.359375,-60.05859375,0.0
1740447778.9313555,-47.8515625,-29.296875,-68.84765625,-47.8515625,0.0
1740447778.9352612,-41.50390625,-23.4375,-63.96484375,-55.17578125,0.0
1740447778.939167,-37.59765625,-31.25,-65.4296875,-61.03515625,0.0
1740447778.943073,-36.1328125,-41.9921875,-70.80078125,-54.19921875,0.0
1740447778.9469788,-47.8515625,-34.1796875,-63.96484375,-55.17578125,0.0
1740447778.9508846,-57.6171875,-33.203125,-62.5,-60.546875,0.0
1740447778.9547956,-37.109375,-31.25,-61.5234375,-51.7578125,0.0
1740447778.9587014,-41.015625,-31.25,-69.3359375,-45.8984375,0.0
1740447778.9626071,-46.38671875,-37.59765625,-76.171875,-60.05859375,0.0
1740447778.9665132,-41.9921875,-39.0625,-69.82421875,-56.640625,0.0
1740447778.970419,-48.33984375,-40.52734375,-65.4296875,-40.52734375,0.0
1740447778.9743247,-41.50390625,-39.55078125,-61.5234375,-38.57421875,0.0
1740447778.9782305,-37.109375,-35.15625,-62.5,-30.76171875,0.0
1740447778.9821362,-46.875,-37.109375,-65.4296875,-41.50390625,0.0
1740447778.9860423,-42.96875,-44.43359375,-71.2890625,-42.96875,0.0
1740447778.989948,-40.52734375,-36.62109375,-69.82421875,-48.33984375,0.0
1740447778.9938538,-47.8515625,-32.2265625,-68.84765625,-71.77734375,0.0
1740447778.9977596,-44.921875,-39.0625,-69.3359375,-59.08203125,0.0
1740447779.0016701,-42.96875,-35.15625,-76.66015625,-44.43359375,0.0
1740447779.0055761,-46.38671875,-28.80859375,-82.03125,-37.59765625,0.0
1740447779.009482,-48.33984375,-35.15625,-74.70703125,-34.66796875,0.0
1740447779.0133877,-39.55078125,-35.15625,-71.77734375,-53.22265625,0.0
1740447779.0172935,-36.62109375,-30.2734375,-73.73046875,-55.6640625,0.0
1740447779.0211992,-42.48046875,-33.203125,-72.265625,-42.96875,0.0
1740447779.0251052,-45.8984375,-31.73828125,-66.40625,-41.50390625,0.0
1740447779.029011,-49.8046875,-32.2265625,-64.453125,-37.59765625,0.0
1740447779.0329168,-70.80078125,-37.109375,-67.3828125,-30.2734375,0.0
1740447779.0368226,-69.82421875,-32.2265625,-62.5,-36.62109375,0.0
1740447779.0407283,-51.7578125,-33.203125,-63.4765625,-47.8515625,0.0
1740447779.0446343,-45.8984375,-38.0859375,-70.80078125,-43.9453125,0.0
1740447779.0485446,-45.8984375,-38.0859375,-72.265625,-32.2265625,0.0
1740447779.0524504,-45.8984375,-34.66796875,-65.4296875,-53.22265625,0.0
1740447779.0563562,-49.8046875,-38.57421875,-67.3828125,-56.15234375,0.0
1740447779.060262,-58.59375,-43.45703125,-70.80078125,-32.2265625,0.0
1740447779.0641677,-58.10546875,-43.9453125,-69.3359375,-47.8515625,0.0
1740447779.0680737,-51.26953125,-45.41015625,-71.2890625,-57.6171875,0.0
1740447779.0719795,-48.828125,-47.36328125,-66.89453125,-33.203125,0.0
1740447779.0758853,-51.7578125,-49.31640625,-63.4765625,-33.69140625,0.0
1740447779.079791,-46.875,-41.9921875,-60.05859375,-44.921875,0.0
1740447779.0836968,-45.41015625,-39.0625,-55.6640625,-38.57421875,0.0
1740447779.0876029,-56.640625,-39.55078125,-57.12890625,-26.85546875,0.0
1740447779.0915086,-57.6171875,-43.9453125,-60.546875,-34.1796875,0.0
1740447779.0954185,-55.6640625,-44.43359375,-63.4765625,-41.015625,0.0
1740447779.0993242,-57.12890625,-39.0625,-63.4765625,-30.76171875,0.0
1740447779.10323,-55.6640625,-36.62109375,-62.5,-38.0859375,0.0
1740447779.1071358,-47.8515625,-38.0859375,-62.98828125,-39.55078125,0.0
1740447779.1110418,-44.43359375,-37.109375,-63.96484375,-35.64453125,0.0
1740447779.1149476,-44.43359375,-32.71484375,-60.546875,-41.015625,0.0
1740447779.1188533,-39.0625,-37.59765625,-58.59375,-41.015625,0.0
1740447779.122759,-32.2265625,-40.0390625,-61.5234375,-25.390625,0.0
1740447779.1266649,-42.48046875,-31.73828125,-63.96484375,-48.33984375,0.0
1740447779.130571,-48.828125,-31.73828125,-68.359375,-62.01171875,0.0
1740447779.1344767,-52.24609375,-29.296875,-64.94140625,-47.8515625,0.0
1740447779.1383824,-56.640625,-26.85546875,-61.03515625,-46.38671875,0.0
1740447779.1422918,-53.22265625,-32.71484375,-62.01171875,-42.96875,0.0
1740447779.1461976,-61.03515625,-36.62109375,-59.5703125,-40.0390625,0.0
1740447779.1501036,-61.03515625,-32.71484375,-58.59375,-53.7109375,0.0
1740447779.1540093,-58.59375,-36.1328125,-72.75390625,-62.5,0.0
1740447779.157915,-55.6640625,-42.48046875,-77.1484375,-54.19921875,0.0
1740447779.161821,-52.734375,-42.96875,-69.3359375,-45.8984375,0.0
1740447779.1657267,-53.22265625,-42.96875,-67.3828125,-35.64453125,0.0
1740447779.1696327,-58.10546875,-35.64453125,-64.453125,-44.43359375,0.0
1740447779.1735384,-41.9921875,-26.85546875,-64.94140625,-56.15234375,0.0
1740447779.1774442,-33.203125,-31.73828125,-64.94140625,-40.0390625,0.0
1740447779.18135,-44.921875,-40.52734375,-62.5,-38.0859375,0.0
1740447779.1852558,-52.734375,-39.0625,-65.4296875,-48.33984375,0.0
1740447779.1891649,-41.50390625,-34.66796875,-64.453125,-30.76171875,0.0
1740447779.1930707,-33.203125,-37.109375,-68.84765625,-46.875,0.0
1740447779.1969764,-44.43359375,-41.9921875,-69.82421875,-44.921875,0.0
1740447779.2008824,-47.8515625,-36.62109375,-67.3828125,-36.1328125,0.0
1740447779.2047882,-43.45703125,-30.2734375,-74.21875,-58.59375,0.0
1740447779.208694,-38.0859375,-27.83203125,-77.63671875,-56.15234375,0.0
1740447779.2125998,-25.390625,-20.01953125,-73.73046875,-38.57421875,0.0
1740447779.2165055,-18.5546875,-13.18359375,-69.3359375,-44.921875,0.0
1740447779.2204115,-31.73828125,-11.23046875,-77.63671875,-60.546875,0.0
1740447779.2243173,-54.19921875,-15.13671875,-81.0546875,-61.5234375,0.0
1740447779.228223,-56.640625,-18.5546875,-72.265625,-52.734375,0.0
1740447779.2321289,-37.59765625,-17.578125,-63.96484375,-46.38671875,0.0
1740447779.2360408,-40.0390625,-21.97265625,-61.03515625,-44.43359375,0.0
1740447779.2399468,-28.3203125,-24.4140625,-60.05859375,-40.0390625,0.0
1740447779.2438526,-32.71484375,-25.390625,-64.453125,-46.875,0.0
1740447779.2477584,-41.50390625,-26.3671875,-68.359375,-45.41015625,0.0
1740447779.2516642,-42.96875,-27.34375,-64.453125,-41.9921875,0.0
1740447779.25557,-47.36328125,-35.64453125,-64.94140625,-50.78125,0.0
1740447779.259476,-34.1796875,-41.50390625,-67.87109375,-49.31640625,0.0
1740447779.2633817,-36.1328125,-33.69140625,-65.91796875,-40.52734375,0.0
1740447779.2672875,-37.109375,-28.3203125,-59.08203125,-34.1796875,0.0
1740447779.2711933,-36.62109375,-36.62109375,-62.5,-38.57421875,0.0
1740447779.275099,-32.2265625,-35.64453125,-59.5703125,-40.0390625,0.0
1740447779.279005,-37.59765625,-30.76171875,-53.22265625,-44.921875,0.0
1740447779.2829163,-42.96875,-41.50390625,-65.91796875,-46.38671875,0.0
1740447779.2868223,-47.36328125,-46.875,-66.89453125,-35.64453125,0.0
1740447779.290728,-46.38671875,-46.875,-60.546875,-42.96875,0.0
1740447779.2946339,-42.48046875,-49.31640625,-62.98828125,-43.9453125,0.0
1740447779.2985396,-48.33984375,-51.7578125,-64.453125,-45.41015625,0.0
1740447779.3024454,-57.6171875,-51.26953125,-60.05859375,-48.33984375,0.0
1740447779.3063514,-53.22265625,-51.7578125,-59.08203125,-40.0390625,0.0
1740447779.3102572,-38.0859375,-48.828125,-63.4765625,-51.26953125,0.0
1740447779.314163,-43.45703125,-52.24609375,-65.4296875,-49.31640625,0.0
1740447779.3180687,-52.24609375,-55.6640625,-65.4296875,-35.64453125,0.0
1740447779.3219745,-44.921875,-48.828125,-58.59375,-27.83203125,0.0
1740447779.3258805,-45.8984375,-53.22265625,-59.08203125,-53.22265625,0.0
1740447779.3297913,-46.38671875,-60.05859375,-62.98828125,-62.5,0.0
1740447779.3336973,-39.55078125,-50.78125,-59.5703125,-51.26953125,0.0
1740447779.337603,-40.52734375,-47.8515625,-61.5234375,-50.78125,0.0
1740447779.3415089,-49.31640625,-52.734375,-70.80078125,-58.10546875,0.0
1740447779.3454146,-58.10546875,-51.26953125,-73.2421875,-67.87109375,0.0
1740447779.3493204,-50.78125,-49.8046875,-73.73046875,-60.546875,0.0
1740447779.3532264,-47.8515625,-52.734375,-76.66015625,-62.01171875,0.0
1740447779.3571322,-51.26953125,-51.7578125,-71.2890625,-65.91796875,0.0
1740447779.361038,-52.734375,-55.17578125,-69.3359375,-54.19921875,0.0
1740447779.3649437,-58.10546875,-53.7109375,-70.80078125,-55.6640625,0.0
1740447779.3688495,-58.59375,-50.78125,-67.87109375,-60.546875,0.0
1740447779.3727555,-65.91796875,-56.15234375,-65.4296875,-42.96875,0.0
1740447779.3766663,-57.6171875,-55.17578125,-60.05859375,-38.0859375,0.0
1740447779.380572,-57.12890625,-49.8046875,-55.6640625,-68.84765625,0.0
1740447779.3844779,-69.3359375,-56.15234375,-63.96484375,-76.171875,0.0
1740447779.3883839,-62.01171875,-61.03515625,-70.80078125,-73.2421875,0.0
1740447779.3922896,-45.8984375,-60.05859375,-70.80078125,-63.96484375,0.0
1740447779.3961954,-52.734375,-57.6171875,-72.75390625,-55.6640625,0.0
1740447779.4001012,-61.03515625,-51.26953125,-69.82421875,-59.5703125,0.0
1740447779.404007,-53.7109375,-54.6875,-69.3359375,-48.828125,0.0
1740447779.407913,-46.38671875,-61.5234375,-75.1953125,-55.6640625,0.0
1740447779.4118187,-40.52734375,-56.640625,-77.63671875,-74.70703125,0.0
1740447779.4157245,-49.31640625,-51.7578125,-75.1953125,-71.2890625,0.0
1740447779.4196303,-56.640625,-59.5703125,-71.2890625,-63.96484375,0.0
1740447779.4235406,-50.78125,-60.05859375,-71.77734375,-57.6171875,0.0
1740447779.4274464,-53.7109375,-50.78125,-69.82421875,-53.7109375,0.0
1740447779.4313521,-58.10546875,-53.22265625,-69.82421875,-54.19921875,0.0
1740447779.4352582,-52.24609375,-54.19921875,-73.2421875,-51.7578125,0.0
1740447779.439164,-42.96875,-46.38671875,-72.265625,-41.015625,0.0
1740447779.4430697,-41.50390625,-45.41015625,-72.75390625,-55.6640625,0.0
1740447779.4469755,-51.26953125,-47.8515625,-73.73046875,-71.77734375,0.0
1740447779.4508812,-56.640625,-53.7109375,-73.73046875,-58.59375,0.0
1740447779.4547873,-47.8515625,-53.22265625,-71.77734375,-47.36328125,0.0
1740447779.458693,-41.50390625,-49.8046875,-72.265625,-53.7109375,0.0
1740447779.4625988,-40.0390625,-50.29296875,-74.70703125,-58.59375,0.0
1740447779.4665046,-46.875,-49.31640625,-73.2421875,-51.7578125,0.0
1740447779.4704175,-49.31640625,-44.43359375,-68.84765625,-47.8515625,0.0
1740447779.4743233,-44.921875,-41.50390625,-71.2890625,-51.26953125,0.0
1740447779.4782293,-40.52734375,-48.33984375,-76.171875,-53.7109375,0.0
1740447779.482135,-55.17578125,-47.8515625,-74.21875,-49.31640625,0.0
1740447779.4860408,-66.40625,-43.9453125,-73.73046875,-56.640625,0.0
1740447779.4899466,-54.6875,-47.36328125,-72.265625,-47.36328125,0.0
1740447779.4938524,-55.17578125,-50.78125,-67.3828125,-33.69140625,0.0
1740447779.4977584,-53.7109375,-51.7578125,-65.91796875,-45.8984375,0.0
1740447779.5016642,-45.8984375,-47.36328125,-70.3125,-60.05859375,0.0
1740447779.50557,-43.45703125,-46.875,-75.1953125,-62.01171875,0.0
1740447779.5094757,-33.203125,-50.29296875,-68.359375,-52.734375,0.0
1740447779.5133815,-33.69140625,-50.78125,-61.03515625,-42.96875,0.0
1740447779.517291,-42.48046875,-49.8046875,-61.5234375,-43.45703125,0.0
1740447779.5211968,-35.15625,-45.41015625,-59.08203125,-44.43359375,0.0
1740447779.5251026,-27.34375,-39.55078125,-55.17578125,-39.55078125,0.0
1740447779.5290084,-40.0390625,-49.8046875,-59.08203125,-44.43359375,0.0
1740447779.5329144,-40.52734375,-53.22265625,-60.546875,-47.8515625,0.0
1740447779.5368202,-38.57421875,-50.29296875,-59.5703125,-36.1328125,0.0
1740447779.540726,-36.62109375,-57.12890625,-61.03515625,-37.59765625,0.0
1740447779.5446317,-35.15625,-57.12890625,-69.3359375,-28.80859375,0.0
1740447779.5485375,-35.15625,-55.6640625,-68.84765625,-32.71484375,0.0
1740447779.5524435,-28.3203125,-52.734375,-61.5234375,-40.0390625,0.0
1740447779.5563493,-27.83203125,-50.78125,-60.546875,-30.76171875,0.0
1740447779.560255,-30.2734375,-55.6640625,-65.4296875,-18.06640625,0.0
1740447779.5641642,-31.73828125,-51.26953125,-67.87109375,-30.76171875,0.0
1740447779.56807,-18.06640625,-44.43359375,-60.546875,-38.57421875,0.0
1740447779.5719757,-11.71875,-49.8046875,-60.546875,-29.296875,0.0
1740447779.5758815,-30.76171875,-50.29296875,-65.4296875,-41.50390625,0.0
1740447779.5797875,-37.109375,-47.36328125,-62.5,-40.0390625,0.0
1740447779.5836933,-33.203125,-48.33984375,-62.98828125,-36.62109375,0.0
1740447779.587599,-35.64453125,-47.36328125,-63.4765625,-33.203125,0.0
1740447779.5915048,-35.15625,-38.57421875,-60.05859375,-38.57421875,0.0
1740447779.5954106,-20.01953125,-38.0859375,-60.546875,-38.0859375,0.0
1740447779.5993166,-31.73828125,-40.0390625,-66.40625,-33.203125,0.0
1740447779.6032224,-39.55078125,-40.52734375,-66.40625,-37.109375,0.0
1740447779.6071281,-20.01953125,-42.48046875,-61.03515625,-22.4609375,0.0
1740447779.6110399,-15.625,-45.8984375,-61.03515625,-24.90234375,0.0
1740447779.6149457,-35.15625,-44.921875,-62.5,-29.296875,0.0
1740447779.6188514,-41.50390625,-43.9453125,-63.4765625,-36.1328125,0.0
1740447779.6227574,-23.92578125,-38.0859375,-55.6640625,-30.2734375,0.0
1740447779.6266632,-20.99609375,-28.80859375,-50.78125,-16.6015625,0.0
1740447779.630569,-33.69140625,-24.90234375,-52.24609375,-32.2265625,0.0
1740447779.6344748,-35.15625,-18.5546875,-58.10546875,-48.33984375,0.0
1740447779.6383805,-37.59765625,-9.765625,-63.96484375,-49.31640625,0.0
1740447779.6422865,-43.45703125,-9.765625,-63.4765625,-41.9921875,0.0
1740447779.6461923,-29.78515625,-14.6484375,-61.5234375,-25.87890625,0.0
1740447779.650098,-34.1796875,-13.671875,-60.546875,-37.109375,0.0
1740447779.6540039,-47.36328125,-20.5078125,-61.5234375,-54.19921875,0.0
1740447779.6579154,-36.1328125,-24.90234375,-60.546875,-37.59765625,0.0
1740447779.6618211,-40.0390625,-26.3671875,-60.546875,-39.55078125,0.0
1740447779.665727,-55.17578125,-27.83203125,-58.59375,-58.10546875,0.0
1740447779.6696327,-34.1796875,-22.4609375,-57.6171875,-52.24609375,0.0
1740447779.6735384,-26.85546875,-23.92578125,-64.94140625,-39.0625,0.0
1740447779.6774445,-45.8984375,-30.2734375,-72.75390625,-41.9921875,0.0
1740447779.6813502,-41.015625,-30.2734375,-68.359375,-60.05859375,0.0
1740447779.685256,-37.109375,-24.4140625,-62.98828125,-53.7109375,0.0
1740447779.6891618,-31.25,-24.4140625,-66.89453125,-36.1328125,0.0
1740447779.6930676,-25.87890625,-32.71484375,-66.89453125,-39.0625,0.0
1740447779.6969736,-29.296875,-27.83203125,-59.5703125,-51.26953125,0.0
1740447779.7008793,-31.25,-29.78515625,-58.59375,-60.546875,0.0
1740447779.7047904,-36.62109375,-37.109375,-62.5,-58.10546875,0.0
1740447779.7086961,-32.71484375,-35.64453125,-62.5,-42.48046875,0.0
1740447779.712602,-33.203125,-32.2265625,-60.546875,-36.1328125,0.0
1740447779.7165077,-40.0390625,-30.76171875,-60.546875,-48.828125,0.0
1740447779.7204134,-41.50390625,-35.15625,-62.01171875,-38.57421875,0.0
1740447779.7243195,-43.45703125,-42.48046875,-63.96484375,-45.41015625,0.0
1740447779.7282252,-41.015625,-43.9453125,-63.96484375,-58.10546875,0.0
1740447779.732131,-41.50390625,-39.55078125,-66.89453125,-55.6640625,0.0
1740447779.7360368,-57.6171875,-43.9453125,-67.87109375,-48.33984375,0.0
1740447779.7399426,-50.78125,-40.52734375,-59.08203125,-45.41015625,0.0
1740447779.7438486,-45.8984375,-39.55078125,-62.98828125,-62.5,0.0
1740447779.7477543,-41.9921875,-46.38671875,-69.3359375,-59.5703125,0.0
1740447779.7516649,-52.24609375,-51.7578125,-68.359375,-64.94140625,0.0
1740447779.7555707,-48.33984375,-45.41015625,-64.94140625,-57.6171875,0.0
1740447779.7594764,-41.9921875,-43.9453125,-66.40625,-47.36328125,0.0
1740447779.7633822,-53.22265625,-50.78125,-66.89453125,-53.22265625,0.0
1740447779.7672882,-50.78125,-54.19921875,-64.94140625,-43.9453125,0.0
1740447779.771194,-41.9921875,-53.7109375,-63.4765625,-33.69140625,0.0
1740447779.7750998,-47.36328125,-51.7578125,-64.453125,-50.29296875,0.0
1740447779.7790055,-36.62109375,-53.7109375,-60.546875,-49.8046875,0.0
1740447779.7829113,-39.0625,-62.01171875,-68.359375,-46.38671875,0.0
1740447779.7868173,-51.26953125,-59.08203125,-73.2421875,-53.7109375,0.0
1740447779.790723,-52.24609375,-56.640625,-67.3828125,-40.0390625,0.0
1740447779.7946289,-53.7109375,-64.94140625,-68.359375,-55.6640625,0.0
1740447779.7985392,-51.26953125,-64.453125,-64.94140625,-70.80078125,0.0
1740447779.802445,-55.6640625,-53.7109375,-54.19921875,-53.7109375,0.0
1740447779.8063507,-54.19921875,-54.6875,-56.640625,-61.5234375,0.0
1740447779.8102565,-45.8984375,-58.59375,-60.546875,-67.3828125,0.0
1740447779.8141623,-60.05859375,-60.546875,-62.5,-51.26953125,0.0
1740447779.8180683,-60.546875,-60.546875,-61.5234375,-46.38671875,0.0
1740447779.821974,-52.734375,-61.03515625,-62.98828125,-61.5234375,0.0
1740447779.8258798,-48.33984375,-65.4296875,-69.3359375,-58.59375,0.0
1740447779.8297856,-45.8984375,-61.03515625,-71.77734375,-41.015625,0.0
1740447779.8336914,-47.36328125,-59.5703125,-72.75390625,-46.875,0.0
1740447779.8375974,-43.9453125,-62.98828125,-78.125,-52.24609375,0.0
1740447779.8415031,-41.9921875,-63.96484375,-79.58984375,-48.33984375,0.0
1740447779.845413,-39.0625,-59.08203125,-72.75390625,-47.36328125,0.0
1740447779.8493187,-41.9921875,-58.10546875,-72.265625,-41.50390625,0.0
1740447779.8532245,-48.33984375,-62.01171875,-73.2421875,-32.71484375,0.0
1740447779.8571303,-48.33984375,-59.5703125,-68.359375,-46.875,0.0
1740447779.8610363,-40.0390625,-55.6640625,-72.265625,-60.546875,0.0
1740447779.864942,-40.0390625,-52.24609375,-80.56640625,-52.734375,0.0
1740447779.8688478,-38.57421875,-50.78125,-77.1484375,-42.96875,0.0
1740447779.8727536,-28.80859375,-48.33984375,-63.4765625,-37.59765625,0.0
1740447779.8766594,-31.73828125,-47.8515625,-63.96484375,-43.45703125,0.0
1740447779.8805654,-38.57421875,-51.7578125,-73.2421875,-55.17578125,0.0
1740447779.8844712,-37.59765625,-51.26953125,-74.21875,-49.8046875,0.0
1740447779.888377,-53.7109375,-54.19921875,-83.0078125,-71.2890625,0.0
1740447779.8922925,-60.546875,-55.17578125,-70.80078125,-75.68359375,0.0
1740447779.8961983,-73.73046875,-42.96875,-73.73046875,-71.2890625,0.0
1740447779.9001043,-99.12109375,-49.31640625,-86.42578125,-94.7265625,0.0
1740447779.90401,-120.60546875,-52.734375,-87.40234375,-119.62890625,0.0
1740447779.9079158,-154.296875,-47.36328125,-103.515625,-141.6015625,0.0
1740447779.9118216,-167.96875,-56.15234375,-119.62890625,-173.828125,0.0
1740447779.9157274,-189.94140625,-62.5,-135.7421875,-196.77734375,0.0
1740447779.9196334,-231.4453125,-48.33984375,-149.90234375,-228.02734375,0.0
1740447779.9235392,-240.234375,-37.59765625,-147.94921875,-240.72265625,0.0
1740447779.927445,-249.51171875,-33.203125,-144.04296875,-242.67578125,0.0
1740447779.9313507,-261.23046875,-28.3203125,-155.2734375,-246.09375,0.0
1740447779.9352565,-251.46484375,-31.25,-155.76171875,-240.234375,0.0
1740447779.9391656,-245.1171875,-31.73828125,-148.4375,-238.76953125,0.0
1740447779.9430714,-244.62890625,-39.55078125,-154.78515625,-227.5390625,0.0
1740447779.9469774,-242.1875,-44.921875,-151.3671875,-220.703125,0.0
1740447779.9508832,-224.12109375,-42.96875,-139.6484375,-216.796875,0.0
1740447779.954789,-190.4296875,-47.8515625,-135.7421875,-189.94140625,0.0
1740447779.9586947,-170.8984375,-53.22265625,-130.37109375,-168.9453125,0.0
1740447779.9626005,-156.73828125,-53.22265625,-119.140625,-144.04296875,0.0
1740447779.9665065,-145.5078125,-54.6875,-105.95703125,-120.1171875,0.0
1740447779.9704123,-129.39453125,-59.5703125,-99.609375,-124.51171875,0.0
1740447779.974318,-118.65234375,-63.96484375,-98.6328125,-114.2578125,0.0
1740447779.9782238,-109.86328125,-64.453125,-96.6796875,-101.07421875,0.0
1740447779.9821296,-84.9609375,-64.453125,-92.7734375,-90.8203125,0.0
1740447779.9860413,-77.1484375,-69.82421875,-88.37890625,-68.359375,0.0
1740447779.9899473,-63.96484375,-77.63671875,-87.40234375,-49.8046875,0.0
1740447779.993853,-53.7109375,-78.125,-78.61328125,-44.43359375,0.0
1740447779.9977589,-57.6171875,-73.73046875,-72.75390625,-41.9921875,0.0
1740447780.0016646,-31.25,-76.66015625,-72.265625,-28.80859375,0.0
1740447780.0055704,-25.390625,-82.51953125,-75.1953125,-20.5078125,0.0
1740447780.0094764,-20.99609375,-82.03125,-73.2421875,-8.30078125,0.0
1740447780.0133822,-6.34765625,-79.1015625,-65.4296875,-2.9296875,0.0
1740447780.017288,-2.9296875,-77.63671875,-63.4765625,-0.48828125,0.0
1740447780.0211937,9.27734375,-79.1015625,-62.5,18.06640625,0.0
1740447780.0250995,9.765625,-74.21875,-65.4296875,19.04296875,0.0
1740447780.0290055,8.30078125,-70.3125,-65.91796875,0.9765625,0.0
1740447780.0329168,8.7890625,-74.70703125,-60.546875,4.8828125,0.0
1740447780.0368226,7.32421875,-74.70703125,-55.17578125,20.01953125,0.0
1740447780.0407283,6.8359375,-74.21875,-56.15234375,8.7890625,0.0
1740447780.0446343,16.11328125,-74.21875,-60.546875,9.765625,0.0
1740447780.04854,22.94921875,-75.1953125,-63.96484375,17.08984375,0.0
1740447780.052446,12.6953125,-73.73046875,-63.96484375,4.8828125,0.0
1740447780.0563517,5.37109375,-68.359375,-60.546875,8.7890625,0.0
1740447780.0602574,19.04296875,-63.96484375,-59.5703125,10.7421875,0.0
1740447780.0641634,17.578125,-68.84765625,-65.91796875,7.32421875,0.0
1740447780.0680692,6.34765625,-70.3125,-64.453125,18.5546875,0.0
1740447780.071975,21.484375,-60.546875,-63.4765625,4.39453125,0.0
1740447780.0758808,26.3671875,-57.6171875,-61.5234375,7.8125,0.0
1740447780.0797918,25.390625,-59.08203125,-55.6640625,32.71484375,0.0
1740447780.0836976,11.71875,-57.6171875,-60.546875,13.18359375,0.0
1740447780.0876033,4.39453125,-62.01171875,-60.05859375,-9.765625,0.0
1740447780.0915093,17.578125,-65.91796875,-62.5,10.25390625,0.0
1740447780.095415,22.4609375,-63.96484375,-64.453125,6.8359375,0.0
1740447780.099321,15.625,-61.03515625,-61.03515625,2.44140625,0.0
1740447780.1032267,2.9296875,-57.12890625,-62.01171875,-2.9296875,0.0
1740447780.1071324,-0.48828125,-54.19921875,-63.4765625,-6.8359375,0.0
1740447780.1110384,4.39453125,-61.03515625,-59.08203125,12.6953125,0.0
1740447780.1149442,13.18359375,-62.5,-60.546875,16.6015625,0.0
1740447780.11885,13.671875,-57.6171875,-60.05859375,3.90625,0.0
1740447780.1227558,16.11328125,-52.734375,-63.4765625,-5.37109375,0.0
1740447780.1266663,27.83203125,-46.38671875,-64.453125,1.953125,0.0
1740447780.1305723,18.5546875,-43.45703125,-60.546875,11.23046875,0.0
1740447780.134478,11.71875,-46.38671875,-63.96484375,3.41796875,0.0
1740447780.1383839,-7.32421875,-49.8046875,-66.89453125,-1.46484375,0.0
1740447780.1422896,-7.8125,-43.45703125,-64.94140625,1.953125,0.0
1740447780.1461954,0.48828125,-44.921875,-65.91796875,0.9765625,0.0
1740447780.1501014,-19.53125,-54.6875,-67.3828125,-3.41796875,0.0
1740447780.1540072,-16.6015625,-52.734375,-64.453125,-7.8125,0.0
1740447780.157913,-12.20703125,-51.26953125,-63.96484375,-10.7421875,0.0
1740447780.1618187,-15.13671875,-48.828125,-64.453125,-5.37109375,0.0
1740447780.1657245,-10.25390625,-52.734375,-63.96484375,1.953125,0.0
1740447780.1696305,-9.765625,-60.05859375,-59.08203125,-20.99609375,0.0
1740447780.1735406,-16.11328125,-57.6171875,-58.10546875,-28.80859375,0.0
1740447780.1774464,0.48828125,-46.38671875,-55.17578125,-14.16015625,0.0
1740447780.1813524,-3.90625,-51.7578125,-57.12890625,-13.18359375,0.0
1740447780.1852582,-24.90234375,-58.59375,-63.4765625,-20.01953125,0.0
1740447780.189164,-16.6015625,-54.6875,-66.89453125,-17.578125,0.0
1740447780.1930697,-14.6484375,-55.17578125,-68.84765625,-15.625,0.0
1740447780.1969755,-14.6484375,-53.22265625,-68.359375,-12.20703125,0.0
1740447780.2008815,-15.625,-52.24609375,-74.21875,-24.4140625,0.0
1740447780.2047873,-18.5546875,-53.22265625,-77.1484375,-30.76171875,0.0
1740447780.208693,-1.953125,-49.31640625,-69.3359375,-20.01953125,0.0
1740447780.2125988,-4.8828125,-51.26953125,-71.77734375,-21.484375,0.0
1740447780.2165046,-12.20703125,-49.8046875,-64.453125,-29.296875,0.0
1740447780.2204144,-14.6484375,-45.8984375,-60.546875,-30.2734375,0.0
1740447780.2243204,-24.90234375,-49.8046875,-66.40625,-33.69140625,0.0
1740447780.2282262,-27.34375,-50.78125,-64.453125,-35.64453125,0.0
1740447780.232132,-34.66796875,-56.15234375,-67.87109375,-31.73828125,0.0
1740447780.2360377,-25.390625,-57.12890625,-66.40625,-30.2734375,0.0
1740447780.2399435,-18.06640625,-51.7578125,-63.96484375,-41.9921875,0.0
1740447780.2438495,-25.390625,-54.19921875,-69.3359375,-37.109375,0.0
1740447780.2477553,-30.76171875,-60.546875,-68.359375,-38.0859375,0.0
1740447780.251661,-25.87890625,-59.08203125,-62.5,-34.66796875,0.0
1740447780.2555668,-27.83203125,-61.5234375,-66.40625,-39.0625,0.0
1740447780.2594726,-31.73828125,-56.640625,-66.89453125,-36.62109375,0.0
1740447780.2633786,-34.1796875,-52.24609375,-67.87109375,-27.83203125,0.0
1740447780.267288,-33.69140625,-55.17578125,-70.3125,-34.1796875,0.0
1740447780.2711937,-33.69140625,-56.640625,-69.82421875,-53.22265625,0.0
1740447780.2750995,-29.296875,-59.08203125,-68.359375,-54.6875,0.0
1740447780.2790053,-36.1328125,-55.6640625,-66.40625,-38.57421875,0.0
1740447780.2829113,-32.2265625,-55.6640625,-64.453125,-31.73828125,0.0
1740447780.286817,-16.11328125,-52.24609375,-61.03515625,-41.015625,0.0
1740447780.2907228,-25.390625,-54.6875,-64.453125,-38.0859375,0.0
1740447780.2946286,-31.25,-57.6171875,-62.01171875,-26.3671875,0.0
1740447780.2985344,-23.4375,-47.8515625,-55.17578125,-31.25,0.0
1740447780.3024404,-30.76171875,-47.36328125,-62.01171875,-43.9453125,0.0
1740447780.3063462,-42.96875,-55.6640625,-72.265625,-47.8515625,0.0
1740447780.310252,-45.41015625,-52.734375,-72.265625,-50.78125,0.0
1740447780.314161,-37.109375,-48.828125,-68.359375,-41.015625,0.0
1740447780.3180668,-41.015625,-44.43359375,-65.91796875,-32.71484375,0.0
1740447780.3219726,-46.875,-52.734375,-75.68359375,-53.22265625,0.0
1740447780.3258784,-42.48046875,-61.03515625,-80.56640625,-54.19921875,0.0
1740447780.3297844,-35.64453125,-53.7109375,-75.1953125,-45.8984375,0.0
1740447780.3336902,-45.8984375,-59.08203125,-78.125,-47.36328125,0.0
1740447780.337596,-48.33984375,-62.5,-78.61328125,-51.26953125,0.0
1740447780.3415017,-39.55078125,-49.31640625,-69.82421875,-43.45703125,0.0
1740447780.3454075,-43.9453125,-46.875,-77.63671875,-52.734375,0.0
1740447780.3493135,-44.43359375,-48.33984375,-82.03125,-59.5703125,0.0
1740447780.3532193,-44.43359375,-50.78125,-72.75390625,-47.36328125,0.0
1740447780.357125,-44.921875,-60.546875,-68.359375,-39.55078125,0.0
1740447780.3610337,-43.45703125,-64.94140625,-68.84765625,-47.36328125,0.0
1740447780.3649395,-54.6875,-60.546875,-66.40625,-54.19921875,0.0
1740447780.3688452,-72.75390625,-60.05859375,-67.87109375,-47.36328125,0.0
1740447780.3727512,-77.1484375,-62.01171875,-73.2421875,-57.6171875,0.0
1740447780.376657,-57.6171875,-64.453125,-73.2421875,-56.15234375,0.0
1740447780.3805628,-45.41015625,-65.91796875,-71.77734375,-49.8046875,0.0
1740447780.3844686,-45.41015625,-61.5234375,-72.265625,-51.26953125,0.0
1740447780.3883743,-48.828125,-54.6875,-71.2890625,-50.78125,0.0
1740447780.3922803,-42.96875,-51.26953125,-71.2890625,-51.7578125,0.0
1740447780.396186,-38.0859375,-59.08203125,-71.2890625,-39.55078125,0.0
1740447780.400092,-42.48046875,-49.8046875,-67.87109375,-33.69140625,0.0
1740447780.4039977,-37.59765625,-37.59765625,-65.4296875,-39.55078125,0.0
1740447780.4079092,-49.31640625,-50.78125,-70.3125,-42.48046875,0.0
1740447780.411815,-51.7578125,-55.17578125,-66.40625,-43.9453125,0.0
1740447780.4157207,-41.015625,-49.31640625,-61.03515625,-50.29296875,0.0
1740447780.4196265,-40.0390625,-50.29296875,-63.96484375,-56.15234375,0.0
1740447780.4235325,-37.109375,-48.33984375,-64.94140625,-59.08203125,0.0
1740447780.4274383,-30.2734375,-46.38671875,-66.40625,-39.55078125,0.0
1740447780.431344,-36.62109375,-48.33984375,-66.89453125,-32.71484375,0.0
1740447780.4352498,-47.36328125,-51.7578125,-65.91796875,-36.1328125,0.0
1740447780.4391556,-42.96875,-56.15234375,-67.87109375,-37.109375,0.0
1740447780.4430616,-35.15625,-54.6875,-66.89453125,-38.0859375,0.0
1740447780.4469674,-33.69140625,-43.45703125,-62.01171875,-41.015625,0.0
1740447780.4508731,-41.015625,-43.9453125,-64.453125,-44.921875,0.0
1740447780.4547842,-39.0625,-49.31640625,-66.89453125,-48.828125,0.0
1740447780.45869,-29.78515625,-40.52734375,-62.5,-46.38671875,0.0
1740447780.4625957,-23.92578125,-34.1796875,-59.5703125,-46.38671875,0.0
1740447780.4665017,-27.83203125,-43.9453125,-61.03515625,-40.52734375,0.0
1740447780.4704075,-37.109375,-50.78125,-70.3125,-43.9453125,0.0
1740447780.4743133,-46.875,-45.41015625,-73.73046875,-49.31640625,0.0
1740447780.478219,-49.8046875,-49.8046875,-72.265625,-45.8984375,0.0
1740447780.4821248,-45.41015625,-46.875,-66.40625,-49.31640625,0.0
1740447780.4860308,-51.7578125,-52.24609375,-71.77734375,-50.29296875,0.0
1740447780.4899366,-56.15234375,-53.7109375,-72.265625,-53.22265625,0.0
1740447780.4938424,-42.96875,-44.43359375,-66.89453125,-58.59375,0.0
1740447780.4977481,-26.85546875,-44.43359375,-70.80078125,-51.7578125,0.0
1740447780.5016587,-36.1328125,-44.43359375,-74.70703125,-48.828125,0.0
1740447780.5055647,-46.875,-41.9921875,-74.70703125,-48.33984375,0.0
1740447780.5094705,-39.55078125,-38.57421875,-70.3125,-56.640625,0.0
1740447780.5133762,-38.57421875,-39.55078125,-69.3359375,-59.08203125,0.0
1740447780.517282,-41.9921875,-38.57421875,-64.94140625,-57.6171875,0.0
1740447780.5211878,-35.64453125,-34.1796875,-67.3828125,-50.29296875,0.0
1740447780.5250938,-38.0859375,-30.2734375,-73.2421875,-40.52734375,0.0
1740447780.5289996,-27.34375,-25.390625,-69.82421875,-42.96875,0.0
1740447780.5329053,-34.66796875,-28.3203125,-70.80078125,-42.96875,0.0
1740447780.536811,-47.36328125,-22.94921875,-68.84765625,-48.828125,0.0
1740447780.540717,-37.109375,-20.01953125,-68.359375,-50.29296875,0.0
1740447780.544623,-29.78515625,-15.625,-68.359375,-45.8984375,0.0
1740447780.548533,-35.64453125,-3.90625,-62.98828125,-41.9921875,0.0
1740447780.5524387,-48.828125,6.34765625,-62.5,-52.734375,0.0
1740447780.5563447,-47.36328125,12.20703125,-66.89453125,-48.828125,0.0
1740447780.5602505,-35.15625,10.7421875,-63.96484375,-43.45703125,0.0
1740447780.5641563,-40.52734375,12.6953125,-61.03515625,-45.8984375,0.0
1740447780.568062,-57.12890625,13.671875,-69.3359375,-42.48046875,0.0
1740447780.5719678,-51.26953125,15.13671875,-70.80078125,-41.015625,0.0
1740447780.5758739,-41.015625,16.11328125,-65.4296875,-49.8046875,0.0
1740447780.5797796,-27.83203125,20.01953125,-66.89453125,-42.48046875,0.0
1740447780.5836854,-28.80859375,21.484375,-70.3125,-36.1328125,0.0
1740447780.5875912,-40.0390625,25.390625,-69.82421875,-42.96875,0.0
1740447780.591497,-51.26953125,20.5078125,-77.63671875,-44.921875,0.0
1740447780.5954068,-38.57421875,15.13671875,-85.44921875,-40.52734375,0.0
1740447780.5993128,-40.52734375,22.94921875,-77.63671875,-42.96875,0.0
1740447780.6032186,-52.24609375,15.13671875,-74.70703125,-39.55078125,0.0
1740447780.6071243,-37.109375,12.20703125,-74.70703125,-46.38671875,0.0
1740447780.61103,-34.1796875,13.18359375,-70.80078125,-43.9453125,0.0
1740447780.6149359,-36.62109375,5.859375,-73.73046875,-37.59765625,0.0
1740447780.618842,-42.48046875,4.8828125,-71.77734375,-39.55078125,0.0
1740447780.6227477,-55.17578125,-0.9765625,-68.84765625,-46.38671875,0.0
1740447780.6266534,-53.22265625,2.9296875,-68.84765625,-53.22265625,0.0
1740447780.6305592,-51.7578125,5.859375,-67.87109375,-57.12890625,0.0
1740447780.634465,-60.05859375,-3.41796875,-68.84765625,-54.19921875,0.0
1740447780.638371,-51.26953125,-5.37109375,-71.77734375,-51.26953125,0.0
1740447780.6422803,-21.97265625,2.44140625,-70.80078125,-50.78125,0.0
1740447780.646186,-25.390625,1.46484375,-77.1484375,-46.875,0.0
1740447780.650092,-38.57421875,-9.765625,-82.51953125,-47.36328125,0.0
1740447780.6539977,-43.9453125,-10.7421875,-72.265625,-41.9921875,0.0
1740447780.6579037,-41.50390625,-7.32421875,-70.80078125,-44.921875,0.0
1740447780.6618094,-27.34375,-9.765625,-75.68359375,-46.38671875,0.0
1740447780.6657152,-44.43359375,-23.4375,-75.68359375,-49.8046875,0.0
1740447780.669621,-50.29296875,-23.92578125,-77.1484375,-56.15234375,0.0
1740447780.673527,-39.55078125,-13.671875,-82.03125,-41.50390625,0.0
1740447780.6774328,-42.48046875,-21.97265625,-82.03125,-37.59765625,0.0
1740447780.6813385,-32.71484375,-24.90234375,-85.44921875,-54.19921875,0.0
1740447780.6852443,-33.69140625,-18.5546875,-87.40234375,-51.7578125,0.0
1740447780.6891534,-41.015625,-19.53125,-84.47265625,-46.38671875,0.0
1740447780.6930592,-30.76171875,-26.85546875,-81.54296875,-52.24609375,0.0
1740447780.6969652,-31.25,-31.73828125,-78.61328125,-48.828125,0.0
1740447780.700871,-30.76171875,-24.90234375,-70.3125,-42.96875,0.0
1740447780.7047768,-26.3671875,-24.4140625,-65.91796875,-42.96875,0.0
1740447780.7086825,-29.78515625,-35.15625,-77.63671875,-43.45703125,0.0
1740447780.7125883,-41.9921875,-39.55078125,-79.58984375,-37.59765625,0.0
1740447780.7164943,-43.45703125,-29.78515625,-65.91796875,-41.015625,0.0
1740447780.7204,-30.76171875,-22.4609375,-64.94140625,-47.36328125,0.0
1740447780.7243059,-19.04296875,-22.94921875,-65.91796875,-45.41015625,0.0
1740447780.7282116,-23.4375,-25.87890625,-65.4296875,-41.50390625,0.0
1740447780.7321174,-42.48046875,-32.2265625,-63.96484375,-45.41015625,0.0
1740447780.7360294,-45.41015625,-33.69140625,-60.05859375,-43.45703125,0.0
1740447780.7399352,-36.1328125,-31.25,-60.546875,-33.69140625,0.0
1740447780.743841,-36.62109375,-26.85546875,-60.546875,-33.69140625,0.0
1740447780.7477467,-28.3203125,-24.90234375,-60.546875,-36.62109375,0.0
1740447780.7516525,-39.55078125,-27.34375,-58.10546875,-44.43359375,0.0
1740447780.7555585,-40.52734375,-29.78515625,-55.17578125,-32.2265625,0.0
1740447780.7594643,-29.78515625,-34.66796875,-56.640625,-31.73828125,0.0
1740447780.76337,-27.34375,-34.1796875,-57.6171875,-50.78125,0.0
1740447780.7672758,-22.4609375,-31.73828125,-52.24609375,-39.0625,0.0
1740447780.7711818,-35.15625,-40.52734375,-50.29296875,-31.73828125,0.0
1740447780.7750876,-36.62109375,-38.57421875,-52.734375,-44.921875,0.0
1740447780.7789934,-31.25,-24.4140625,-48.33984375,-48.828125,0.0
1740447780.7829046,-33.69140625,-24.4140625,-43.45703125,-40.0390625,0.0
1740447780.7868106,-38.57421875,-23.4375,-41.015625,-38.57421875,0.0
1740447780.7907164,-37.59765625,-24.4140625,-41.015625,-36.62109375,0.0
1740447780.7946222,-37.59765625,-35.64453125,-37.59765625,-32.2265625,0.0
1740447780.798528,-45.8984375,-37.59765625,-33.69140625,-44.43359375,0.0
1740447780.802434,-52.24609375,-37.109375,-46.875,-47.8515625,0.0
1740447780.8063397,-40.0390625,-34.1796875,-55.6640625,-43.9453125,0.0
1740447780.8102455,-40.0390625,-36.1328125,-48.33984375,-54.6875,0.0
1740447780.8141513,-45.41015625,-44.43359375,-44.921875,-60.546875,0.0
1740447780.818057,-38.57421875,-43.45703125,-44.921875,-51.26953125,0.0
1740447780.821963,-28.3203125,-32.71484375,-40.0390625,-36.62109375,0.0
1740447780.8258688,-35.15625,-31.25,-41.015625,-35.64453125,0.0
1740447780.8297799,-35.15625,-40.0390625,-43.45703125,-52.24609375,0.0
1740447780.8336856,-47.8515625,-44.43359375,-39.0625,-40.0390625,0.0
1740447780.8375914,-58.10546875,-41.50390625,-40.0390625,-38.0859375,0.0
1740447780.8414972,-35.64453125,-37.59765625,-37.109375,-41.015625,0.0
1740447780.8454032,-35.15625,-41.50390625,-33.203125,-42.48046875,0.0
1740447780.849309,-51.26953125,-47.36328125,-33.203125,-49.31640625,0.0
1740447780.8532147,-46.38671875,-40.0390625,-28.80859375,-40.52734375,0.0
1740447780.8571205,-34.1796875,-39.55078125,-25.87890625,-43.45703125,0.0
1740447780.8610263,-41.015625,-46.38671875,-24.4140625,-44.921875,0.0
1740447780.8649323,-47.36328125,-36.1328125,-17.578125,-40.52734375,0.0
1740447780.868838,-50.29296875,-29.78515625,-15.13671875,-46.38671875,0.0
1740447780.8727438,-52.734375,-38.57421875,-18.5546875,-39.55078125,0.0
1740447780.8766544,-31.25,-42.96875,-19.04296875,-41.50390625,0.0
1740447780.8805602,-32.71484375,-35.64453125,-22.94921875,-55.6640625,0.0
1740447780.8844662,-45.8984375,-36.62109375,-25.87890625,-45.8984375,0.0
1740447780.888372,-32.2265625,-40.52734375,-22.94921875,-39.55078125,0.0
1740447780.8922777,-31.25,-41.015625,-27.83203125,-49.8046875,0.0
1740447780.8961835,-37.109375,-43.9453125,-31.73828125,-43.9453125,0.0
1740447780.9000893,-36.1328125,-43.45703125,-31.25,-44.43359375,0.0
1740447780.9039953,-45.41015625,-46.38671875,-36.62109375,-47.36328125,0.0
1740447780.907901,-43.9453125,-47.36328125,-39.55078125,-38.57421875,0.0
1740447780.9118068,-32.71484375,-41.50390625,-34.66796875,-35.15625,0.0
1740447780.9157126,-40.52734375,-45.41015625,-32.2265625,-50.29296875,0.0
1740447780.9196184,-44.43359375,-48.33984375,-36.62109375,-58.10546875,0.0
1740447780.9235287,-36.1328125,-48.33984375,-35.64453125,-45.8984375,0.0
1740447780.9274344,-34.1796875,-48.33984375,-34.1796875,-38.0859375,0.0
1740447780.9313405,-38.57421875,-48.828125,-40.52734375,-56.640625,0.0
1740447780.9352462,-39.55078125,-54.6875,-44.43359375,-60.546875,0.0
1740447780.939152,-36.1328125,-49.8046875,-34.66796875,-38.57421875,0.0
1740447780.9430578,-40.52734375,-43.9453125,-26.3671875,-46.38671875,0.0
1740447780.9469635,-48.828125,-44.921875,-32.2265625,-63.4765625,0.0
1740447780.9508696,-48.828125,-43.45703125,-39.0625,-45.8984375,0.0
1740447780.9547753,-44.43359375,-44.43359375,-32.71484375,-31.25,0.0
1740447780.958681,-50.29296875,-44.921875,-28.80859375,-54.19921875,0.0
1740447780.9625869,-51.7578125,-41.9921875,-29.78515625,-58.59375,0.0
1740447780.9664927,-47.8515625,-46.38671875,-29.296875,-41.50390625,0.0
1740447780.9704025,-43.45703125,-41.015625,-32.71484375,-54.6875,0.0
1740447780.9743083,-38.0859375,-33.69140625,-33.203125,-62.98828125,0.0
1740447780.9782143,-40.0390625,-38.57421875,-35.15625,-42.96875,0.0
1740447780.98212,-45.41015625,-39.55078125,-34.1796875,-37.59765625,0.0
1740447780.9860258,-48.828125,-34.1796875,-35.15625,-41.50390625,0.0
1740447780.9899316,-31.73828125,-29.78515625,-26.85546875,-38.57421875,0.0
1740447780.9938374,-34.1796875,-34.66796875,-22.94921875,-45.41015625,0.0
1740447780.9977434,-41.50390625,-43.45703125,-30.2734375,-38.57421875,0.0
1740447781.0016491,-50.29296875,-36.62109375,-25.390625,-32.71484375,0.0
1740447781.005555,-63.4765625,-39.0625,-30.76171875,-38.57421875,0.0
1740447781.0094607,-50.78125,-43.9453125,-35.64453125,-51.26953125,0.0
1740447781.0133667,-34.1796875,-44.921875,-37.109375,-54.19921875,0.0
1740447781.017276,-39.0625,-50.78125,-43.45703125,-40.52734375,0.0
1740447781.0211818,-29.78515625,-48.33984375,-33.69140625,-30.2734375,0.0
1740447781.0250876,-20.5078125,-48.828125,-20.5078125,-41.015625,0.0
1740447781.0289936,-21.484375,-42.96875,-14.6484375,-40.0390625,0.0
1740447781.0328994,-22.94921875,-39.0625,-17.578125,-41.50390625,0.0
1740447781.0368052,-26.85546875,-48.828125,-25.87890625,-42.96875,0.0
1740447781.040711,-22.4609375,-51.26953125,-25.87890625,-35.15625,0.0
1740447781.0446167,-22.4609375,-40.52734375,-24.90234375,-32.2265625,0.0
1740447781.0485227,-34.66796875,-36.62109375,-31.73828125,-41.50390625,0.0
1740447781.0524285,-20.01953125,-42.96875,-30.2734375,-49.31640625,0.0
1740447781.0563343,-22.4609375,-44.921875,-25.87890625,-39.55078125,0.0
1740447781.06024,-30.2734375,-47.36328125,-29.78515625,-42.48046875,0.0
1740447781.0641491,-26.85546875,-51.26953125,-31.25,-42.48046875,0.0
1740447781.068055,-33.203125,-48.828125,-28.80859375,-43.45703125,0.0
1740447781.0719607,-30.76171875,-48.828125,-28.80859375,-45.8984375,0.0
1740447781.0758667,-25.390625,-49.31640625,-31.25,-39.55078125,0.0
1740447781.0797725,-29.78515625,-48.828125,-31.73828125,-31.73828125,0.0
1740447781.0836782,-38.57421875,-52.734375,-33.69140625,-23.4375,0.0
