timestamps,TP9,AF7,AF8,TP10,Right AUX
1740374172.9865613,-49.31640625,-36.62109375,-56.640625,-65.91796875,0.0
1740374172.9904668,-69.3359375,-36.62109375,-52.734375,-64.94140625,0.0
1740374172.9943726,-61.03515625,-39.0625,-42.96875,-55.17578125,0.0
1740374172.9982781,-45.8984375,-43.45703125,-42.96875,-54.6875,0.0
1740374173.002184,-58.59375,-48.828125,-48.33984375,-49.8046875,0.0
1740374173.0060894,-71.77734375,-52.24609375,-53.22265625,-49.31640625,0.0
1740374173.0099952,-54.6875,-53.22265625,-38.57421875,-41.9921875,0.0
1740374173.0139008,-36.1328125,-46.38671875,-38.0859375,-35.15625,0.0
1740374173.0178065,-29.78515625,-40.0390625,-43.9453125,-40.52734375,0.0
1740374173.021712,-37.109375,-41.50390625,-36.1328125,-32.2265625,0.0
1740374173.0256178,-37.109375,-38.57421875,-37.59765625,-26.85546875,0.0
1740374173.0295234,-30.2734375,-37.59765625,-45.41015625,-22.4609375,0.0
1740374173.0334313,-27.83203125,-32.71484375,-33.69140625,-20.5078125,0.0
1740374173.0373368,-29.296875,-35.15625,-26.85546875,-20.99609375,0.0
1740374173.0412426,-32.71484375,-37.109375,-35.15625,-15.625,0.0
1740374173.0451481,-15.625,-29.296875,-38.0859375,-13.671875,0.0
1740374173.049054,-2.44140625,-30.2734375,-35.15625,-24.90234375,0.0
1740374173.0529594,-14.6484375,-35.64453125,-37.109375,-36.1328125,0.0
1740374173.0568652,-18.5546875,-39.0625,-36.1328125,-18.06640625,0.0
1740374173.0607708,-12.20703125,-31.25,-22.4609375,-25.390625,0.0
1740374173.0646765,-17.08984375,-26.3671875,-22.94921875,-52.734375,0.0
1740374173.068582,-32.71484375,-29.78515625,-35.64453125,-52.24609375,0.0
1740374173.0724878,-49.8046875,-35.64453125,-37.59765625,-38.0859375,0.0
1740374173.0763934,-44.43359375,-30.2734375,-37.59765625,-37.109375,0.0
1740374173.080301,-23.92578125,-22.94921875,-36.1328125,-39.55078125,0.0
1740374173.0842066,-18.5546875,-27.34375,-32.2265625,-33.203125,0.0
1740374173.0881124,-38.57421875,-32.71484375,-42.48046875,-43.9453125,0.0
1740374173.092018,-41.9921875,-37.59765625,-51.7578125,-49.8046875,0.0
1740374173.0959237,-26.85546875,-39.0625,-43.9453125,-44.43359375,0.0
1740374173.0998292,-26.85546875,-39.55078125,-36.1328125,-48.828125,0.0
1740374173.103735,-48.33984375,-43.45703125,-39.55078125,-56.640625,0.0
1740374173.1076405,-45.41015625,-31.73828125,-42.96875,-54.19921875,0.0
1740374173.1115463,-34.1796875,-31.25,-42.48046875,-56.15234375,0.0
1740374173.1154518,-39.55078125,-41.9921875,-42.96875,-54.6875,0.0
1740374173.1193576,-61.5234375,-35.64453125,-38.57421875,-55.6640625,0.0
1740374173.1232631,-81.54296875,-39.0625,-36.62109375,-70.3125,0.0
1740374173.1271734,-77.63671875,-45.8984375,-40.52734375,-79.58984375,0.0
1740374173.131079,-65.4296875,-47.8515625,-39.55078125,-80.56640625,0.0
1740374173.1349847,-74.21875,-44.43359375,-40.52734375,-75.68359375,0.0
1740374173.1388903,-89.35546875,-43.45703125,-35.64453125,-67.87109375,0.0
1740374173.142796,-82.51953125,-44.921875,-40.0390625,-67.3828125,0.0
1740374173.1467016,-60.05859375,-41.015625,-44.921875,-60.546875,0.0
1740374173.1506073,-54.19921875,-42.48046875,-41.50390625,-45.41015625,0.0
1740374173.154513,-66.40625,-42.96875,-39.0625,-41.015625,0.0
1740374173.1584187,-59.5703125,-42.48046875,-40.0390625,-33.69140625,0.0
1740374173.1623242,-40.0390625,-43.45703125,-41.015625,-20.99609375,0.0
1740374173.1662297,-33.203125,-35.64453125,-35.64453125,-16.6015625,0.0
1740374173.1701355,-39.55078125,-33.69140625,-30.2734375,-17.578125,0.0
1740374173.174045,-44.921875,-35.64453125,-31.25,-13.18359375,0.0
1740374173.1779509,-28.80859375,-31.73828125,-28.80859375,-5.37109375,0.0
1740374173.1818564,-18.5546875,-29.296875,-30.2734375,-11.71875,0.0
1740374173.1857622,-28.80859375,-29.78515625,-37.109375,-22.4609375,0.0
1740374173.1896677,-22.94921875,-33.203125,-34.1796875,-18.5546875,0.0
1740374173.1935735,-15.13671875,-35.15625,-28.80859375,-14.16015625,0.0
1740374173.197479,-11.23046875,-30.2734375,-37.59765625,-17.08984375,0.0
1740374173.2013848,-11.23046875,-27.83203125,-37.59765625,-12.20703125,0.0
1740374173.2052903,-18.5546875,-31.25,-33.69140625,-1.953125,0.0
1740374173.209196,-20.01953125,-35.64453125,-34.66796875,-5.859375,0.0
1740374173.2131016,-14.16015625,-34.1796875,-32.2265625,-20.99609375,0.0
1740374173.2170074,-16.11328125,-32.2265625,-36.62109375,-22.94921875,0.0
1740374173.2209167,-37.59765625,-34.1796875,-33.203125,-23.4375,0.0
1740374173.2248223,-47.8515625,-31.73828125,-36.1328125,-36.1328125,0.0
1740374173.2287278,-28.3203125,-26.85546875,-39.0625,-29.296875,0.0
1740374173.2326336,-11.71875,-27.83203125,-30.2734375,-30.76171875,0.0
1740374173.2365391,-26.3671875,-31.25,-31.73828125,-37.109375,0.0
1740374173.240445,-29.78515625,-34.1796875,-37.59765625,-28.80859375,0.0
1740374173.2443504,-11.23046875,-31.25,-40.52734375,-24.4140625,0.0
1740374173.2482562,-0.9765625,-30.76171875,-37.59765625,-19.04296875,0.0
1740374173.2521617,-12.20703125,-40.0390625,-39.0625,-17.08984375,0.0
1740374173.2560675,-36.1328125,-35.15625,-42.96875,-35.15625,0.0
1740374173.259973,-34.1796875,-28.3203125,-34.66796875,-29.296875,0.0
1740374173.2638788,-19.53125,-35.15625,-38.0859375,-24.90234375,0.0
1740374173.2677877,-26.85546875,-35.15625,-49.31640625,-41.015625,0.0
1740374173.2716935,-45.8984375,-30.76171875,-42.96875,-41.015625,0.0
1740374173.275599,-44.921875,-41.50390625,-39.55078125,-41.50390625,0.0
1740374173.2795048,-21.97265625,-45.41015625,-42.96875,-39.55078125,0.0
1740374173.2834103,-17.578125,-36.62109375,-41.015625,-25.390625,0.0
1740374173.287316,-41.9921875,-34.1796875,-43.9453125,-20.99609375,0.0
1740374173.2912216,-56.15234375,-39.0625,-43.9453125,-42.96875,0.0
1740374173.2951274,-47.8515625,-37.109375,-33.203125,-46.38671875,0.0
1740374173.299033,-41.50390625,-34.66796875,-41.015625,-44.921875,0.0
1740374173.3029387,-56.640625,-32.71484375,-48.33984375,-53.7109375,0.0
1740374173.3068442,-61.03515625,-29.296875,-52.24609375,-50.78125,0.0
1740374173.31075,-48.33984375,-33.69140625,-50.78125,-47.36328125,0.0
1740374173.3146584,-38.0859375,-30.2734375,-42.96875,-42.96875,0.0
1740374173.3185642,-41.9921875,-26.85546875,-42.96875,-47.8515625,0.0
1740374173.3224697,-43.9453125,-25.390625,-42.96875,-45.8984375,0.0
1740374173.3263755,-30.2734375,-21.97265625,-47.8515625,-37.59765625,0.0
1740374173.330281,-25.87890625,-24.90234375,-53.22265625,-44.43359375,0.0
1740374173.3341868,-26.3671875,-23.92578125,-45.8984375,-46.875,0.0
1740374173.3380923,-22.4609375,-20.01953125,-38.57421875,-37.109375,0.0
1740374173.341998,-12.6953125,-20.99609375,-38.0859375,-29.296875,0.0
1740374173.3459036,-5.859375,-18.5546875,-52.734375,-35.15625,0.0
1740374173.3498094,-25.390625,-22.94921875,-56.640625,-36.1328125,0.0
1740374173.353715,-41.9921875,-26.3671875,-41.015625,-34.66796875,0.0
1740374173.3576207,-42.96875,-29.296875,-36.62109375,-31.73828125,0.0
1740374173.3615289,-30.2734375,-31.25,-28.3203125,-23.92578125,0.0
1740374173.3654344,-17.08984375,-30.76171875,-19.53125,-30.2734375,0.0
1740374173.3693402,-23.92578125,-34.66796875,-19.04296875,-28.3203125,0.0
1740374173.3732457,-39.55078125,-36.1328125,-27.34375,-26.85546875,0.0
1740374173.3771515,-33.203125,-34.1796875,-37.59765625,-24.4140625,0.0
1740374173.381057,-14.16015625,-33.203125,-32.71484375,-19.04296875,0.0
1740374173.3849628,-20.5078125,-33.69140625,-22.94921875,-9.27734375,0.0
1740374173.3888683,-33.69140625,-28.80859375,-27.34375,1.46484375,0.0
1740374173.392774,-29.296875,-18.06640625,-24.90234375,-0.48828125,0.0
1740374173.3966796,-8.30078125,-21.97265625,-14.16015625,-4.8828125,0.0
1740374173.4005854,-15.625,-28.80859375,-25.87890625,-12.6953125,0.0
1740374173.404491,-42.48046875,-28.3203125,-32.2265625,-28.80859375,0.0
1740374173.4083989,-41.9921875,-32.2265625,-32.2265625,-34.1796875,0.0
1740374173.4123046,-26.3671875,-32.71484375,-43.45703125,-26.85546875,0.0
1740374173.4162102,-25.87890625,-37.109375,-45.41015625,-23.92578125,0.0
1740374173.420116,-30.2734375,-39.55078125,-34.1796875,-24.90234375,0.0
1740374173.4240215,-37.109375,-33.203125,-26.3671875,-22.4609375,0.0
1740374173.4279273,-39.55078125,-32.71484375,-28.3203125,-27.34375,0.0
1740374173.4318328,-29.78515625,-37.59765625,-31.25,-26.85546875,0.0
1740374173.4357386,-46.38671875,-37.59765625,-34.66796875,-34.66796875,0.0
1740374173.439644,-62.98828125,-37.109375,-39.0625,-44.43359375,0.0
1740374173.4435499,-58.10546875,-43.9453125,-37.59765625,-45.41015625,0.0
1740374173.4474554,-50.29296875,-44.921875,-35.15625,-52.734375,0.0
1740374173.451361,-52.734375,-39.0625,-36.1328125,-57.6171875,0.0
1740374173.4552684,-63.96484375,-41.9921875,-40.52734375,-60.546875,0.0
1740374173.4591742,-58.10546875,-48.828125,-51.7578125,-55.17578125,0.0
1740374173.4630797,-49.31640625,-53.7109375,-55.6640625,-54.6875,0.0
1740374173.4669855,-57.6171875,-49.31640625,-43.45703125,-59.5703125,0.0
1740374173.470891,-74.70703125,-41.015625,-33.69140625,-54.19921875,0.0
1740374173.4747968,-75.1953125,-46.875,-34.66796875,-54.6875,0.0
1740374173.4787023,-52.24609375,-50.29296875,-34.66796875,-52.734375,0.0
1740374173.482608,-39.0625,-37.59765625,-35.64453125,-46.875,0.0
1740374173.4865136,-49.8046875,-39.55078125,-32.71484375,-39.55078125,0.0
1740374173.4904194,-58.10546875,-49.31640625,-30.76171875,-32.71484375,0.0
1740374173.494325,-41.50390625,-39.55078125,-33.69140625,-33.69140625,0.0
1740374173.4982307,-31.73828125,-32.71484375,-34.1796875,-33.69140625,0.0
1740374173.5021408,-38.57421875,-43.45703125,-40.52734375,-37.109375,0.0
1740374173.5060463,-51.26953125,-50.29296875,-43.9453125,-38.57421875,0.0
1740374173.509952,-46.38671875,-42.96875,-37.59765625,-31.73828125,0.0
1740374173.5138576,-24.90234375,-43.45703125,-37.59765625,-26.3671875,0.0
1740374173.5177634,-29.78515625,-49.8046875,-44.43359375,-34.1796875,0.0
1740374173.521669,-41.50390625,-47.36328125,-37.109375,-34.66796875,0.0
1740374173.5255747,-28.3203125,-41.015625,-37.109375,-31.25,0.0
1740374173.5294802,-18.5546875,-40.0390625,-48.828125,-42.96875,0.0
1740374173.533386,-16.11328125,-43.9453125,-42.48046875,-39.0625,0.0
1740374173.5372915,-28.3203125,-44.43359375,-37.59765625,-29.78515625,0.0
1740374173.5411973,-40.52734375,-38.57421875,-32.2265625,-35.15625,0.0
1740374173.5451028,-27.34375,-34.66796875,-20.5078125,-34.66796875,0.0
1740374173.5490124,-18.5546875,-28.3203125,-20.01953125,-22.94921875,0.0
1740374173.5529182,-25.87890625,-22.4609375,-23.4375,-24.90234375,0.0
1740374173.5568237,-28.80859375,-22.94921875,-33.203125,-32.71484375,0.0
1740374173.5607295,-22.94921875,-28.80859375,-38.0859375,-28.80859375,0.0
1740374173.564635,-20.5078125,-32.71484375,-36.62109375,-30.2734375,0.0
1740374173.5685408,-23.92578125,-24.4140625,-42.48046875,-35.64453125,0.0
1740374173.5724463,-31.73828125,-16.6015625,-33.203125,-26.3671875,0.0
1740374173.5763521,-36.1328125,-19.04296875,-24.90234375,-29.296875,0.0
1740374173.5802577,-28.80859375,-31.25,-37.109375,-37.109375,0.0
1740374173.5841634,-23.4375,-31.73828125,-37.109375,-40.0390625,0.0
1740374173.588069,-49.31640625,-28.3203125,-31.73828125,-54.6875,0.0
1740374173.5919747,-60.05859375,-32.2265625,-37.109375,-64.453125,0.0
1740374173.595884,-42.48046875,-33.203125,-45.8984375,-44.43359375,0.0
1740374173.5997896,-44.921875,-37.59765625,-40.52734375,-27.83203125,0.0
1740374173.6036954,-62.5,-35.15625,-32.71484375,-38.0859375,0.0
1740374173.607601,-62.01171875,-35.64453125,-33.203125,-44.43359375,0.0
1740374173.6115067,-44.43359375,-41.9921875,-26.85546875,-39.0625,0.0
1740374173.6154122,-33.69140625,-42.96875,-31.25,-25.87890625,0.0
1740374173.619318,-42.48046875,-36.62109375,-36.62109375,-27.83203125,0.0
1740374173.6232235,-49.31640625,-30.2734375,-23.92578125,-30.2734375,0.0
1740374173.6271293,-45.41015625,-40.0390625,-19.04296875,-20.5078125,0.0
1740374173.6310349,-47.36328125,-44.43359375,-22.4609375,-33.203125,0.0
1740374173.6349406,-53.7109375,-40.0390625,-20.01953125,-34.1796875,0.0
1740374173.6388462,-62.5,-34.66796875,-26.3671875,-29.78515625,0.0
1740374173.6427553,-57.6171875,-33.69140625,-29.78515625,-37.109375,0.0
1740374173.6466608,-37.59765625,-31.73828125,-29.296875,-47.8515625,0.0
1740374173.6505666,-29.296875,-27.83203125,-25.390625,-38.57421875,0.0
1740374173.654472,-36.1328125,-27.34375,-20.99609375,-22.94921875,0.0
1740374173.658378,-33.69140625,-27.34375,-19.04296875,-19.53125,0.0
1740374173.6622834,-23.4375,-26.85546875,-22.94921875,-20.5078125,0.0
1740374173.666189,-12.20703125,-24.4140625,-24.90234375,-20.5078125,0.0
1740374173.6700947,-17.578125,-24.4140625,-28.80859375,-8.7890625,0.0
1740374173.6740003,-30.76171875,-28.80859375,-35.64453125,-6.8359375,0.0
1740374173.677906,-22.4609375,-26.3671875,-34.1796875,-12.6953125,0.0
1740374173.6818116,-8.7890625,-25.87890625,-32.71484375,-11.71875,0.0
1740374173.6857173,-9.765625,-25.390625,-33.69140625,-12.20703125,0.0
1740374173.689626,-21.97265625,-23.92578125,-30.2734375,-20.99609375,0.0
1740374173.6935315,-17.578125,-26.3671875,-29.78515625,-22.4609375,0.0
1740374173.6974373,-1.46484375,-24.4140625,-31.25,-17.08984375,0.0
1740374173.7013428,-1.953125,-25.87890625,-25.390625,-6.8359375,0.0
1740374173.7052486,-20.01953125,-26.3671875,-22.4609375,-9.765625,0.0
1740374173.7091541,-22.94921875,-27.83203125,-27.34375,-19.04296875,0.0
1740374173.71306,-9.765625,-31.73828125,-28.3203125,-18.06640625,0.0
1740374173.7169654,-15.13671875,-38.0859375,-22.4609375,-17.578125,0.0
1740374173.7208712,-38.0859375,-37.59765625,-25.390625,-20.5078125,0.0
1740374173.7247767,-43.9453125,-39.55078125,-29.296875,-31.25,0.0
1740374173.7286825,-29.78515625,-41.50390625,-28.80859375,-39.0625,0.0
1740374173.732588,-22.4609375,-38.0859375,-31.73828125,-35.64453125,0.0
1740374173.7364962,-36.1328125,-36.1328125,-31.25,-37.109375,0.0
1740374173.740402,-52.734375,-37.109375,-30.2734375,-49.8046875,0.0
1740374173.7443075,-45.41015625,-42.96875,-40.52734375,-48.828125,0.0
1740374173.7482133,-30.76171875,-43.9453125,-42.48046875,-42.96875,0.0
1740374173.7521188,-33.69140625,-44.43359375,-36.62109375,-43.45703125,0.0
1740374173.7560246,-48.828125,-45.41015625,-32.71484375,-41.50390625,0.0
1740374173.7599301,-55.17578125,-51.7578125,-37.59765625,-42.48046875,0.0
1740374173.763836,-55.17578125,-51.26953125,-38.57421875,-57.12890625,0.0
1740374173.7677414,-58.59375,-42.96875,-40.0390625,-66.40625,0.0
1740374173.7716472,-70.3125,-40.52734375,-39.55078125,-66.89453125,0.0
1740374173.7755527,-77.1484375,-46.875,-40.52734375,-62.5,0.0
1740374173.7794585,-71.2890625,-48.33984375,-43.45703125,-64.453125,0.0
1740374173.7833662,-69.3359375,-46.875,-38.57421875,-60.546875,0.0
1740374173.787272,-70.3125,-51.26953125,-30.2734375,-57.12890625,0.0
1740374173.7911775,-71.77734375,-51.7578125,-30.76171875,-61.03515625,0.0
1740374173.7950833,-59.08203125,-51.26953125,-40.52734375,-57.12890625,0.0
1740374173.7989888,-51.7578125,-52.24609375,-38.57421875,-57.6171875,0.0
1740374173.8028946,-59.08203125,-56.15234375,-34.66796875,-56.15234375,0.0
1740374173.8068001,-64.453125,-62.5,-30.76171875,-51.7578125,0.0
1740374173.810706,-72.265625,-59.08203125,-33.203125,-62.01171875,0.0
1740374173.8146114,-67.3828125,-55.6640625,-37.59765625,-71.2890625,0.0
1740374173.8185172,-60.546875,-54.19921875,-35.64453125,-62.5,0.0
1740374173.8224227,-69.3359375,-46.875,-30.76171875,-53.7109375,0.0
1740374173.8263285,-64.453125,-47.36328125,-34.1796875,-56.640625,0.0
1740374173.830236,-52.734375,-56.15234375,-42.96875,-51.7578125,0.0
1740374173.8341415,-45.8984375,-57.6171875,-40.0390625,-36.1328125,0.0
1740374173.8380473,-37.59765625,-43.45703125,-39.55078125,-28.80859375,0.0
1740374173.8419528,-33.203125,-36.62109375,-43.9453125,-33.69140625,0.0
1740374173.8458586,-18.5546875,-33.69140625,-50.78125,-35.15625,0.0
1740374173.849764,-0.48828125,-27.34375,-41.015625,-25.390625,0.0
1740374173.85367,-8.7890625,-27.34375,-30.76171875,-20.01953125,0.0
1740374173.8575754,-13.18359375,-18.5546875,-26.85546875,-8.7890625,0.0
1740374173.8614812,8.7890625,-10.7421875,-24.90234375,-1.953125,0.0
1740374173.8653867,27.34375,-11.71875,-27.83203125,2.9296875,0.0
1740374173.8692925,19.53125,-7.8125,-30.76171875,4.8828125,0.0
1740374173.873198,8.7890625,-2.9296875,-36.1328125,0.9765625,0.0
1740374173.8771083,19.53125,-1.953125,-32.2265625,9.765625,0.0
1740374173.8810139,32.71484375,-2.9296875,-23.92578125,4.39453125,0.0
1740374173.8849196,18.06640625,-3.41796875,-27.83203125,-10.7421875,0.0
1740374173.8888252,-19.53125,-10.7421875,-33.69140625,-12.6953125,0.0
1740374173.892731,-23.92578125,-11.71875,-32.2265625,-14.16015625,0.0
1740374173.8966365,-8.7890625,-13.18359375,-42.48046875,-13.18359375,0.0
1740374173.9005423,-17.578125,-17.578125,-45.41015625,-26.3671875,0.0
1740374173.9044478,-43.45703125,-18.5546875,-35.64453125,-33.69140625,0.0
1740374173.9083536,-53.7109375,-25.390625,-30.2734375,-32.71484375,0.0
1740374173.912259,-46.875,-31.25,-30.2734375,-34.66796875,0.0
1740374173.9161646,-50.78125,-32.71484375,-35.64453125,-44.43359375,0.0
1740374173.9200704,-69.3359375,-36.62109375,-33.69140625,-52.24609375,0.0
1740374173.92398,-79.1015625,-45.41015625,-32.2265625,-53.22265625,0.0
1740374173.9278858,-64.94140625,-45.8984375,-33.69140625,-56.15234375,0.0
1740374173.9317913,-55.17578125,-41.015625,-36.1328125,-59.5703125,0.0
1740374173.935697,-62.5,-42.48046875,-41.015625,-53.7109375,0.0
1740374173.9396026,-57.12890625,-43.45703125,-36.62109375,-46.875,0.0
1740374173.9435084,-51.7578125,-49.8046875,-45.41015625,-59.08203125,0.0
1740374173.947414,-45.8984375,-46.875,-48.828125,-56.15234375,0.0
1740374173.9513197,-42.96875,-43.9453125,-45.41015625,-45.8984375,0.0
1740374173.9552252,-67.3828125,-50.29296875,-45.41015625,-49.8046875,0.0
1740374173.959131,-64.94140625,-47.36328125,-47.36328125,-45.41015625,0.0
1740374173.9630365,-45.41015625,-41.9921875,-58.10546875,-53.22265625,0.0
1740374173.9669423,-44.921875,-41.015625,-53.22265625,-57.6171875,0.0
1740374173.9708517,-61.5234375,-40.0390625,-49.31640625,-52.24609375,0.0
1740374173.9747574,-66.89453125,-40.52734375,-46.875,-54.19921875,0.0
1740374173.978663,-45.8984375,-43.9453125,-39.55078125,-51.26953125,0.0
1740374173.9825687,-30.2734375,-44.43359375,-42.48046875,-50.29296875,0.0
1740374173.9864743,-39.55078125,-46.875,-46.38671875,-58.10546875,0.0
1740374173.99038,-51.7578125,-49.31640625,-45.8984375,-55.17578125,0.0
1740374173.9942856,-38.0859375,-42.96875,-39.0625,-48.828125,0.0
1740374173.998191,-24.90234375,-41.9921875,-33.203125,-49.31640625,0.0
1740374174.002097,-31.25,-48.33984375,-30.76171875,-34.66796875,0.0
1740374174.0060024,-34.66796875,-40.52734375,-30.2734375,-25.87890625,0.0
1740374174.0099082,-32.71484375,-32.71484375,-31.25,-18.5546875,0.0
1740374174.0138137,-26.85546875,-31.73828125,-27.34375,-13.18359375,0.0
1740374174.0177228,-26.3671875,-29.78515625,-27.83203125,-20.99609375,0.0
1740374174.0216284,-40.52734375,-23.92578125,-30.76171875,-22.94921875,0.0
1740374174.0255342,-48.33984375,-32.71484375,-32.2265625,-20.5078125,0.0
1740374174.0294397,-31.25,-33.69140625,-36.1328125,-25.390625,0.0
1740374174.0333455,-18.5546875,-24.4140625,-37.109375,-24.4140625,0.0
1740374174.037251,-29.78515625,-29.78515625,-30.2734375,-21.484375,0.0
1740374174.0411568,-32.2265625,-32.2265625,-24.90234375,-27.83203125,0.0
1740374174.0450623,-19.53125,-28.3203125,-26.85546875,-25.390625,0.0
1740374174.048968,-13.18359375,-20.99609375,-24.90234375,-20.01953125,0.0
1740374174.0528736,-25.87890625,-18.5546875,-23.92578125,-25.390625,0.0
1740374174.0567794,-30.76171875,-24.4140625,-29.78515625,-24.4140625,0.0
1740374174.060685,-24.4140625,-29.296875,-37.59765625,-40.52734375,0.0
1740374174.0645936,-26.85546875,-31.25,-35.64453125,-45.41015625,0.0
1740374174.0684993,-37.109375,-28.3203125,-34.66796875,-32.71484375,0.0
1740374174.0724049,-51.26953125,-38.57421875,-37.59765625,-43.9453125,0.0
1740374174.0763106,-44.43359375,-44.921875,-40.52734375,-55.17578125,0.0
1740374174.0802162,-25.87890625,-41.015625,-35.64453125,-49.31640625,0.0
1740374174.084122,-30.76171875,-38.57421875,-33.203125,-44.43359375,0.0
1740374174.0880275,-57.6171875,-40.52734375,-38.0859375,-45.8984375,0.0
1740374174.0919333,-52.734375,-44.921875,-33.69140625,-39.0625,0.0
1740374174.0958388,-36.62109375,-37.59765625,-38.0859375,-48.33984375,0.0
1740374174.0997446,-38.0859375,-36.1328125,-50.29296875,-53.7109375,0.0
1740374174.10365,-48.828125,-38.57421875,-39.55078125,-41.50390625,0.0
1740374174.1075559,-52.24609375,-35.64453125,-36.1328125,-35.64453125,0.0
1740374174.111464,-40.0390625,-34.1796875,-39.0625,-46.38671875,0.0
1740374174.1153696,-25.390625,-37.59765625,-37.109375,-52.24609375,0.0
1740374174.1192753,-37.109375,-42.96875,-35.64453125,-45.41015625,0.0
1740374174.1231809,-61.03515625,-41.50390625,-34.66796875,-47.8515625,0.0
1740374174.1270866,-58.59375,-36.62109375,-38.0859375,-48.33984375,0.0
1740374174.1309922,-39.55078125,-33.69140625,-39.55078125,-46.38671875,0.0
1740374174.134898,-36.1328125,-32.71484375,-32.2265625,-36.1328125,0.0
1740374174.1388035,-46.875,-31.25,-29.296875,-23.4375,0.0
1740374174.1427093,-40.0390625,-30.2734375,-39.0625,-33.69140625,0.0
1740374174.1466148,-19.04296875,-36.62109375,-39.0625,-36.1328125,0.0
1740374174.1505206,-17.08984375,-38.0859375,-41.50390625,-32.2265625,0.0
1740374174.154426,-29.78515625,-28.3203125,-40.0390625,-30.76171875,0.0
1740374174.158337,-31.73828125,-20.99609375,-32.2265625,-29.296875,0.0
1740374174.1622427,-8.30078125,-24.90234375,-17.578125,-21.97265625,0.0
1740374174.1661484,3.41796875,-20.99609375,-25.87890625,-24.4140625,0.0
1740374174.170054,-15.13671875,-16.6015625,-41.9921875,-30.2734375,0.0
1740374174.1739597,-21.484375,-17.578125,-33.203125,-20.99609375,0.0
1740374174.1778653,-2.44140625,-21.484375,-24.4140625,-0.9765625,0.0
1740374174.181771,10.7421875,-20.99609375,-18.06640625,8.7890625,0.0
1740374174.1856766,-14.6484375,-15.625,-23.92578125,-10.7421875,0.0
1740374174.1895823,-36.62109375,-13.18359375,-30.76171875,-31.73828125,0.0
1740374174.193488,-23.92578125,-14.16015625,-27.34375,-23.4375,0.0
1740374174.1973937,-6.8359375,-15.13671875,-26.85546875,-9.765625,0.0
1740374174.2012992,-21.97265625,-24.4140625,-26.3671875,-13.18359375,0.0
1740374174.2052097,-38.57421875,-33.69140625,-39.55078125,-21.97265625,0.0
1740374174.2091153,-30.2734375,-30.76171875,-39.55078125,-26.3671875,0.0
1740374174.213021,-24.4140625,-27.83203125,-27.83203125,-31.73828125,0.0
1740374174.2169266,-31.25,-35.64453125,-30.76171875,-33.69140625,0.0
1740374174.2208323,-46.875,-39.0625,-26.85546875,-31.25,0.0
1740374174.224738,-53.7109375,-45.8984375,-24.4140625,-39.55078125,0.0
1740374174.2286437,-48.828125,-45.8984375,-32.2265625,-54.19921875,0.0
1740374174.2325492,-42.48046875,-40.0390625,-36.62109375,-61.03515625,0.0
1740374174.236455,-46.875,-42.96875,-31.73828125,-57.12890625,0.0
1740374174.2403605,-51.26953125,-47.36328125,-30.2734375,-41.9921875,0.0
1740374174.2442663,-38.57421875,-41.50390625,-38.0859375,-41.50390625,0.0
1740374174.2481718,-28.80859375,-38.0859375,-43.45703125,-51.7578125,0.0
1740374174.2520819,-47.8515625,-38.0859375,-53.7109375,-52.734375,0.0
1740374174.2559876,-66.40625,-36.1328125,-47.8515625,-55.17578125,0.0
1740374174.2598932,-59.08203125,-37.59765625,-33.69140625,-51.7578125,0.0
1740374174.263799,-37.59765625,-37.59765625,-36.1328125,-48.33984375,0.0
1740374174.2677045,-28.80859375,-35.15625,-37.109375,-45.8984375,0.0
1740374174.2716103,-42.48046875,-33.69140625,-34.1796875,-40.52734375,0.0
1740374174.2755158,-49.31640625,-31.73828125,-36.1328125,-36.1328125,0.0
1740374174.2794216,-43.9453125,-32.71484375,-40.52734375,-37.109375,0.0
1740374174.283327,-39.55078125,-34.66796875,-36.1328125,-29.78515625,0.0
1740374174.2872329,-39.0625,-31.25,-27.34375,-17.578125,0.0
1740374174.2911384,-42.48046875,-24.90234375,-27.34375,-27.34375,0.0
1740374174.2950442,-41.9921875,-30.76171875,-31.73828125,-37.59765625,0.0
1740374174.2989538,-32.71484375,-33.203125,-26.85546875,-37.59765625,0.0
1740374174.3028595,-44.921875,-29.296875,-30.2734375,-41.015625,0.0
1740374174.306765,-55.6640625,-31.73828125,-36.62109375,-41.50390625,0.0
1740374174.3106709,-51.26953125,-31.25,-33.203125,-47.36328125,0.0
1740374174.3145764,-51.26953125,-28.3203125,-34.1796875,-56.640625,0.0
1740374174.318482,-55.6640625,-36.62109375,-38.57421875,-63.96484375,0.0
1740374174.3223877,-62.01171875,-35.64453125,-35.64453125,-57.12890625,0.0
1740374174.3262932,-47.36328125,-24.4140625,-27.34375,-47.8515625,0.0
1740374174.330199,-26.85546875,-30.2734375,-24.4140625,-33.203125,0.0
1740374174.3341045,-57.6171875,-32.2265625,-33.69140625,-49.31640625,0.0
1740374174.3380103,-113.76953125,-20.01953125,-38.57421875,-94.7265625,0.0
1740374174.3419158,-101.5625,1.953125,-23.4375,-81.54296875,0.0
1740374174.3458254,-76.171875,3.90625,-22.4609375,-74.21875,0.0
1740374174.349731,-122.0703125,-12.20703125,-42.48046875,-133.30078125,0.0
1740374174.3536367,-173.828125,-9.765625,-39.0625,-166.015625,0.0
1740374174.3575423,-193.84765625,4.39453125,-32.71484375,-174.31640625,0.0
1740374174.361448,-207.51953125,-0.48828125,-40.0390625,-214.35546875,0.0
1740374174.3653536,-233.88671875,10.25390625,-37.59765625,-240.234375,0.0
1740374174.3692594,-255.859375,6.34765625,-21.97265625,-235.83984375,0.0
1740374174.373165,-280.76171875,2.9296875,-18.5546875,-257.8125,0.0
1740374174.3770704,-286.1328125,-4.8828125,-27.34375,-273.92578125,0.0
1740374174.3809762,-270.01953125,-0.48828125,-18.06640625,-271.484375,0.0
1740374174.3848817,-262.6953125,9.27734375,-10.25390625,-262.6953125,0.0
1740374174.3887875,-281.25,-3.41796875,-18.5546875,-269.53125,0.0
1740374174.3926964,-272.94921875,3.41796875,-22.94921875,-264.16015625,0.0
1740374174.3966022,-258.30078125,14.6484375,-20.99609375,-255.37109375,0.0
1740374174.4005077,-258.30078125,8.30078125,-23.92578125,-256.8359375,0.0
1740374174.4044135,-268.06640625,0.0,-28.3203125,-258.7890625,0.0
1740374174.408319,-261.71875,19.53125,-32.2265625,-262.20703125,0.0
1740374174.4122248,-232.91015625,20.5078125,-33.69140625,-253.41796875,0.0
1740374174.4161303,-228.515625,14.16015625,-36.1328125,-242.67578125,0.0
1740374174.420036,-213.37890625,26.3671875,-33.69140625,-215.8203125,0.0
1740374174.4239416,-213.37890625,23.4375,-43.9453125,-217.28515625,0.0
1740374174.4278474,-209.9609375,30.76171875,-49.8046875,-224.12109375,0.0
1740374174.431753,-199.21875,34.66796875,-48.828125,-224.12109375,0.0
1740374174.4356587,-195.80078125,25.390625,-47.8515625,-210.9375,0.0
1740374174.4395673,-196.77734375,36.62109375,-39.55078125,-200.68359375,0.0
1740374174.4434729,-191.89453125,47.8515625,-43.45703125,-207.51953125,0.0
1740374174.4473786,-168.45703125,42.48046875,-53.22265625,-198.73046875,0.0
1740374174.4512842,-160.15625,39.55078125,-51.26953125,-192.3828125,0.0
1740374174.45519,-179.19921875,40.0390625,-52.734375,-201.66015625,0.0
1740374174.4590955,-160.64453125,41.9921875,-62.5,-188.96484375,0.0
1740374174.463001,-137.6953125,49.8046875,-62.98828125,-178.7109375,0.0
1740374174.4669068,-135.25390625,48.33984375,-55.17578125,-168.45703125,0.0
1740374174.4708123,-134.765625,50.29296875,-59.08203125,-164.0625,0.0
1740374174.474718,-132.8125,50.78125,-61.5234375,-168.45703125,0.0
1740374174.4786236,-111.81640625,46.38671875,-60.05859375,-151.3671875,0.0
1740374174.4825294,-104.4921875,47.8515625,-58.59375,-143.06640625,0.0
1740374174.4864376,-107.421875,51.7578125,-62.01171875,-143.06640625,0.0
1740374174.4903433,-112.3046875,43.45703125,-72.75390625,-141.6015625,0.0
1740374174.4942489,-99.609375,42.48046875,-72.265625,-142.578125,0.0
1740374174.4981546,-84.9609375,44.921875,-65.91796875,-136.23046875,0.0
1740374174.5020602,-85.9375,37.59765625,-74.70703125,-130.859375,0.0
1740374174.505966,-94.7265625,26.3671875,-73.73046875,-128.90625,0.0
1740374174.5098715,-85.44921875,36.62109375,-52.24609375,-115.72265625,0.0
1740374174.5137773,-77.1484375,32.71484375,-70.80078125,-110.3515625,0.0
1740374174.5176828,-82.03125,27.34375,-82.03125,-124.0234375,0.0
1740374174.5215886,-91.796875,28.80859375,-62.5,-120.60546875,0.0
1740374174.525494,-85.9375,27.83203125,-61.03515625,-110.3515625,0.0
1740374174.5293999,-62.01171875,28.3203125,-61.03515625,-105.95703125,0.0
1740374174.5333076,-61.03515625,18.06640625,-54.6875,-113.28125,0.0
1740374174.5372133,-71.77734375,12.6953125,-53.7109375,-104.00390625,0.0
1740374174.5411189,-80.078125,14.6484375,-51.7578125,-88.37890625,0.0
1740374174.5450246,-71.2890625,13.18359375,-56.640625,-86.9140625,0.0
1740374174.5489302,-53.22265625,6.34765625,-55.17578125,-74.21875,0.0
1740374174.552836,-69.82421875,-1.46484375,-49.31640625,-60.546875,0.0
1740374174.5567415,-87.890625,-16.6015625,-47.8515625,-62.5,0.0
1740374174.5606472,-77.1484375,-21.484375,-42.96875,-73.2421875,0.0
1740374174.5645528,-67.3828125,-12.6953125,-51.7578125,-77.63671875,0.0
1740374174.5684586,-76.66015625,-10.7421875,-62.01171875,-77.1484375,0.0
1740374174.572364,-83.0078125,-18.06640625,-33.203125,-67.3828125,0.0
1740374174.5762699,-78.125,-22.4609375,-19.04296875,-61.03515625,0.0
1740374174.5801802,-64.453125,-19.53125,-25.87890625,-58.10546875,0.0
1740374174.584086,-49.31640625,-11.71875,-28.80859375,-50.29296875,0.0
1740374174.5879915,-60.546875,-19.04296875,-36.62109375,-36.1328125,0.0
1740374174.5918972,-64.94140625,-40.0390625,-19.53125,-20.01953125,0.0
1740374174.5958028,-53.22265625,-54.6875,-13.18359375,-22.4609375,0.0
1740374174.5997086,-42.96875,-58.10546875,-32.2265625,-13.18359375,0.0
1740374174.603614,-58.59375,-60.546875,-23.92578125,-10.25390625,0.0
1740374174.6075199,-71.77734375,-64.453125,-17.578125,-18.5546875,0.0
1740374174.6114254,-33.203125,-73.73046875,-16.6015625,8.7890625,0.0
1740374174.6153312,-12.20703125,-93.26171875,-7.8125,28.80859375,0.0
1740374174.6192367,-28.80859375,-87.40234375,-8.7890625,22.4609375,0.0
1740374174.6231425,-33.69140625,-80.078125,-6.34765625,22.94921875,0.0
1740374174.6270525,-20.5078125,-95.703125,-5.859375,37.59765625,0.0
1740374174.630958,0.48828125,-111.328125,-5.859375,43.45703125,0.0
1740374174.6348639,3.90625,-121.09375,2.9296875,57.12890625,0.0
1740374174.6387694,-10.7421875,-125.9765625,9.27734375,77.1484375,0.0
1740374174.6426752,1.46484375,-129.39453125,18.06640625,87.890625,0.0
1740374174.6465807,28.3203125,-130.859375,31.25,94.7265625,0.0
1740374174.6504865,31.25,-129.39453125,36.62109375,94.7265625,0.0
1740374174.654392,11.71875,-133.7890625,18.5546875,88.37890625,0.0
1740374174.6582978,10.25390625,-140.625,4.8828125,97.65625,0.0
1740374174.6622033,36.1328125,-148.4375,22.4609375,112.3046875,0.0
1740374174.666109,42.48046875,-145.5078125,29.78515625,102.05078125,0.0
1740374174.6700146,38.0859375,-146.484375,20.01953125,111.81640625,0.0
1740374174.6739244,50.29296875,-145.5078125,28.3203125,129.39453125,0.0
1740374174.67783,56.640625,-141.11328125,25.87890625,123.53515625,0.0
1740374174.6817358,64.453125,-138.671875,9.27734375,125.9765625,0.0
1740374174.6856413,69.3359375,-136.71875,5.859375,129.39453125,0.0
1740374174.689547,49.31640625,-142.08984375,14.6484375,128.90625,0.0
1740374174.6934526,45.8984375,-142.08984375,16.6015625,130.859375,0.0
1740374174.6973584,65.91796875,-138.18359375,15.625,135.7421875,0.0
1740374174.701264,63.4765625,-133.7890625,10.25390625,126.46484375,0.0
1740374174.7051697,47.8515625,-137.20703125,-11.71875,123.53515625,0.0
1740374174.7090752,56.15234375,-130.37109375,-4.8828125,134.27734375,0.0
1740374174.712981,81.54296875,-124.51171875,0.0,124.51171875,0.0
1740374174.7168865,85.9375,-123.53515625,-14.16015625,114.74609375,0.0
1740374174.720796,70.3125,-112.3046875,-10.25390625,118.65234375,0.0
1740374174.7247016,69.3359375,-100.5859375,-11.71875,117.1875,0.0
1740374174.7286074,88.8671875,-94.23828125,-15.625,104.4921875,0.0
1740374174.732513,101.07421875,-94.23828125,-20.01953125,99.609375,0.0
1740374174.7364187,94.7265625,-89.84375,-30.2734375,103.02734375,0.0
1740374174.7403243,85.9375,-93.75,-34.66796875,100.09765625,0.0
1740374174.74423,92.28515625,-100.09765625,-32.71484375,84.47265625,0.0
1740374174.7481356,109.375,-96.6796875,-29.296875,85.44921875,0.0
1740374174.7520413,96.6796875,-93.75,-31.25,94.7265625,0.0
1740374174.7559469,67.87109375,-83.49609375,-35.64453125,81.54296875,0.0
1740374174.7598526,69.82421875,-77.63671875,-33.69140625,71.77734375,0.0
1740374174.7637582,77.63671875,-81.0546875,-36.62109375,67.87109375,0.0
1740374174.7676673,62.98828125,-80.56640625,-38.57421875,57.12890625,0.0
1740374174.7715728,43.9453125,-76.66015625,-41.50390625,54.19921875,0.0
1740374174.7754786,49.31640625,-73.2421875,-30.2734375,59.5703125,0.0
1740374174.7793841,61.5234375,-72.75390625,-30.76171875,57.6171875,0.0
1740374174.78329,55.6640625,-76.171875,-52.734375,45.8984375,0.0
1740374174.7871954,41.50390625,-84.9609375,-49.31640625,48.828125,0.0
1740374174.7911012,36.62109375,-81.54296875,-40.52734375,46.875,0.0
1740374174.7950068,52.734375,-71.2890625,-32.2265625,54.6875,0.0
1740374174.7989125,59.5703125,-71.2890625,-26.3671875,55.6640625,0.0
1740374174.802818,33.69140625,-73.2421875,-40.52734375,32.2265625,0.0
1740374174.8067238,24.90234375,-65.91796875,-43.9453125,31.25,0.0
1740374174.8106294,42.48046875,-59.5703125,-31.73828125,37.109375,0.0
1740374174.814538,58.59375,-59.08203125,-26.85546875,40.52734375,0.0
1740374174.8184435,49.31640625,-53.22265625,-28.3203125,41.9921875,0.0
1740374174.8223493,31.73828125,-55.6640625,-29.78515625,36.62109375,0.0
1740374174.8262548,35.64453125,-53.22265625,-32.2265625,39.0625,0.0
1740374174.8301606,42.96875,-48.33984375,-38.57421875,41.015625,0.0
1740374174.8340662,41.015625,-58.10546875,-32.2265625,29.78515625,0.0
1740374174.837972,20.99609375,-70.80078125,-24.90234375,28.80859375,0.0
1740374174.8418775,13.671875,-58.10546875,-19.04296875,42.96875,0.0
1740374174.8457832,23.92578125,-42.48046875,-19.04296875,32.2265625,0.0
1740374174.8496888,22.94921875,-47.36328125,-31.73828125,19.04296875,0.0
1740374174.8535945,10.25390625,-49.31640625,-38.57421875,24.4140625,0.0
1740374174.8575,5.859375,-44.921875,-34.66796875,27.83203125,0.0
1740374174.8614085,14.6484375,-40.52734375,-35.15625,15.625,0.0
1740374174.865314,15.13671875,-43.45703125,-31.73828125,15.13671875,0.0
1740374174.8692198,6.34765625,-41.015625,-30.76171875,18.06640625,0.0
1740374174.8731253,4.8828125,-36.62109375,-30.2734375,20.5078125,0.0
1740374174.877031,12.20703125,-35.15625,-31.25,20.99609375,0.0
1740374174.8809366,20.99609375,-38.57421875,-45.8984375,10.7421875,0.0
1740374174.8848424,20.01953125,-39.55078125,-47.8515625,7.8125,0.0
1740374174.888748,-2.44140625,-37.109375,-38.0859375,12.6953125,0.0
1740374174.8926537,-20.01953125,-43.45703125,-40.52734375,1.953125,0.0
1740374174.8965592,-1.46484375,-43.9453125,-40.0390625,-5.37109375,0.0
1740374174.900465,2.44140625,-42.48046875,-56.15234375,-8.7890625,0.0
1740374174.9043705,-20.99609375,-46.38671875,-58.59375,-21.484375,0.0
1740374174.9082785,-22.94921875,-36.62109375,-40.52734375,-15.13671875,0.0
1740374174.9121842,-5.37109375,-35.64453125,-41.50390625,-11.23046875,0.0
1740374174.9160898,-2.44140625,-37.59765625,-47.8515625,-15.625,0.0
1740374174.9199955,-19.04296875,-36.62109375,-46.875,-15.13671875,0.0
1740374174.923901,-26.85546875,-32.2265625,-48.828125,-14.16015625,0.0
1740374174.9278069,-15.13671875,-36.62109375,-39.55078125,-10.25390625,0.0
1740374174.9317124,-0.9765625,-45.41015625,-35.64453125,-7.32421875,0.0
1740374174.9356182,-15.625,-39.55078125,-38.57421875,-21.97265625,0.0
1740374174.9395237,-34.1796875,-41.50390625,-49.31640625,-27.34375,0.0
1740374174.9434295,-28.3203125,-41.9921875,-45.8984375,-17.578125,0.0
1740374174.947335,-18.06640625,-39.55078125,-32.2265625,-20.99609375,0.0
1740374174.9512408,-16.11328125,-39.55078125,-32.71484375,-23.4375,0.0
1740374174.9551482,-21.97265625,-41.50390625,-36.62109375,-12.6953125,0.0
1740374174.9590538,-14.6484375,-41.9921875,-36.62109375,-8.7890625,0.0
1740374174.9629595,0.0,-38.57421875,-36.1328125,-23.92578125,0.0
1740374174.966865,-2.9296875,-36.62109375,-40.52734375,-27.34375,0.0
1740374174.9707708,-21.97265625,-37.59765625,-37.59765625,-17.578125,0.0
1740374174.9746764,-34.1796875,-43.9453125,-30.2734375,-14.6484375,0.0
1740374174.9785821,-16.6015625,-41.015625,-24.90234375,-8.7890625,0.0
1740374174.9824877,-2.44140625,-32.2265625,-25.87890625,-8.30078125,0.0
1740374174.9863935,-19.04296875,-38.0859375,-44.921875,-10.25390625,0.0
1740374174.990299,-23.4375,-42.48046875,-39.0625,-10.7421875,0.0
1740374174.9942048,-17.578125,-41.50390625,-37.109375,-20.5078125,0.0
1740374174.9981103,-13.671875,-41.9921875,-45.8984375,-22.4609375,0.0
1740374175.0020204,-17.578125,-41.50390625,-44.921875,-17.08984375,0.0
1740374175.0059261,-25.87890625,-36.1328125,-41.9921875,-18.5546875,0.0
1740374175.0098317,-25.87890625,-35.15625,-38.57421875,-29.296875,0.0
1740374175.0137374,-13.671875,-36.1328125,-39.0625,-22.94921875,0.0
1740374175.017643,-14.16015625,-32.2265625,-43.45703125,-23.92578125,0.0
1740374175.0215487,-29.78515625,-37.59765625,-41.50390625,-31.73828125,0.0
1740374175.0254543,-24.90234375,-38.0859375,-35.64453125,-21.97265625,0.0
1740374175.02936,-0.48828125,-30.2734375,-42.96875,-24.90234375,0.0
1740374175.0332656,2.9296875,-34.1796875,-41.9921875,-24.4140625,0.0
1740374175.0371714,-17.08984375,-42.96875,-35.64453125,-13.18359375,0.0
1740374175.041077,-25.390625,-37.109375,-41.50390625,-15.13671875,0.0
1740374175.0449827,-13.671875,-33.69140625,-38.57421875,-20.01953125,0.0
1740374175.0488923,-5.37109375,-32.2265625,-41.9921875,-32.71484375,0.0
1740374175.052798,-20.5078125,-32.2265625,-54.19921875,-40.0390625,0.0
1740374175.0567036,-21.97265625,-31.73828125,-42.48046875,-34.66796875,0.0
1740374175.0606093,-7.8125,-30.76171875,-36.1328125,-27.34375,0.0
1740374175.0645149,-12.20703125,-31.73828125,-29.296875,-29.78515625,0.0
1740374175.0684206,-25.390625,-31.73828125,-30.2734375,-23.92578125,0.0
1740374175.0723262,-35.15625,-28.3203125,-43.9453125,-23.92578125,0.0
1740374175.076232,-30.76171875,-27.34375,-43.9453125,-32.71484375,0.0
1740374175.0801375,-12.20703125,-26.3671875,-32.2265625,-25.390625,0.0
1740374175.0840433,-13.671875,-20.01953125,-25.87890625,-20.01953125,0.0
1740374175.0879488,-39.55078125,-28.3203125,-34.1796875,-29.78515625,0.0
1740374175.0918546,-37.109375,-33.69140625,-36.1328125,-27.34375,0.0
1740374175.0957642,0.0,-31.73828125,-39.0625,-24.4140625,0.0
1740374175.0996697,0.0,-30.76171875,-37.109375,-26.85546875,0.0
1740374175.1035755,0.0,-31.73828125,-32.71484375,-22.4609375,0.0
1740374175.107481,0.0,-36.1328125,-30.2734375,-33.203125,0.0
1740374175.1113868,0.0,-38.57421875,-27.34375,-42.48046875,0.0
1740374175.1152923,0.0,-41.9921875,-24.4140625,-35.15625,0.0
1740374175.119198,0.0,-33.69140625,-33.203125,-34.66796875,0.0
1740374175.1231036,0.0,-35.64453125,-31.73828125,-29.78515625,0.0
1740374175.1270094,0.0,-48.828125,-20.5078125,-20.01953125,0.0
1740374175.130915,0.0,-39.55078125,-26.85546875,-42.48046875,0.0
1740374175.1348207,0.0,-40.0390625,-39.55078125,-51.7578125,0.0
1740374175.1387262,0.0,-41.9921875,-41.50390625,-41.9921875,0.0
1740374175.1426353,-57.12890625,-37.109375,-40.0390625,-37.59765625,0.0
1740374175.1465409,-45.8984375,-45.41015625,-44.43359375,-39.55078125,0.0
1740374175.1504467,-37.109375,-38.0859375,-28.80859375,-36.1328125,0.0
1740374175.1543522,-49.31640625,-30.2734375,-29.296875,-31.73828125,0.0
1740374175.158258,-51.26953125,-34.1796875,-42.48046875,-37.109375,0.0
1740374175.1621635,-32.71484375,-29.78515625,-37.109375,-39.55078125,0.0
1740374175.1660693,-24.4140625,-29.78515625,-33.69140625,-43.45703125,0.0
1740374175.1699748,-34.1796875,-30.2734375,-39.55078125,-38.0859375,0.0
1740374175.1738806,-33.69140625,-24.4140625,-52.24609375,-31.25,0.0
1740374175.177786,-23.92578125,-30.76171875,-43.9453125,-25.390625,0.0
1740374175.181692,-13.671875,-33.69140625,-36.62109375,-31.73828125,0.0
1740374175.1855974,-22.94921875,-31.73828125,-52.24609375,-30.2734375,0.0
1740374175.189506,-32.2265625,-31.73828125,-49.8046875,-26.3671875,0.0
1740374175.1934118,-12.20703125,-28.80859375,-33.69140625,-35.64453125,0.0
1740374175.1973174,0.9765625,-26.3671875,-36.62109375,-34.1796875,0.0
1740374175.2012231,-9.27734375,-28.3203125,-37.109375,-27.34375,0.0
1740374175.2051287,-20.01953125,-22.94921875,-29.78515625,-21.97265625,0.0
1740374175.2090344,-18.5546875,-24.4140625,-26.3671875,-15.625,0.0
1740374175.21294,-10.25390625,-30.2734375,-25.87890625,-9.765625,0.0
1740374175.2168458,-10.25390625,-34.1796875,-38.0859375,-10.7421875,0.0
1740374175.2207513,-28.3203125,-30.2734375,-41.9921875,-22.94921875,0.0
1740374175.224657,-41.015625,-24.4140625,-30.2734375,-33.69140625,0.0
1740374175.2285626,-31.25,-28.80859375,-27.34375,-33.203125,0.0
1740374175.2324684,-23.92578125,-33.69140625,-38.0859375,-32.71484375,0.0
1740374175.2363768,-31.73828125,-31.73828125,-50.78125,-36.1328125,0.0
1740374175.2402825,-51.26953125,-33.69140625,-45.8984375,-40.0390625,0.0
1740374175.244188,-47.36328125,-30.76171875,-36.1328125,-34.1796875,0.0
1740374175.2480938,-36.1328125,-29.296875,-34.1796875,-30.2734375,0.0
1740374175.2519994,-52.24609375,-35.15625,-34.1796875,-32.71484375,0.0
1740374175.2559052,-67.3828125,-33.69140625,-31.73828125,-29.78515625,0.0
1740374175.2598107,-51.26953125,-30.76171875,-31.25,-20.99609375,0.0
1740374175.2637165,-36.1328125,-29.78515625,-38.57421875,-20.5078125,0.0
1740374175.267622,-45.8984375,-31.73828125,-35.15625,-28.3203125,0.0
1740374175.2715278,-54.6875,-36.1328125,-22.94921875,-24.90234375,0.0
1740374175.2754333,-51.26953125,-32.71484375,-26.3671875,-32.71484375,0.0
1740374175.279339,-37.59765625,-30.2734375,-32.2265625,-44.921875,0.0
1740374175.283247,-40.0390625,-37.109375,-41.50390625,-41.015625,0.0
1740374175.2871525,-44.921875,-36.1328125,-40.0390625,-29.296875,0.0
1740374175.2910583,-29.78515625,-34.1796875,-40.0390625,-21.484375,0.0
1740374175.2949638,-21.484375,-28.80859375,-44.921875,-24.4140625,0.0
1740374175.2988696,-22.4609375,-26.85546875,-44.43359375,-29.78515625,0.0
1740374175.3027751,-22.94921875,-35.15625,-41.015625,-33.203125,0.0
1740374175.306681,-23.92578125,-39.55078125,-31.73828125,-17.08984375,0.0
1740374175.3105865,-22.94921875,-32.2265625,-32.2265625,-26.3671875,0.0
1740374175.3144922,-13.18359375,-26.85546875,-33.69140625,-35.64453125,0.0
1740374175.3183978,-17.08984375,-24.90234375,-39.55078125,-27.34375,0.0
1740374175.3223035,-39.0625,-32.2265625,-48.828125,-40.0390625,0.0
1740374175.326209,-41.50390625,-36.62109375,-37.109375,-48.828125,0.0
1740374175.3301196,-29.78515625,-35.64453125,-30.2734375,-42.48046875,0.0
1740374175.3340251,-26.85546875,-35.64453125,-33.203125,-36.1328125,0.0
1740374175.337931,-47.36328125,-35.15625,-35.15625,-34.66796875,0.0
1740374175.3418365,-54.6875,-38.0859375,-37.109375,-41.015625,0.0
1740374175.3457422,-37.109375,-35.15625,-34.1796875,-38.57421875,0.0
1740374175.3496478,-29.296875,-32.71484375,-34.1796875,-33.203125,0.0
1740374175.3535535,-46.38671875,-37.59765625,-41.50390625,-33.69140625,0.0
1740374175.357459,-49.8046875,-32.71484375,-35.64453125,-41.015625,0.0
1740374175.3613648,-29.296875,-34.1796875,-33.69140625,-42.96875,0.0
1740374175.3652704,-20.99609375,-41.9921875,-43.45703125,-32.2265625,0.0
1740374175.3691761,-28.80859375,-34.66796875,-41.9921875,-32.2265625,0.0
1740374175.3730817,-41.015625,-29.296875,-37.59765625,-38.57421875,0.0
1740374175.3769917,-36.62109375,-30.2734375,-44.43359375,-35.15625,0.0
1740374175.3808975,-28.3203125,-35.15625,-42.96875,-30.2734375,0.0
1740374175.384803,-44.921875,-39.0625,-34.1796875,-37.109375,0.0
1740374175.3887088,-50.78125,-33.69140625,-40.52734375,-38.57421875,0.0
1740374175.3926144,-41.50390625,-29.78515625,-46.38671875,-36.62109375,0.0
1740374175.3965201,-26.3671875,-34.66796875,-40.52734375,-37.109375,0.0
1740374175.4004257,-28.80859375,-38.57421875,-41.015625,-31.25,0.0
1740374175.4043314,-35.15625,-30.76171875,-33.69140625,-36.62109375,0.0
1740374175.408237,-19.04296875,-26.3671875,-29.78515625,-25.87890625,0.0
1740374175.4121428,-12.20703125,-38.57421875,-35.64453125,-23.4375,0.0
1740374175.4160483,-20.99609375,-38.0859375,-43.9453125,-37.109375,0.0
1740374175.419954,-36.1328125,-35.15625,-49.8046875,-40.0390625,0.0
1740374175.4238667,-35.15625,-31.73828125,-49.8046875,-40.52734375,0.0
1740374175.4277723,-21.484375,-26.85546875,-41.50390625,-33.69140625,0.0
1740374175.431678,-14.6484375,-26.85546875,-32.71484375,-32.2265625,0.0
1740374175.4355836,-33.203125,-31.25,-38.57421875,-34.66796875,0.0
1740374175.4394894,-40.0390625,-31.73828125,-40.52734375,-25.87890625,0.0
1740374175.443395,-28.3203125,-30.2734375,-31.73828125,-29.296875,0.0
1740374175.4473007,-16.6015625,-23.4375,-27.83203125,-29.296875,0.0
1740374175.4512062,-19.53125,-24.4140625,-16.6015625,-24.90234375,0.0
1740374175.455112,-43.9453125,-39.55078125,-27.83203125,-25.390625,0.0
1740374175.4590175,-41.50390625,-37.109375,-33.203125,-19.04296875,0.0
1740374175.4629233,-26.85546875,-31.25,-22.94921875,-21.97265625,0.0
1740374175.4668288,-33.203125,-38.0859375,-29.296875,-28.80859375,0.0
1740374175.4707382,-48.33984375,-35.64453125,-29.78515625,-35.15625,0.0
1740374175.474644,-53.7109375,-31.25,-31.25,-40.52734375,0.0
1740374175.4785495,-33.69140625,-22.94921875,-42.96875,-36.1328125,0.0
1740374175.4824553,-27.83203125,-24.90234375,-47.36328125,-30.76171875,0.0
1740374175.4863608,-43.9453125,-35.64453125,-40.0390625,-25.87890625,0.0
1740374175.4902666,-40.52734375,-29.78515625,-34.1796875,-19.04296875,0.0
