timestamps,TP9,AF7,AF8,TP10,Right AUX
1740790091.7189598,-19.04296875,-19.53125,-17.08984375,-24.4140625,0.0
1740790091.7228658,-16.6015625,-29.78515625,-21.484375,-28.80859375,0.0
1740790091.7267718,-14.6484375,-34.66796875,-23.92578125,-25.390625,0.0
1740790091.7306776,-19.53125,-29.78515625,-28.3203125,-23.4375,0.0
1740790091.7345836,-28.80859375,-28.3203125,-31.25,-25.87890625,0.0
1740790091.7384896,-25.390625,-32.2265625,-32.2265625,-28.80859375,0.0
1740790091.7423956,-19.04296875,-34.1796875,-33.69140625,-30.76171875,0.0
1740790091.7463014,-16.6015625,-29.78515625,-31.73828125,-28.3203125,0.0
1740790091.7502074,-16.6015625,-16.11328125,-25.390625,-27.34375,0.0
1740790091.7541134,-24.4140625,-30.76171875,-29.78515625,-37.109375,0.0
1740790091.7580194,-29.296875,-39.55078125,-36.62109375,-40.0390625,0.0
1740790091.7619252,-22.4609375,-28.3203125,-34.66796875,-29.296875,0.0
1740790091.7658315,-19.04296875,-30.2734375,-29.78515625,-40.52734375,0.0
1740790091.7697375,-18.06640625,-39.0625,-35.64453125,-46.875,0.0
1740790091.7736435,-10.25390625,-36.62109375,-38.0859375,-44.921875,0.0
1740790091.7775495,-16.6015625,-35.15625,-36.62109375,-46.875,0.0
1740790091.7814553,-14.16015625,-40.52734375,-41.50390625,-49.8046875,0.0
1740790091.7853613,-15.625,-45.41015625,-41.015625,-51.7578125,0.0
1740790091.7892673,-18.06640625,-53.22265625,-38.57421875,-44.43359375,0.0
1740790091.7931733,-7.32421875,-41.50390625,-37.109375,-43.45703125,0.0
1740790091.797079,-21.97265625,-28.3203125,-32.71484375,-50.78125,0.0
1740790091.800985,-26.85546875,-38.0859375,-33.203125,-41.015625,0.0
1740790091.804891,-12.6953125,-42.96875,-28.3203125,-34.66796875,0.0
1740790091.8087971,-2.44140625,-32.71484375,-21.484375,-36.62109375,0.0
1740790091.8127031,-11.23046875,-32.2265625,-21.97265625,-32.2265625,0.0
1740790091.8166091,-22.4609375,-39.55078125,-22.94921875,-33.203125,0.0
1740790091.820515,-19.53125,-39.55078125,-22.94921875,-36.62109375,0.0
1740790091.824421,-6.34765625,-32.71484375,-22.4609375,-32.71484375,0.0
1740790091.828327,-4.8828125,-31.73828125,-22.94921875,-24.4140625,0.0
1740790091.832233,-12.20703125,-46.875,-28.3203125,-21.484375,0.0
1740790091.8361387,-13.671875,-41.9921875,-28.80859375,-28.80859375,0.0
1740790091.8400447,-16.11328125,-25.87890625,-23.4375,-39.55078125,0.0
1740790091.8439507,-22.4609375,-28.80859375,-27.34375,-35.64453125,0.0
1740790091.8478568,-22.94921875,-36.62109375,-34.66796875,-37.59765625,0.0
1740790091.8517625,-20.99609375,-36.62109375,-33.69140625,-44.43359375,0.0
1740790091.8556685,-20.5078125,-29.78515625,-27.83203125,-39.55078125,0.0
1740790091.859576,-16.11328125,-36.62109375,-33.69140625,-27.34375,0.0
1740790091.8634818,-18.5546875,-38.0859375,-36.62109375,-26.3671875,0.0
1740790091.8673878,-25.390625,-30.2734375,-29.78515625,-39.0625,0.0
1740790091.8712938,-19.04296875,-29.78515625,-24.4140625,-33.69140625,0.0
1740790091.8751998,-19.04296875,-34.1796875,-25.390625,-33.203125,0.0
1740790091.8791056,-23.4375,-38.57421875,-28.3203125,-35.64453125,0.0
1740790091.8830116,-20.01953125,-35.64453125,-21.484375,-36.1328125,0.0
1740790091.8869176,-18.5546875,-32.71484375,-14.6484375,-36.1328125,0.0
1740790091.8908234,-18.06640625,-35.64453125,-21.484375,-35.15625,0.0
1740790091.8947294,-18.5546875,-41.015625,-26.85546875,-27.83203125,0.0
1740790091.8986354,-16.6015625,-36.62109375,-22.94921875,-31.73828125,0.0
1740790091.9025414,-16.6015625,-24.90234375,-18.06640625,-35.64453125,0.0
1740790091.9064486,-16.11328125,-31.73828125,-22.94921875,-27.34375,0.0
1740790091.9103544,-15.625,-34.66796875,-26.85546875,-31.25,0.0
1740790091.9142604,-20.5078125,-29.296875,-21.484375,-34.66796875,0.0
1740790091.9181664,-20.5078125,-38.0859375,-23.92578125,-35.64453125,0.0
1740790091.9220724,-25.390625,-40.0390625,-29.78515625,-39.55078125,0.0
1740790091.9259782,-25.390625,-39.55078125,-29.296875,-39.0625,0.0
1740790091.9298842,-21.97265625,-36.62109375,-24.4140625,-41.50390625,0.0
1740790091.9337902,-23.4375,-30.76171875,-16.6015625,-41.50390625,0.0
1740790091.9376962,-28.3203125,-41.50390625,-25.87890625,-37.59765625,0.0
1740790091.941602,-29.78515625,-42.48046875,-30.76171875,-36.1328125,0.0
1740790091.945508,-25.390625,-25.390625,-18.5546875,-33.203125,0.0
1740790091.949414,-22.94921875,-28.80859375,-16.6015625,-32.71484375,0.0
1740790091.953321,0.0,-39.0625,-19.53125,-33.203125,0.0
1740790091.957227,0.0,-38.57421875,-21.97265625,-21.484375,0.0
1740790091.961133,0.0,-29.296875,-23.4375,-27.34375,0.0
1740790091.965039,0.0,-25.390625,-21.484375,-36.1328125,0.0
1740790091.9689448,0.0,-32.2265625,-21.97265625,-33.69140625,0.0
1740790091.9728508,0.0,-35.15625,-22.94921875,-31.25,0.0
1740790091.9767568,0.0,-31.73828125,-20.99609375,-18.5546875,0.0
1740790091.9806628,0.0,-28.3203125,-19.53125,-20.99609375,0.0
1740790091.9845686,0.0,-39.0625,-27.34375,-30.76171875,0.0
1740790091.9884746,0.0,-31.25,-23.4375,-27.34375,0.0
1740790091.9923806,0.0,-15.13671875,-12.6953125,-25.390625,0.0
1740790091.9962866,0.0,-28.80859375,-21.484375,-31.73828125,0.0
1740790092.0001934,-11.71875,-30.76171875,-27.34375,-27.34375,0.0
1740790092.0040991,-16.6015625,-29.296875,-22.4609375,-24.90234375,0.0
1740790092.0080051,-19.53125,-29.296875,-24.90234375,-33.69140625,0.0
1740790092.0119112,-16.6015625,-31.73828125,-28.80859375,-37.109375,0.0
1740790092.0158172,-15.13671875,-35.64453125,-27.83203125,-42.48046875,0.0
1740790092.019723,-11.23046875,-35.15625,-27.83203125,-38.57421875,0.0
1740790092.023629,-15.625,-30.76171875,-25.390625,-30.76171875,0.0
1740790092.027535,-22.94921875,-40.52734375,-33.69140625,-33.203125,0.0
1740790092.031441,-14.6484375,-48.828125,-41.015625,-33.203125,0.0
1740790092.0353467,-13.18359375,-32.71484375,-26.85546875,-31.25,0.0
1740790092.0392528,-19.53125,-30.2734375,-22.94921875,-29.296875,0.0
1740790092.0431588,-22.4609375,-37.59765625,-27.83203125,-25.87890625,0.0
1740790092.0470653,-17.578125,-38.57421875,-23.4375,-22.94921875,0.0
1740790092.0509713,-19.04296875,-36.62109375,-21.484375,-28.3203125,0.0
1740790092.0548773,-15.625,-32.2265625,-21.97265625,-32.71484375,0.0
1740790092.0587833,-12.20703125,-33.203125,-20.5078125,-34.1796875,0.0
1740790092.062689,-17.08984375,-37.59765625,-20.5078125,-37.109375,0.0
1740790092.066595,-19.04296875,-39.0625,-25.390625,-39.55078125,0.0
1740790092.070501,-16.6015625,-35.64453125,-23.92578125,-40.0390625,0.0
1740790092.074407,-14.6484375,-46.38671875,-27.34375,-31.25,0.0
1740790092.0783129,-19.53125,-40.52734375,-22.4609375,-23.4375,0.0
1740790092.082219,-22.4609375,-23.4375,-13.671875,-28.3203125,0.0
1740790092.086125,-18.5546875,-35.64453125,-23.4375,-30.76171875,0.0
1740790092.090031,-18.06640625,-42.96875,-23.92578125,-27.34375,0.0
1740790092.0939372,-21.97265625,-33.203125,-23.92578125,-34.66796875,0.0
1740790092.0978432,-20.99609375,-32.2265625,-26.3671875,-39.0625,0.0
1740790092.1017492,-19.53125,-48.33984375,-31.73828125,-37.109375,0.0
1740790092.1056552,-25.87890625,-47.8515625,-31.73828125,-39.55078125,0.0
1740790092.109561,-23.4375,-41.015625,-21.97265625,-30.76171875,0.0
1740790092.113467,-19.04296875,-42.96875,-23.92578125,-25.390625,0.0
1740790092.117373,-15.13671875,-46.875,-34.66796875,-22.94921875,0.0
1740790092.121279,-11.71875,-41.015625,-35.15625,-21.484375,0.0
1740790092.1251848,-8.30078125,-22.94921875,-24.4140625,-28.80859375,0.0
1740790092.1290908,1.46484375,-22.94921875,-21.484375,-23.4375,0.0
1740790092.1329968,2.9296875,-30.76171875,-26.3671875,-21.97265625,0.0
1740790092.1369028,0.9765625,-27.34375,-21.97265625,-26.3671875,0.0
1740790092.140809,-3.90625,-23.4375,-15.625,-14.6484375,0.0
1740790092.144715,-14.16015625,-32.71484375,-12.20703125,-6.8359375,0.0
1740790092.148621,-19.04296875,-33.203125,-15.13671875,-21.484375,0.0
1740790092.1525269,-18.06640625,-23.4375,-19.04296875,-31.25,0.0
1740790092.1564329,-14.16015625,-25.390625,-21.484375,-26.85546875,0.0
1740790092.1603389,-20.01953125,-36.62109375,-24.90234375,-28.80859375,0.0
1740790092.164245,-22.4609375,-50.78125,-31.25,-29.78515625,0.0
1740790092.1681507,-20.01953125,-41.50390625,-29.296875,-32.71484375,0.0
1740790092.1720567,-21.97265625,-20.5078125,-21.97265625,-39.0625,0.0
1740790092.1759627,-23.4375,-31.25,-25.390625,-33.203125,0.0
1740790092.1798687,-17.578125,-39.55078125,-33.203125,-33.203125,0.0
1740790092.1837745,-14.6484375,-32.2265625,-33.203125,-35.64453125,0.0
1740790092.1876807,-20.5078125,-28.3203125,-30.76171875,-39.0625,0.0
1740790092.1915865,-24.4140625,-39.55078125,-33.69140625,-33.203125,0.0
1740790092.1954925,-18.5546875,-44.921875,-34.1796875,-26.85546875,0.0
1740790092.1993985,-20.01953125,-34.66796875,-27.83203125,-34.1796875,0.0
1740790092.2033045,-17.08984375,-35.15625,-28.3203125,-35.15625,0.0
1740790092.2072103,-4.8828125,-41.50390625,-33.203125,-33.69140625,0.0
1740790092.2111163,-12.20703125,-43.45703125,-31.73828125,-37.59765625,0.0
1740790092.2150223,-20.99609375,-31.25,-22.4609375,-37.109375,0.0
1740790092.2189283,-13.671875,-24.90234375,-21.484375,-38.0859375,0.0
1740790092.222834,-6.8359375,-32.71484375,-27.34375,-38.57421875,0.0
1740790092.2267401,-7.32421875,-32.2265625,-27.83203125,-29.78515625,0.0
1740790092.2306461,-8.30078125,-27.83203125,-31.25,-34.1796875,0.0
1740790092.2345533,-6.8359375,-29.78515625,-34.66796875,-33.203125,0.0
1740790092.2384593,-9.765625,-37.109375,-32.2265625,-19.04296875,0.0
1740790092.2423654,-16.11328125,-33.69140625,-25.390625,-23.4375,0.0
1740790092.2462714,-6.8359375,-24.90234375,-20.01953125,-33.203125,0.0
1740790092.2501771,-5.37109375,-30.2734375,-22.94921875,-22.4609375,0.0
1740790092.2540832,-10.7421875,-42.96875,-26.85546875,-15.625,0.0
1740790092.2579892,-9.765625,-39.0625,-25.87890625,-18.5546875,0.0
1740790092.2618952,-4.39453125,-28.3203125,-21.97265625,-24.4140625,0.0
1740790092.265801,-4.39453125,-35.64453125,-24.90234375,-32.2265625,0.0
1740790092.269707,-13.18359375,-42.48046875,-33.69140625,-28.80859375,0.0
1740790092.273613,-17.578125,-35.15625,-30.2734375,-26.3671875,0.0
1740790092.277519,-12.20703125,-31.73828125,-25.87890625,-28.80859375,0.0
1740790092.2814262,0.0,-41.50390625,-31.25,-30.76171875,0.0
1740790092.2853322,0.0,-39.0625,-31.25,-32.71484375,0.0
1740790092.289238,0.0,-32.2265625,-29.296875,-31.73828125,0.0
1740790092.293144,0.0,-32.2265625,-28.3203125,-32.2265625,0.0
1740790092.29705,0.0,-38.0859375,-32.71484375,-22.94921875,0.0
1740790092.300956,0.0,-42.48046875,-36.1328125,-23.4375,0.0
1740790092.3048618,0.0,-34.1796875,-31.25,-28.3203125,0.0
1740790092.3087678,0.0,-30.2734375,-30.2734375,-19.53125,0.0
1740790092.3126738,0.0,-44.43359375,-30.2734375,-17.578125,0.0
1740790092.3165798,0.0,-48.33984375,-33.203125,-29.78515625,0.0
1740790092.3204856,0.0,-31.73828125,-30.2734375,-35.15625,0.0
1740790092.3243916,0.0,-34.1796875,-28.3203125,-28.3203125,0.0
1740790092.3282986,-15.13671875,-38.57421875,-26.3671875,-28.80859375,0.0
1740790092.3322046,-18.5546875,-45.41015625,-30.2734375,-33.69140625,0.0
1740790092.3361106,-15.13671875,-42.96875,-31.25,-33.203125,0.0
1740790092.3400166,-16.6015625,-38.0859375,-31.73828125,-31.73828125,0.0
1740790092.3439224,-13.18359375,-41.9921875,-40.0390625,-30.76171875,0.0
1740790092.3478284,-3.41796875,-43.45703125,-41.015625,-30.76171875,0.0
1740790092.3517344,-4.8828125,-36.62109375,-36.1328125,-41.015625,0.0
1740790092.3556404,-12.20703125,-36.1328125,-28.80859375,-41.9921875,0.0
1740790092.3595462,-5.37109375,-50.29296875,-30.76171875,-22.4609375,0.0
1740790092.3634522,-4.8828125,-34.66796875,-25.390625,-10.7421875,0.0
1740790092.3673582,-14.16015625,-22.94921875,-20.5078125,-27.34375,0.0
1740790092.3712642,-15.13671875,-43.9453125,-32.2265625,-39.0625,0.0
1740790092.375171,-10.7421875,-45.8984375,-34.66796875,-29.78515625,0.0
1740790092.379077,-9.27734375,-34.66796875,-31.25,-22.4609375,0.0
1740790092.3829827,-6.34765625,-34.1796875,-30.76171875,-33.203125,0.0
1740790092.3868887,-8.7890625,-32.71484375,-25.390625,-36.1328125,0.0
1740790092.3907948,-11.23046875,-35.15625,-22.4609375,-27.83203125,0.0
1740790092.3947008,-16.11328125,-41.50390625,-24.90234375,-35.15625,0.0
1740790092.3986065,-18.06640625,-37.109375,-28.3203125,-42.96875,0.0
1740790092.4025126,-13.18359375,-40.0390625,-30.76171875,-38.57421875,0.0
1740790092.4064186,-10.7421875,-45.41015625,-29.296875,-30.2734375,0.0
1740790092.4103246,-12.6953125,-22.4609375,-14.16015625,-28.80859375,0.0
1740790092.4142303,-20.01953125,-30.2734375,-15.625,-31.73828125,0.0
1740790092.4181364,-23.92578125,-43.9453125,-26.85546875,-39.0625,0.0
1740790092.4220428,-20.99609375,-38.57421875,-24.90234375,-36.62109375,0.0
1740790092.4259489,-17.578125,-40.0390625,-23.92578125,-31.25,0.0
1740790092.4298549,-18.06640625,-31.25,-20.99609375,-43.9453125,0.0
1740790092.433761,-18.5546875,-29.296875,-19.04296875,-42.96875,0.0
1740790092.4376667,-19.04296875,-36.62109375,-26.85546875,-41.9921875,0.0
1740790092.4415727,-20.5078125,-40.0390625,-32.71484375,-41.50390625,0.0
1740790092.4454787,-20.01953125,-36.1328125,-32.2265625,-36.62109375,0.0
1740790092.4493847,-29.296875,-52.24609375,-38.0859375,-42.96875,0.0
1740790092.4532905,-27.83203125,-50.29296875,-34.66796875,-45.8984375,0.0
1740790092.4571965,-21.97265625,-29.296875,-30.76171875,-44.921875,0.0
1740790092.4611025,-19.04296875,-58.59375,-40.0390625,-38.0859375,0.0
1740790092.4650085,-6.8359375,-95.21484375,-41.015625,-23.92578125,0.0
1740790092.468915,-8.30078125,-66.40625,-37.59765625,-26.85546875,0.0
1740790092.4728208,-14.16015625,-36.1328125,-38.57421875,-37.109375,0.0
1740790092.4767268,-14.16015625,-26.3671875,-43.45703125,-35.64453125,0.0
1740790092.4806328,-19.04296875,-23.92578125,-43.9453125,-39.55078125,0.0
1740790092.4845388,-20.5078125,-30.76171875,-32.2265625,-41.9921875,0.0
1740790092.4884446,-17.08984375,-27.83203125,-24.90234375,-32.71484375,0.0
1740790092.4923506,-17.08984375,-31.25,-29.296875,-28.3203125,0.0
1740790092.4962566,-22.94921875,-33.69140625,-33.69140625,-35.15625,0.0
1740790092.5001626,-27.34375,-17.08984375,-27.34375,-45.8984375,0.0
1740790092.5040684,-24.90234375,-20.5078125,-27.83203125,-48.828125,0.0
1740790092.5079744,-24.90234375,-25.390625,-34.66796875,-45.8984375,0.0
1740790092.5118804,-22.94921875,-20.99609375,-33.69140625,-47.8515625,0.0
1740790092.5157866,-14.6484375,-22.4609375,-30.2734375,-44.43359375,0.0
1740790092.5196927,-12.20703125,-36.62109375,-39.55078125,-43.45703125,0.0
1740790092.5235987,-16.11328125,-38.57421875,-42.48046875,-45.8984375,0.0
1740790092.5275047,-20.5078125,-30.2734375,-31.25,-40.0390625,0.0
1740790092.5314105,-23.92578125,-28.80859375,-31.25,-45.41015625,0.0
1740790092.5353165,-26.3671875,-36.1328125,-32.71484375,-45.8984375,0.0
1740790092.5392225,-39.55078125,-48.828125,-35.64453125,-38.57421875,0.0
1740790092.5431285,-39.55078125,-35.64453125,-33.69140625,-36.1328125,0.0
1740790092.5470343,-18.5546875,-16.6015625,-26.3671875,-28.80859375,0.0
1740790092.5509403,-14.16015625,-28.80859375,-26.85546875,-27.34375,0.0
1740790092.5548463,-21.97265625,-34.66796875,-27.34375,-37.109375,0.0
1740790092.5587523,-16.6015625,-24.4140625,-23.4375,-41.015625,0.0
1740790092.5626583,-15.625,-27.83203125,-24.90234375,-40.0390625,0.0
1740790092.5665643,-17.578125,-34.66796875,-28.3203125,-34.66796875,0.0
1740790092.5704703,-21.484375,-33.69140625,-26.3671875,-28.3203125,0.0
1740790092.574376,-20.99609375,-28.80859375,-23.92578125,-30.2734375,0.0
1740790092.578282,-20.99609375,-29.78515625,-25.87890625,-39.0625,0.0
1740790092.5821881,-24.90234375,-43.45703125,-35.15625,-44.43359375,0.0
1740790092.5860941,-19.04296875,-42.96875,-36.62109375,-40.0390625,0.0
1740790092.59,-18.5546875,-22.94921875,-25.87890625,-37.59765625,0.0
1740790092.593906,-18.06640625,-24.4140625,-20.99609375,-37.109375,0.0
1740790092.597812,-14.16015625,-33.69140625,-22.94921875,-32.71484375,0.0
1740790092.6017177,-11.23046875,-26.85546875,-21.484375,-29.78515625,0.0
1740790092.6056237,-10.25390625,-20.5078125,-20.5078125,-30.2734375,0.0
1740790092.6095312,-8.30078125,-27.83203125,-28.80859375,-27.83203125,0.0
1740790092.6134372,-10.25390625,-38.57421875,-32.71484375,-26.85546875,0.0
1740790092.617343,-16.6015625,-41.50390625,-27.34375,-27.83203125,0.0
1740790092.621249,-14.16015625,-31.73828125,-22.94921875,-26.85546875,0.0
1740790092.625155,-5.859375,-28.80859375,-27.34375,-30.76171875,0.0
1740790092.629061,-6.34765625,-36.1328125,-31.25,-33.203125,0.0
1740790092.6329668,-8.30078125,-39.55078125,-29.78515625,-37.109375,0.0
1740790092.6368728,-9.27734375,-36.1328125,-25.87890625,-36.62109375,0.0
1740790092.6407788,-16.6015625,-35.15625,-26.85546875,-32.71484375,0.0
1740790092.6446848,-20.01953125,-39.0625,-25.87890625,-24.4140625,0.0
1740790092.6485906,-20.5078125,-32.71484375,-21.97265625,-26.3671875,0.0
1740790092.6524966,-12.6953125,-30.76171875,-12.6953125,-34.1796875,0.0
1740790092.6564038,-5.859375,-38.0859375,-12.6953125,-23.92578125,0.0
1740790092.6603098,-8.30078125,-44.921875,-20.99609375,-22.94921875,0.0
1740790092.6642156,-14.16015625,-45.8984375,-20.99609375,-31.73828125,0.0
1740790092.6681216,-19.53125,-51.7578125,-24.4140625,-37.109375,0.0
1740790092.6720276,-24.4140625,-55.17578125,-27.83203125,-39.0625,0.0
1740790092.6759336,-20.99609375,-53.7109375,-25.87890625,-41.015625,0.0
1740790092.6798394,-17.08984375,-42.96875,-19.53125,-39.55078125,0.0
1740790092.6837454,-20.5078125,-29.78515625,-16.11328125,-43.9453125,0.0
1740790092.6876514,-20.5078125,-46.38671875,-21.484375,-42.48046875,0.0
1740790092.6915574,-19.53125,-57.12890625,-19.04296875,-29.78515625,0.0
1740790092.6954632,-27.34375,-41.9921875,-12.6953125,-38.57421875,0.0
1740790092.6993692,-23.92578125,-33.203125,-17.578125,-47.8515625,0.0
1740790092.7032762,-16.6015625,-39.0625,-23.4375,-38.57421875,0.0
1740790092.7071822,-16.11328125,-50.78125,-29.296875,-36.62109375,0.0
1740790092.7110882,-6.8359375,-42.96875,-25.87890625,-35.64453125,0.0
1740790092.714994,-6.34765625,-39.0625,-24.90234375,-30.76171875,0.0
1740790092.7189,-10.25390625,-43.9453125,-30.2734375,-32.2265625,0.0
1740790092.722806,-14.16015625,-45.8984375,-30.2734375,-38.0859375,0.0
1740790092.726712,-17.08984375,-45.8984375,-26.3671875,-33.69140625,0.0
1740790092.7306178,-22.4609375,-43.45703125,-24.4140625,-39.0625,0.0
1740790092.7345238,-26.3671875,-49.31640625,-27.83203125,-42.96875,0.0
1740790092.7384298,-24.90234375,-46.38671875,-29.78515625,-43.45703125,0.0
1740790092.7423358,-26.85546875,-37.109375,-24.4140625,-42.48046875,0.0
1740790092.7462416,-14.6484375,-42.96875,-26.3671875,-36.1328125,0.0
1740790092.7501485,-11.71875,-46.875,-32.2265625,-32.71484375,0.0
1740790092.7540545,-26.85546875,-46.875,-32.2265625,-34.1796875,0.0
1740790092.7579603,-20.01953125,-47.8515625,-34.1796875,-41.9921875,0.0
1740790092.7618663,-3.90625,-41.50390625,-34.1796875,-40.0390625,0.0
1740790092.7657723,-2.44140625,-37.59765625,-32.71484375,-44.921875,0.0
1740790092.7696784,0.0,-41.9921875,-34.1796875,-43.9453125,0.0
1740790092.7735841,0.48828125,-32.71484375,-28.3203125,-36.62109375,0.0
1740790092.7774901,-5.859375,-32.71484375,-28.3203125,-34.66796875,0.0
1740790092.7813962,-5.37109375,-44.921875,-27.34375,-32.71484375,0.0
1740790092.785302,-5.37109375,-26.85546875,-21.484375,-37.109375,0.0
1740790092.789208,-12.20703125,-18.5546875,-25.390625,-36.1328125,0.0
1740790092.793114,-10.25390625,-30.2734375,-27.34375,-25.87890625,0.0
1740790092.7970204,-9.765625,-38.0859375,-26.3671875,-29.78515625,0.0
1740790092.8009264,-6.8359375,-36.1328125,-24.4140625,-31.25,0.0
1740790092.8048325,-3.90625,-34.66796875,-24.90234375,-20.99609375,0.0
1740790092.8087385,-6.34765625,-39.0625,-24.90234375,-20.5078125,0.0
1740790092.8126442,-10.25390625,-39.0625,-24.4140625,-25.87890625,0.0
1740790092.8165503,-8.30078125,-44.921875,-26.85546875,-30.2734375,0.0
1740790092.8204563,-1.46484375,-41.9921875,-20.99609375,-24.90234375,0.0
1740790092.8243623,-0.9765625,-39.0625,-28.80859375,-22.94921875,0.0
1740790092.828268,-6.34765625,-40.0390625,-34.1796875,-28.80859375,0.0
1740790092.832174,-8.7890625,-35.64453125,-26.85546875,-34.66796875,0.0
1740790092.83608,-11.23046875,-40.52734375,-27.83203125,-40.52734375,0.0
1740790092.839986,-15.13671875,-41.9921875,-30.2734375,-44.921875,0.0
1740790092.8438926,0.0,-36.62109375,-28.80859375,-44.921875,0.0
1740790092.8477986,0.0,-33.69140625,-27.34375,-55.17578125,0.0
1740790092.8517044,0.0,-40.52734375,-29.296875,-51.7578125,0.0
1740790092.8556104,0.0,-41.9921875,-29.296875,-48.828125,0.0
1740790092.8595164,0.0,-36.1328125,-26.85546875,-51.7578125,0.0
1740790092.8634224,0.0,-38.57421875,-28.80859375,-46.875,0.0
1740790092.8673282,0.0,-43.9453125,-27.83203125,-41.9921875,0.0
1740790092.8712342,0.0,-51.26953125,-29.78515625,-40.0390625,0.0
1740790092.8751402,0.0,-41.50390625,-27.83203125,-35.15625,0.0
1740790092.8790462,0.0,-36.62109375,-27.83203125,-29.78515625,0.0
1740790092.882952,0.0,-44.43359375,-28.3203125,-28.80859375,0.0
1740790092.886858,0.0,-44.921875,-31.73828125,-36.1328125,0.0
1740790092.8907645,-13.18359375,-44.921875,-28.3203125,-41.015625,0.0
1740790092.8946702,-6.8359375,-47.36328125,-26.3671875,-31.73828125,0.0
1740790092.8985763,-7.32421875,-52.734375,-34.66796875,-29.296875,0.0
1740790092.9024823,-5.859375,-49.31640625,-32.71484375,-29.296875,0.0
1740790092.9063883,-7.32421875,-45.8984375,-27.83203125,-27.83203125,0.0
1740790092.910294,-5.859375,-49.31640625,-30.2734375,-26.85546875,0.0
1740790092.9142,-3.90625,-52.24609375,-33.69140625,-25.87890625,0.0
1740790092.918106,-0.9765625,-41.015625,-30.76171875,-21.484375,0.0
1740790092.922012,0.9765625,-22.94921875,-24.90234375,-8.7890625,0.0
1740790092.9259179,-2.9296875,-34.1796875,-25.390625,-8.30078125,0.0
1740790092.9298239,-3.41796875,-43.9453125,-34.1796875,-17.578125,0.0
1740790092.93373,3.90625,-35.64453125,-34.1796875,-15.13671875,0.0
1740790092.937636,1.46484375,-30.2734375,-26.3671875,-25.87890625,0.0
1740790092.941542,-16.6015625,-33.203125,-30.2734375,-31.73828125,0.0
1740790092.9454477,-16.6015625,-39.0625,-29.296875,-20.01953125,0.0
1740790092.9493537,-10.7421875,-39.55078125,-26.85546875,-24.4140625,0.0
1740790092.9532597,-3.90625,-37.109375,-31.73828125,-26.85546875,0.0
1740790092.9571657,-2.9296875,-41.9921875,-30.76171875,-24.4140625,0.0
1740790092.9610715,-3.90625,-52.24609375,-32.2265625,-24.4140625,0.0
1740790092.9649775,2.9296875,-37.59765625,-23.4375,-21.97265625,0.0
1740790092.9688835,2.44140625,-28.80859375,-17.578125,-27.34375,0.0
1740790092.9727895,0.9765625,-37.109375,-24.4140625,-21.97265625,0.0
1740790092.9766953,1.46484375,-39.0625,-27.83203125,-12.20703125,0.0
1740790092.9806013,-4.39453125,-30.76171875,-26.85546875,-22.94921875,0.0
1740790092.9845073,-3.41796875,-31.73828125,-27.83203125,-30.2734375,0.0
1740790092.9884133,-8.7890625,-41.015625,-31.73828125,-20.99609375,0.0
1740790092.992319,-15.625,-33.203125,-28.3203125,-29.78515625,0.0
1740790092.996225,-4.8828125,-28.80859375,-21.97265625,-30.76171875,0.0
1740790093.0001311,-14.16015625,-41.9921875,-24.90234375,-26.85546875,0.0
1740790093.0040371,-27.34375,-54.19921875,-30.76171875,-28.3203125,0.0
1740790093.007943,-25.87890625,-50.29296875,-29.296875,-28.3203125,0.0
1740790093.011849,-16.6015625,-35.64453125,-24.4140625,-27.34375,0.0
1740790093.015755,-7.32421875,-38.57421875,-24.90234375,-20.01953125,0.0
1740790093.019661,-7.32421875,-51.26953125,-29.296875,-18.5546875,0.0
1740790093.0235667,-3.41796875,-30.2734375,-22.94921875,-24.4140625,0.0
1740790093.0274727,-3.41796875,-16.11328125,-19.04296875,-15.625,0.0
1740790093.0313814,-7.32421875,-32.71484375,-24.90234375,-13.671875,0.0
1740790093.0352871,-17.578125,-41.9921875,-29.296875,-28.80859375,0.0
1740790093.0391932,-25.87890625,-36.1328125,-25.87890625,-28.3203125,0.0
1740790093.0430992,-20.01953125,-27.83203125,-20.99609375,-16.6015625,0.0
1740790093.0470052,-15.625,-30.2734375,-24.90234375,-18.5546875,0.0
1740790093.050911,-11.23046875,-38.57421875,-36.62109375,-18.06640625,0.0
1740790093.054817,-12.20703125,-41.50390625,-36.1328125,-13.18359375,0.0
1740790093.058723,-9.765625,-29.78515625,-24.4140625,-18.5546875,0.0
1740790093.062629,-7.8125,-34.1796875,-34.66796875,-29.296875,0.0
1740790093.0665348,-14.16015625,-41.9921875,-31.73828125,-36.1328125,0.0
1740790093.0704408,-21.97265625,-13.671875,-13.18359375,-34.1796875,0.0
1740790093.0743468,-29.296875,-17.08984375,-26.3671875,-43.45703125,0.0
1740790093.0782537,0.0,-41.50390625,-45.41015625,-69.3359375,0.0
1740790093.0821598,0.0,-35.15625,-55.17578125,-92.7734375,0.0
1740790093.0860658,0.0,-20.5078125,-56.640625,-113.76953125,0.0
1740790093.0899718,0.0,-12.20703125,-65.4296875,-138.18359375,0.0
1740790093.0938776,0.0,-1.953125,-75.1953125,-176.26953125,0.0
1740790093.0977836,0.0,12.6953125,-79.1015625,-208.0078125,0.0
1740790093.1016896,0.0,36.62109375,-80.078125,-230.46875,0.0
1740790093.1055956,0.0,45.8984375,-89.35546875,-257.8125,0.0
1740790093.1095014,0.0,47.36328125,-94.7265625,-268.06640625,0.0
1740790093.1134074,0.0,59.08203125,-93.75,-271.97265625,0.0
1740790093.1173134,0.0,71.77734375,-96.6796875,-277.34375,0.0
1740790093.1212194,0.0,65.4296875,-101.07421875,-270.01953125,0.0
1740790093.1251261,-258.7890625,52.734375,-105.46875,-256.34765625,0.0
1740790093.1290321,-243.1640625,62.98828125,-92.28515625,-247.55859375,0.0
1740790093.132938,-233.3984375,66.89453125,-85.9375,-248.046875,0.0
1740790093.136844,-225.09765625,54.19921875,-84.9609375,-240.234375,0.0
1740790093.14075,-187.5,45.41015625,-72.75390625,-199.70703125,0.0
1740790093.144656,-157.71484375,45.8984375,-66.40625,-173.33984375,0.0
1740790093.1485617,-149.90234375,41.9921875,-64.453125,-165.52734375,0.0
1740790093.1524677,-130.37109375,16.6015625,-62.98828125,-138.671875,0.0
1740790093.1563737,-102.05078125,-2.44140625,-58.59375,-102.5390625,0.0
1740790093.1602798,-86.9140625,3.90625,-50.78125,-86.9140625,0.0
1740790093.1641855,-77.63671875,-3.41796875,-42.96875,-74.70703125,0.0
1740790093.1680915,-49.31640625,-13.18359375,-34.66796875,-48.828125,0.0
1740790093.1719997,-34.1796875,-20.99609375,-29.296875,-39.55078125,0.0
1740790093.1759055,-26.85546875,-29.296875,-31.73828125,-36.62109375,0.0
1740790093.1798115,-14.16015625,-31.73828125,-31.73828125,-26.3671875,0.0
1740790093.1837175,-8.7890625,-46.38671875,-34.1796875,-24.90234375,0.0
1740790093.1876235,0.0,-54.19921875,-31.25,-15.625,0.0
1740790093.1915293,10.7421875,-54.19921875,-24.90234375,-1.46484375,0.0
1740790093.1954353,16.11328125,-61.5234375,-23.4375,8.7890625,0.0
1740790093.1993413,21.484375,-69.82421875,-26.3671875,23.4375,0.0
1740790093.2032473,29.78515625,-61.03515625,-22.4609375,28.3203125,0.0
1740790093.207153,44.921875,-49.31640625,-6.34765625,26.3671875,0.0
1740790093.211059,48.828125,-59.5703125,-10.7421875,28.3203125,0.0
1740790093.214965,49.31640625,-62.01171875,-18.06640625,30.2734375,0.0
1740790093.218873,51.7578125,-59.08203125,-8.30078125,35.64453125,0.0
1740790093.2227788,43.9453125,-63.4765625,-10.7421875,37.109375,0.0
1740790093.2266848,48.33984375,-67.87109375,-19.53125,36.1328125,0.0
1740790093.2305908,58.59375,-66.40625,-19.04296875,33.203125,0.0
1740790093.2344968,60.546875,-56.640625,-16.11328125,38.0859375,0.0
1740790093.2384026,66.40625,-57.12890625,-11.71875,46.38671875,0.0
1740790093.2423086,66.89453125,-62.01171875,-12.6953125,46.38671875,0.0
1740790093.2462146,67.3828125,-61.03515625,-16.6015625,47.36328125,0.0
1740790093.2501206,68.359375,-57.6171875,-6.8359375,41.9921875,0.0
1740790093.2540264,62.98828125,-51.7578125,-3.41796875,42.48046875,0.0
1740790093.2579324,65.4296875,-70.3125,-13.671875,53.7109375,0.0
1740790093.2618384,67.3828125,-80.078125,-18.06640625,48.828125,0.0
1740790093.2657447,64.453125,-55.6640625,-9.27734375,41.50390625,0.0
1740790093.2696507,65.91796875,-61.03515625,-10.7421875,46.38671875,0.0
1740790093.2735565,67.3828125,-67.87109375,-14.6484375,43.45703125,0.0
1740790093.2774625,62.5,-62.01171875,-10.7421875,33.203125,0.0
1740790093.2813685,60.546875,-53.7109375,-5.859375,34.1796875,0.0
1740790093.2852745,56.15234375,-53.7109375,-9.27734375,39.55078125,0.0
1740790093.2891803,54.19921875,-52.24609375,-9.27734375,35.15625,0.0
1740790093.2930863,59.5703125,-44.921875,-3.90625,36.1328125,0.0
1740790093.2969923,58.59375,-43.45703125,-7.32421875,35.64453125,0.0
1740790093.3008983,49.8046875,-45.41015625,-12.20703125,29.78515625,0.0
1740790093.304804,47.8515625,-59.5703125,-19.04296875,35.64453125,0.0
1740790093.30871,54.19921875,-54.19921875,-18.06640625,32.71484375,0.0
1740790093.312616,47.8515625,-44.43359375,-16.11328125,19.04296875,0.0
1740790093.3165221,37.109375,-57.12890625,-18.5546875,21.484375,0.0
1740790093.3204281,35.15625,-55.6640625,-11.71875,26.3671875,0.0
1740790093.324334,34.66796875,-48.828125,-8.7890625,20.5078125,0.0
1740790093.32824,25.87890625,-48.33984375,-11.71875,19.53125,0.0
1740790093.332146,19.53125,-55.6640625,-15.625,27.34375,0.0
1740790093.336052,23.4375,-53.7109375,-15.625,27.34375,0.0
1740790093.3399577,29.296875,-37.109375,-9.27734375,30.76171875,0.0
1740790093.3438637,23.92578125,-39.0625,-6.8359375,25.87890625,0.0
1740790093.3477697,19.04296875,-44.43359375,-6.34765625,20.01953125,0.0
1740790093.3516757,26.3671875,-43.9453125,-5.859375,17.08984375,0.0
1740790093.3555815,27.34375,-38.0859375,-3.41796875,13.18359375,0.0
1740790093.359489,18.5546875,-41.015625,-5.37109375,11.23046875,0.0
1740790093.363395,19.53125,-49.8046875,-14.6484375,4.39453125,0.0
1740790093.3673007,20.01953125,-43.9453125,-11.71875,7.32421875,0.0
1740790093.3712068,12.20703125,-35.15625,-11.23046875,-2.44140625,0.0
1740790093.3751128,8.7890625,-42.48046875,-17.08984375,-11.71875,0.0
1740790093.3790188,15.13671875,-51.26953125,-18.5546875,-10.25390625,0.0
1740790093.3829246,11.71875,-45.41015625,-18.06640625,-12.20703125,0.0
1740790093.3868306,5.859375,-38.57421875,-21.484375,-10.7421875,0.0
1740790093.3907366,7.32421875,-44.921875,-25.390625,-16.11328125,0.0
1740790093.3946426,0.9765625,-55.6640625,-24.4140625,-8.30078125,0.0
1740790093.3985484,-2.44140625,-51.7578125,-21.97265625,-0.48828125,0.0
1740790093.4024544,4.8828125,-41.50390625,-17.578125,-0.48828125,0.0
1740790093.4063616,7.8125,-42.48046875,-17.578125,-4.8828125,0.0
1740790093.4102676,2.9296875,-41.9921875,-20.99609375,-9.27734375,0.0
1740790093.4141736,7.32421875,-34.66796875,-24.90234375,-6.34765625,0.0
1740790093.4180794,1.46484375,-40.52734375,-26.85546875,-15.625,0.0
1740790093.4219854,-9.27734375,-53.22265625,-33.69140625,-15.13671875,0.0
1740790093.4258914,-10.7421875,-48.33984375,-33.203125,-17.08984375,0.0
1740790093.4297974,-6.8359375,-35.64453125,-29.78515625,-28.3203125,0.0
1740790093.4337032,-3.41796875,-32.71484375,-29.296875,-32.71484375,0.0
1740790093.4376092,-7.32421875,-44.43359375,-32.2265625,-36.1328125,0.0
1740790093.4415152,-11.71875,-53.7109375,-32.2265625,-27.83203125,0.0
1740790093.4454212,-8.30078125,-36.62109375,-22.4609375,-21.484375,0.0
1740790093.449327,-4.8828125,-31.73828125,-20.01953125,-23.4375,0.0
1740790093.4532342,-5.859375,-38.0859375,-20.99609375,-30.2734375,0.0
1740790093.45714,-4.39453125,-38.0859375,-27.34375,-35.64453125,0.0
1740790093.461046,-4.8828125,-34.66796875,-29.78515625,-26.85546875,0.0
1740790093.464952,-5.37109375,-38.0859375,-33.203125,-22.4609375,0.0
1740790093.468858,-9.765625,-41.015625,-33.69140625,-21.97265625,0.0
1740790093.4727638,-12.20703125,-39.55078125,-30.76171875,-20.5078125,0.0
1740790093.4766698,-9.27734375,-37.109375,-31.73828125,-32.2265625,0.0
1740790093.4805758,-4.39453125,-35.64453125,-35.15625,-37.109375,0.0
1740790093.4844818,-12.6953125,-53.7109375,-41.9921875,-29.78515625,0.0
1740790093.4883876,-15.13671875,-51.7578125,-37.109375,-30.76171875,0.0
1740790093.4922936,-3.90625,-35.64453125,-29.78515625,-33.203125,0.0
1740790093.4961996,3.41796875,-36.62109375,-33.203125,-23.92578125,0.0
1740790093.5001063,0.48828125,-34.66796875,-27.83203125,-15.625,0.0
1740790093.5040123,-0.9765625,-29.78515625,-27.83203125,-23.92578125,0.0
1740790093.5079184,-4.8828125,-30.76171875,-28.3203125,-27.34375,0.0
1740790093.5118241,-6.34765625,-35.64453125,-26.85546875,-26.85546875,0.0
1740790093.5157301,-7.32421875,-34.1796875,-34.1796875,-28.80859375,0.0
1740790093.5196362,-17.08984375,-38.0859375,-34.1796875,-39.55078125,0.0
1740790093.5235422,-16.6015625,-36.1328125,-31.73828125,-45.8984375,0.0
1740790093.527448,-8.7890625,-40.52734375,-34.1796875,-36.1328125,0.0
1740790093.531354,-10.7421875,-53.7109375,-34.66796875,-29.78515625,0.0
1740790093.53526,-17.08984375,-37.59765625,-29.78515625,-36.62109375,0.0
1740790093.539166,-17.578125,-34.66796875,-33.69140625,-39.55078125,0.0
1740790093.5430717,-17.578125,-39.0625,-36.1328125,-35.64453125,0.0
1740790093.5469785,-20.99609375,-38.0859375,-34.1796875,-38.0859375,0.0
1740790093.5508845,-16.11328125,-44.921875,-33.203125,-36.62109375,0.0
1740790093.5547903,-16.11328125,-40.0390625,-33.203125,-27.34375,0.0
1740790093.5586963,-24.90234375,-36.62109375,-35.15625,-33.203125,0.0
1740790093.5626023,-31.73828125,-42.96875,-38.57421875,-46.875,0.0
1740790093.5665083,-36.62109375,-44.43359375,-40.0390625,-55.6640625,0.0
1740790093.570414,-35.64453125,-41.50390625,-37.109375,-58.59375,0.0
1740790093.57432,-23.92578125,-48.33984375,-35.15625,-39.55078125,0.0
1740790093.578226,-20.99609375,-39.55078125,-29.296875,-30.2734375,0.0
1740790093.582132,-19.53125,-29.296875,-20.99609375,-29.296875,0.0
1740790093.5860379,-20.99609375,-39.55078125,-23.92578125,-28.3203125,0.0
1740790093.589944,-24.4140625,-42.48046875,-25.87890625,-41.50390625,0.0
1740790093.5938504,-21.97265625,-40.52734375,-28.80859375,-44.43359375,0.0
1740790093.5977564,-25.87890625,-42.48046875,-35.15625,-38.57421875,0.0
1740790093.6016622,-23.92578125,-43.45703125,-35.64453125,-30.2734375,0.0
1740790093.6055682,-31.25,-44.921875,-35.64453125,-30.2734375,0.0
1740790093.6094742,-29.296875,-41.015625,-27.83203125,-28.3203125,0.0
1740790093.6133802,-22.4609375,-41.015625,-27.83203125,-20.99609375,0.0
1740790093.617286,-26.85546875,-51.26953125,-33.203125,-25.390625,0.0
1740790093.621192,-25.87890625,-55.6640625,-33.69140625,-27.34375,0.0
1740790093.625098,-25.87890625,-41.50390625,-35.64453125,-27.34375,0.0
1740790093.629004,-23.4375,-38.57421875,-37.59765625,-29.296875,0.0
1740790093.6329098,-19.04296875,-42.48046875,-40.52734375,-32.2265625,0.0
1740790093.6368158,-23.4375,-39.55078125,-43.9453125,-42.96875,0.0
1740790093.6407223,-22.4609375,-39.0625,-35.64453125,-45.8984375,0.0
1740790093.644628,-23.4375,-44.43359375,-31.73828125,-41.015625,0.0
1740790093.648534,-22.94921875,-46.38671875,-29.78515625,-36.62109375,0.0
1740790093.65244,-22.4609375,-39.55078125,-23.92578125,-32.2265625,0.0
1740790093.656346,-23.92578125,-36.1328125,-22.4609375,-34.1796875,0.0
1740790093.6602519,-19.04296875,-42.96875,-31.73828125,-38.0859375,0.0
1740790093.6641579,-25.87890625,-54.6875,-40.52734375,-38.57421875,0.0
1740790093.6680639,-29.78515625,-50.29296875,-29.78515625,-39.55078125,0.0
1740790093.67197,-19.04296875,-31.25,-23.4375,-39.55078125,0.0
1740790093.6758757,-18.06640625,-32.71484375,-23.92578125,-34.66796875,0.0
1740790093.6797817,-25.390625,-38.57421875,-27.34375,-38.0859375,0.0
1740790093.6836877,-20.99609375,-34.66796875,-31.25,-34.1796875,0.0
1740790093.6875937,-17.578125,-32.71484375,-24.4140625,-33.203125,0.0
1740790093.6914997,-19.53125,-42.48046875,-27.83203125,-40.0390625,0.0
1740790093.6954055,-14.6484375,-42.48046875,-32.71484375,-42.48046875,0.0
1740790093.6993115,-13.18359375,-36.62109375,-31.25,-40.52734375,0.0
1740790093.7032175,-14.16015625,-42.48046875,-28.3203125,-42.96875,0.0
1740790093.7071235,-11.71875,-50.78125,-29.78515625,-36.62109375,0.0
1740790093.7110293,-12.20703125,-47.8515625,-34.66796875,-25.390625,0.0
1740790093.7149353,-15.625,-36.1328125,-26.3671875,-21.97265625,0.0
1740790093.7188413,-19.53125,-37.59765625,-22.94921875,-34.1796875,0.0
1740790093.7227473,-17.578125,-51.7578125,-32.2265625,-47.8515625,0.0
1740790093.726653,-14.16015625,-52.734375,-26.85546875,-40.0390625,0.0
1740790093.730559,-11.71875,-45.41015625,-22.4609375,-37.109375,0.0
1740790093.7344666,-17.578125,-50.29296875,-26.3671875,-34.1796875,0.0
1740790093.7383723,-16.11328125,-53.22265625,-26.3671875,-28.3203125,0.0
1740790093.7422783,-18.06640625,-50.78125,-24.90234375,-34.1796875,0.0
1740790093.7461843,-19.53125,-48.33984375,-22.94921875,-34.1796875,0.0
1740790093.7500904,-13.671875,-45.41015625,-29.296875,-31.73828125,0.0
1740790093.7539961,-16.11328125,-53.7109375,-28.80859375,-35.15625,0.0
1740790093.7579021,-14.16015625,-49.31640625,-19.04296875,-28.3203125,0.0
1740790093.7618082,-10.7421875,-25.87890625,-13.18359375,-25.87890625,0.0
1740790093.7657142,-12.20703125,-30.76171875,-15.13671875,-39.0625,0.0
1740790093.76962,-8.7890625,-48.33984375,-20.5078125,-36.62109375,0.0
1740790093.773526,-21.484375,-43.9453125,-19.53125,-30.2734375,0.0
1740790093.777432,-24.90234375,-39.55078125,-20.01953125,-36.62109375,0.0
1740790093.7813392,-7.32421875,-46.875,-30.76171875,-35.15625,0.0
1740790093.7852452,-5.859375,-40.52734375,-28.3203125,-28.3203125,0.0
1740790093.789151,-12.20703125,-38.0859375,-20.01953125,-32.2265625,0.0
1740790093.793057,-9.765625,-41.50390625,-18.5546875,-31.25,0.0
1740790093.796963,-16.11328125,-43.9453125,-22.94921875,-25.87890625,0.0
1740790093.800869,-15.13671875,-58.10546875,-34.66796875,-31.25,0.0
1740790093.8047748,-9.765625,-48.828125,-35.15625,-25.87890625,0.0
1740790093.8086808,-11.23046875,-38.0859375,-30.2734375,-28.80859375,0.0
1740790093.8125868,-13.671875,-50.78125,-31.73828125,-33.69140625,0.0
1740790093.8164928,-19.04296875,-57.6171875,-32.2265625,-34.1796875,0.0
1740790093.8203986,-11.71875,-42.48046875,-22.4609375,-34.66796875,0.0
1740790093.8243046,-10.7421875,-40.0390625,-19.53125,-21.97265625,0.0
1740790093.8282118,-13.671875,-43.45703125,-22.94921875,-17.08984375,0.0
1740790093.8321176,-15.625,-50.78125,-23.92578125,-15.625,0.0
1740790093.8360236,-17.578125,-49.31640625,-18.5546875,-20.5078125,0.0
1740790093.8399296,-10.7421875,-37.59765625,-18.5546875,-20.5078125,0.0
1740790093.8438356,-10.25390625,-43.45703125,-18.5546875,-20.01953125,0.0
1740790093.8477414,-10.7421875,-48.33984375,-19.04296875,-21.97265625,0.0
1740790093.8516474,-8.30078125,-40.52734375,-20.99609375,-23.92578125,0.0
1740790093.8555534,-8.30078125,-35.64453125,-14.6484375,-23.92578125,0.0
1740790093.8594594,-8.30078125,-44.43359375,-18.06640625,-11.71875,0.0
1740790093.8633652,-11.23046875,-37.59765625,-20.99609375,-16.11328125,0.0
1740790093.8672712,-17.08984375,-33.69140625,-21.484375,-27.83203125,0.0
1740790093.8711772,-19.53125,-47.36328125,-30.76171875,-28.80859375,0.0
1740790093.8750854,-26.85546875,-41.50390625,-28.80859375,-37.59765625,0.0
1740790093.8789914,-20.99609375,-35.15625,-20.01953125,-36.1328125,0.0
1740790093.8828974,-18.5546875,-38.57421875,-20.5078125,-28.3203125,0.0
1740790093.8868032,-26.85546875,-46.38671875,-26.3671875,-32.2265625,0.0
1740790093.8907092,-22.94921875,-48.33984375,-24.4140625,-32.71484375,0.0
1740790093.8946152,-16.11328125,-45.41015625,-30.2734375,-42.96875,0.0
1740790093.8985212,-17.08984375,-36.1328125,-35.15625,-47.8515625,0.0
1740790093.902427,-23.92578125,-34.1796875,-34.66796875,-43.9453125,0.0
1740790093.906333,-27.34375,-48.33984375,-34.66796875,-39.55078125,0.0
1740790093.910239,-17.578125,-45.41015625,-27.83203125,-35.64453125,0.0
1740790093.914145,-27.34375,-43.45703125,-27.83203125,-41.015625,0.0
1740790093.9180508,-30.76171875,-46.38671875,-28.80859375,-41.50390625,0.0
1740790093.9219575,-18.06640625,-42.48046875,-28.3203125,-40.0390625,0.0
1740790093.9258635,-20.5078125,-40.52734375,-33.69140625,-34.1796875,0.0
1740790093.9297695,-22.4609375,-37.59765625,-36.1328125,-34.1796875,0.0
1740790093.9336753,-16.6015625,-38.0859375,-36.62109375,-40.52734375,0.0
1740790093.9375813,-16.6015625,-41.50390625,-35.64453125,-38.0859375,0.0
1740790093.9414873,-17.578125,-37.59765625,-30.2734375,-30.2734375,0.0
1740790093.9453933,-13.671875,-38.0859375,-28.80859375,-31.25,0.0
1740790093.949299,-25.390625,-44.43359375,-30.2734375,-39.55078125,0.0
1740790093.953205,-35.15625,-41.9921875,-24.90234375,-40.0390625,0.0
1740790093.9571111,-34.1796875,-39.0625,-19.53125,-42.48046875,0.0
1740790093.9610171,-34.1796875,-41.015625,-27.34375,-47.8515625,0.0
1740790093.964923,-25.87890625,-51.26953125,-35.64453125,-29.78515625,0.0
1740790093.9688294,-23.92578125,-41.50390625,-25.390625,-20.5078125,0.0
1740790093.9727354,-25.87890625,-21.97265625,-18.5546875,-20.01953125,0.0
1740790093.9766414,-20.01953125,-25.87890625,-22.94921875,-13.18359375,0.0
1740790093.9805474,-13.671875,-31.25,-24.4140625,-29.296875,0.0
1740790093.9844532,-14.6484375,-37.59765625,-23.92578125,-34.66796875,0.0
1740790093.9883592,-15.13671875,-43.9453125,-21.97265625,-25.390625,0.0
1740790093.9922652,-13.18359375,-44.43359375,-19.04296875,-23.92578125,0.0
1740790093.996171,-20.99609375,-42.48046875,-22.4609375,-18.06640625,0.0
1740790094.000077,-36.62109375,-31.25,-24.4140625,-23.4375,0.0
1740790094.003983,-36.62109375,-27.34375,-20.5078125,-28.80859375,0.0
1740790094.007889,-26.3671875,-35.64453125,-20.99609375,-16.11328125,0.0
1740790094.0117948,-30.76171875,-36.1328125,-24.90234375,-21.484375,0.0
1740790094.0157013,-34.66796875,-34.1796875,-22.4609375,-36.1328125,0.0
1740790094.0196073,-27.34375,-43.9453125,-32.71484375,-31.25,0.0
1740790094.023513,-26.3671875,-45.41015625,-40.0390625,-29.296875,0.0
1740790094.027419,-31.25,-42.48046875,-33.203125,-27.83203125,0.0
1740790094.031325,-26.3671875,-47.36328125,-32.71484375,-30.76171875,0.0
1740790094.035231,-25.390625,-44.43359375,-34.66796875,-36.62109375,0.0
1740790094.039137,-33.203125,-49.8046875,-41.9921875,-41.50390625,0.0
1740790094.043043,-32.2265625,-41.015625,-36.62109375,-36.1328125,0.0
1740790094.046949,-25.390625,-22.4609375,-26.3671875,-31.73828125,0.0
1740790094.050855,-20.99609375,-29.296875,-34.1796875,-34.1796875,0.0
1740790094.0547607,-18.5546875,-34.1796875,-39.55078125,-41.9921875,0.0
1740790094.0586667,-16.11328125,-36.1328125,-35.15625,-48.828125,0.0
1740790094.0625727,-18.06640625,-33.69140625,-25.390625,-47.36328125,0.0
1740790094.0664787,-20.5078125,-35.15625,-22.94921875,-41.50390625,0.0
1740790094.0703847,-19.04296875,-41.015625,-24.4140625,-40.52734375,0.0
1740790094.0742908,-18.5546875,-37.59765625,-17.578125,-34.66796875,0.0
1740790094.0781965,-18.5546875,-39.55078125,-17.578125,-28.3203125,0.0
1740790094.0821025,-20.01953125,-48.828125,-27.34375,-35.64453125,0.0
1740790094.0860085,-22.4609375,-51.26953125,-35.64453125,-42.96875,0.0
1740790094.0899146,-15.13671875,-30.76171875,-29.296875,-38.57421875,0.0
1740790094.0938203,-6.34765625,-20.01953125,-24.4140625,-44.921875,0.0
1740790094.0977263,-6.8359375,-29.78515625,-25.390625,-43.45703125,0.0
1740790094.1016324,-10.25390625,-32.71484375,-25.87890625,-34.1796875,0.0
1740790094.1055384,-11.71875,-30.2734375,-19.04296875,-34.66796875,0.0
1740790094.1094456,-10.7421875,-33.69140625,-15.13671875,-31.73828125,0.0
1740790094.1133516,-17.08984375,-44.43359375,-26.3671875,-35.64453125,0.0
1740790094.1172576,-14.6484375,-46.875,-29.78515625,-39.55078125,0.0
1740790094.1211636,-13.18359375,-37.109375,-24.4140625,-39.55078125,0.0
1740790094.1250694,-9.765625,-30.76171875,-20.99609375,-31.25,0.0
1740790094.1289754,-4.39453125,-39.0625,-26.85546875,-26.85546875,0.0
1740790094.1328814,-12.20703125,-35.64453125,-23.4375,-30.2734375,0.0
1740790094.1367874,-14.6484375,-30.2734375,-15.625,-30.2734375,0.0
1740790094.1406932,-14.16015625,-34.66796875,-25.87890625,-21.97265625,0.0
1740790094.1445992,-19.04296875,-41.015625,-31.73828125,-15.625,0.0
1740790094.1485052,-18.5546875,-33.69140625,-30.2734375,-21.484375,0.0
1740790094.1524112,-17.08984375,-25.87890625,-30.2734375,-27.34375,0.0
1740790094.1563182,-13.671875,-38.0859375,-34.1796875,-29.296875,0.0
1740790094.1602242,-13.18359375,-41.9921875,-38.0859375,-33.203125,0.0
1740790094.1641302,-20.01953125,-31.25,-34.1796875,-37.59765625,0.0
1740790094.1680362,-25.87890625,-30.2734375,-30.2734375,-48.828125,0.0
1740790094.171942,-25.390625,-43.9453125,-35.64453125,-50.29296875,0.0
1740790094.175848,-18.06640625,-49.31640625,-39.0625,-47.36328125,0.0
1740790094.179754,-17.08984375,-42.96875,-33.203125,-46.38671875,0.0
1740790094.18366,-20.01953125,-38.0859375,-29.78515625,-40.52734375,0.0
1740790094.1875658,-18.06640625,-44.43359375,-29.78515625,-32.71484375,0.0
1740790094.1914718,-15.13671875,-53.7109375,-31.73828125,-24.90234375,0.0
1740790094.1953778,-23.4375,-40.0390625,-30.76171875,-32.2265625,0.0
1740790094.1992838,-22.94921875,-35.64453125,-30.76171875,-37.59765625,0.0
1740790094.2031908,0.0,-44.43359375,-35.15625,-37.59765625,0.0
1740790094.2070968,0.0,-46.38671875,-38.0859375,-32.71484375,0.0
1740790094.2110028,0.0,-42.96875,-33.69140625,-25.390625,0.0
1740790094.2149086,0.0,-40.52734375,-29.78515625,-27.83203125,0.0
1740790094.2188146,0.0,-40.52734375,-30.76171875,-22.94921875,0.0
1740790094.2227206,0.0,-41.9921875,-28.3203125,-16.6015625,0.0
