timestamps,TP9,AF7,AF8,TP10,Right AUX
1740794775.369388,-11.23046875,-26.85546875,-21.484375,-25.87890625,0.0
1740794775.3732939,-14.16015625,-20.99609375,-11.23046875,-26.3671875,0.0
1740794775.3772,-26.85546875,-37.109375,-23.92578125,-39.55078125,0.0
1740794775.3811057,-39.55078125,-43.9453125,-32.71484375,-37.59765625,0.0
1740794775.3850114,-40.0390625,-44.921875,-28.80859375,-20.5078125,0.0
1740794775.3889172,-27.34375,-36.62109375,-28.3203125,-17.08984375,0.0
1740794775.392823,-12.20703125,-34.66796875,-33.203125,-45.41015625,0.0
1740794775.3967288,-29.78515625,-32.71484375,-33.203125,-61.5234375,0.0
1740794775.4006345,-72.75390625,-23.92578125,-44.921875,-66.40625,0.0
1740794775.4045403,-61.03515625,-22.4609375,-55.6640625,-66.40625,0.0
1740794775.408446,-58.59375,-11.23046875,-50.78125,-80.56640625,0.0
1740794775.412352,-86.9140625,-10.7421875,-53.22265625,-95.703125,0.0
1740794775.4162629,-83.49609375,-17.578125,-58.59375,-101.5625,0.0
1740794775.4201686,-83.49609375,-10.25390625,-60.546875,-104.4921875,0.0
1740794775.4240744,-87.40234375,0.9765625,-67.87109375,-106.4453125,0.0
1740794775.4279802,-93.26171875,2.9296875,-75.68359375,-120.60546875,0.0
1740794775.431886,-85.44921875,-0.48828125,-75.68359375,-119.62890625,0.0
1740794775.4357917,-73.2421875,17.578125,-72.75390625,-114.74609375,0.0
1740794775.4396977,-84.47265625,21.97265625,-71.77734375,-127.9296875,0.0
1740794775.4436035,-87.40234375,27.34375,-82.51953125,-132.32421875,0.0
1740794775.4475093,-84.47265625,43.9453125,-87.40234375,-132.8125,0.0
1740794775.451415,-62.5,35.64453125,-87.40234375,-128.90625,0.0
1740794775.4553208,-52.734375,25.390625,-95.21484375,-129.39453125,0.0
1740794775.4592266,-63.4765625,34.1796875,-98.6328125,-135.25390625,0.0
1740794775.4631371,-50.29296875,38.0859375,-99.12109375,-126.953125,0.0
1740794775.4670432,-42.48046875,29.296875,-100.09765625,-112.79296875,0.0
1740794775.470949,-40.52734375,24.90234375,-101.5625,-97.16796875,0.0
1740794775.4748547,-46.38671875,36.62109375,-102.5390625,-81.54296875,0.0
1740794775.4787605,-24.4140625,42.48046875,-107.91015625,-66.40625,0.0
1740794775.4826663,16.6015625,38.0859375,-106.93359375,-39.55078125,0.0
1740794775.486572,23.92578125,38.57421875,-96.19140625,-26.85546875,0.0
1740794775.4904778,28.3203125,36.62109375,-99.609375,-18.06640625,0.0
1740794775.4943836,45.41015625,32.71484375,-101.5625,8.7890625,0.0
1740794775.4982893,67.87109375,36.62109375,-96.19140625,13.671875,0.0
1740794775.5021954,84.47265625,38.0859375,-89.84375,12.20703125,0.0
1740794775.5061011,93.75,33.203125,-95.703125,19.53125,0.0
1740794775.5100143,90.33203125,24.4140625,-97.16796875,20.5078125,0.0
1740794775.51392,95.21484375,23.92578125,-89.35546875,29.78515625,0.0
1740794775.5178258,101.07421875,30.2734375,-88.8671875,33.203125,0.0
1740794775.5217316,79.58984375,17.08984375,-87.890625,17.578125,0.0
1740794775.5256374,68.84765625,5.859375,-90.8203125,15.625,0.0
1740794775.5295432,84.47265625,-0.9765625,-86.9140625,36.1328125,0.0
1740794775.5334492,90.33203125,2.44140625,-82.51953125,42.96875,0.0
1740794775.537355,78.125,13.671875,-81.54296875,19.53125,0.0
1740794775.5412607,52.734375,1.46484375,-78.125,9.27734375,0.0
1740794775.5451665,42.96875,-17.08984375,-78.125,12.20703125,0.0
1740794775.5490723,41.9921875,-4.39453125,-79.1015625,20.5078125,0.0
1740794775.552978,43.45703125,-5.859375,-74.21875,20.5078125,0.0
1740794775.556891,49.31640625,-20.99609375,-69.3359375,8.7890625,0.0
1740794775.5607967,37.59765625,-17.08984375,-67.87109375,10.25390625,0.0
1740794775.5647025,29.78515625,-15.13671875,-66.40625,9.27734375,0.0
1740794775.5686083,37.59765625,-9.765625,-58.10546875,12.6953125,0.0
1740794775.572514,25.87890625,-10.7421875,-47.36328125,21.484375,0.0
1740794775.5764198,19.53125,-20.99609375,-50.78125,17.578125,0.0
1740794775.5803256,17.08984375,-15.13671875,-52.734375,7.8125,0.0
1740794775.5842314,21.484375,-21.97265625,-56.640625,0.9765625,0.0
1740794775.5881374,49.31640625,-41.015625,-53.22265625,10.7421875,0.0
1740794775.5920432,31.73828125,-29.78515625,-54.19921875,2.44140625,0.0
1740794775.595949,8.30078125,-34.1796875,-60.546875,-11.71875,0.0
1740794775.5998547,28.3203125,-40.52734375,-52.24609375,8.30078125,0.0
1740794775.603767,42.48046875,-30.76171875,-49.8046875,14.16015625,0.0
1740794775.607673,21.97265625,-41.9921875,-46.38671875,7.32421875,0.0
1740794775.6115787,4.8828125,-43.9453125,-41.015625,4.8828125,0.0
1740794775.6154845,-0.9765625,-31.73828125,-34.66796875,4.39453125,0.0
1740794775.6193902,2.9296875,-31.73828125,-33.69140625,-0.9765625,0.0
1740794775.623296,24.4140625,-42.48046875,-32.71484375,-3.41796875,0.0
1740794775.6272018,-15.13671875,-51.26953125,-27.34375,-7.32421875,0.0
1740794775.6311076,-29.78515625,-54.6875,-22.94921875,-6.8359375,0.0
1740794775.6350133,-3.90625,-52.24609375,-20.01953125,0.0,0.0
1740794775.6389194,-19.53125,-41.9921875,-16.6015625,-10.25390625,0.0
1740794775.6428251,-30.2734375,-38.57421875,-16.11328125,-21.97265625,0.0
1740794775.646731,-22.94921875,-47.36328125,-20.5078125,-14.6484375,0.0
1740794775.6506429,-21.97265625,-53.22265625,-22.4609375,-15.13671875,0.0
1740794775.6545486,-20.99609375,-50.29296875,-25.390625,-18.5546875,0.0
1740794775.6584544,-42.96875,-42.96875,-36.62109375,-32.2265625,0.0
1740794775.6623604,-24.4140625,-42.48046875,-34.1796875,-20.01953125,0.0
1740794775.6662662,-6.34765625,-40.52734375,-29.296875,-7.32421875,0.0
1740794775.670172,-40.0390625,-31.73828125,-31.73828125,-33.203125,0.0
1740794775.6740777,-52.734375,-37.109375,-30.2734375,-35.64453125,0.0
1740794775.6779835,-55.6640625,-48.33984375,-27.83203125,-33.69140625,0.0
1740794775.6818893,-53.7109375,-42.48046875,-36.1328125,-33.69140625,0.0
1740794775.685795,-42.48046875,-38.57421875,-35.15625,-25.390625,0.0
1740794775.6897008,-42.48046875,-45.8984375,-19.04296875,-26.85546875,0.0
1740794775.6936066,-52.24609375,-41.015625,-29.296875,-46.875,0.0
1740794775.6975183,-55.6640625,-43.45703125,-33.69140625,-50.29296875,0.0
1740794775.7014241,-35.15625,-47.36328125,-19.04296875,-45.41015625,0.0
1740794775.70533,-33.203125,-39.55078125,-24.90234375,-38.0859375,0.0
1740794775.7092357,-54.19921875,-44.43359375,-22.94921875,-24.90234375,0.0
1740794775.7131414,-49.8046875,-55.6640625,-23.4375,-26.85546875,0.0
1740794775.7170475,-43.45703125,-54.19921875,-31.25,-25.87890625,0.0
1740794775.7209532,-34.66796875,-50.78125,-18.5546875,-20.5078125,0.0
1740794775.724859,-42.48046875,-63.4765625,-16.11328125,-35.15625,0.0
1740794775.7287648,-60.546875,-61.03515625,-24.90234375,-38.57421875,0.0
1740794775.7326705,-63.96484375,-51.26953125,-20.99609375,-38.57421875,0.0
1740794775.7365763,-39.55078125,-61.03515625,-15.625,-38.57421875,0.0
1740794775.740482,-36.62109375,-55.17578125,-15.625,-32.71484375,0.0
1740794775.7443933,-52.734375,-50.78125,-20.99609375,-42.48046875,0.0
1740794775.7482991,-41.9921875,-46.875,-29.78515625,-47.36328125,0.0
1740794775.752205,-33.69140625,-51.26953125,-35.64453125,-43.9453125,0.0
1740794775.756111,-53.22265625,-59.08203125,-40.0390625,-50.29296875,0.0
1740794775.7600167,-62.5,-49.31640625,-35.15625,-60.05859375,0.0
1740794775.7639225,-42.48046875,-40.0390625,-25.87890625,-50.29296875,0.0
1740794775.7678282,-39.55078125,-47.36328125,-27.34375,-47.8515625,0.0
1740794775.771734,-44.43359375,-48.828125,-26.85546875,-43.9453125,0.0
1740794775.7756398,-42.96875,-33.203125,-13.671875,-34.1796875,0.0
1740794775.7795455,-40.52734375,-30.76171875,-8.30078125,-36.62109375,0.0
1740794775.7834513,-42.48046875,-38.0859375,-17.578125,-41.9921875,0.0
1740794775.787357,-45.8984375,-38.57421875,-22.94921875,-41.9921875,0.0
1740794775.791268,-45.41015625,-44.43359375,-26.85546875,-41.50390625,0.0
1740794775.795174,-42.48046875,-51.7578125,-34.66796875,-42.96875,0.0
1740794775.7990797,-39.55078125,-50.78125,-37.109375,-41.015625,0.0
1740794775.8029854,-30.76171875,-46.38671875,-30.76171875,-35.15625,0.0
1740794775.8068912,-24.4140625,-45.8984375,-31.73828125,-29.78515625,0.0
1740794775.810797,-40.52734375,-35.64453125,-35.64453125,-29.78515625,0.0
1740794775.8147027,-40.0390625,-31.25,-34.66796875,-27.34375,0.0
1740794775.8186085,-29.78515625,-37.109375,-42.48046875,-29.78515625,0.0
1740794775.8225145,-30.2734375,-34.66796875,-49.8046875,-34.66796875,0.0
1740794775.8264203,-24.4140625,-39.0625,-41.9921875,-24.4140625,0.0
1740794775.830326,-36.62109375,-38.0859375,-38.57421875,-32.71484375,0.0
1740794775.8342319,-35.64453125,-31.73828125,-34.66796875,-47.36328125,0.0
1740794775.8381424,-12.20703125,-22.4609375,-31.25,-40.0390625,0.0
1740794775.8420482,-26.3671875,-21.97265625,-38.57421875,-38.57421875,0.0
1740794775.8459542,-51.7578125,-22.94921875,-45.8984375,-47.8515625,0.0
1740794775.84986,-56.15234375,-21.97265625,-40.52734375,-47.8515625,0.0
1740794775.8537657,-49.8046875,-29.296875,-37.109375,-53.7109375,0.0
1740794775.8576715,-50.78125,-26.85546875,-30.2734375,-51.7578125,0.0
1740794775.8615773,-53.22265625,-32.71484375,-20.99609375,-44.921875,0.0
1740794775.865483,-41.015625,-38.57421875,-25.87890625,-47.36328125,0.0
1740794775.8693888,-35.64453125,-34.1796875,-27.34375,-48.828125,0.0
1740794775.8732946,-38.57421875,-38.0859375,-20.99609375,-44.921875,0.0
1740794775.8772004,-44.43359375,-31.25,-26.3671875,-43.45703125,0.0
1740794775.8811064,-42.48046875,-27.83203125,-34.1796875,-44.921875,0.0
1740794775.8850195,-44.921875,-46.875,-26.85546875,-33.69140625,0.0
1740794775.8889253,-52.734375,-38.0859375,-21.484375,-37.59765625,0.0
1740794775.892831,-65.91796875,-20.5078125,-33.203125,-59.5703125,0.0
1740794775.8967369,-63.96484375,-26.85546875,-42.96875,-66.89453125,0.0
1740794775.9006426,-41.50390625,-39.0625,-39.55078125,-53.7109375,0.0
1740794775.9045484,-42.96875,-32.2265625,-40.52734375,-44.43359375,0.0
1740794775.9084542,-49.31640625,-18.5546875,-42.96875,-41.015625,0.0
1740794775.9123602,-56.15234375,-14.6484375,-41.50390625,-48.828125,0.0
1740794775.916266,-47.8515625,-22.4609375,-36.1328125,-46.38671875,0.0
1740794775.9201717,-41.015625,-27.83203125,-35.64453125,-38.57421875,0.0
1740794775.9240775,-45.8984375,-25.87890625,-43.9453125,-43.9453125,0.0
1740794775.9279833,-43.9453125,-32.2265625,-35.15625,-33.203125,0.0
1740794775.931896,-31.25,-30.2734375,-35.64453125,-29.296875,0.0
1740794775.935802,-25.87890625,-35.15625,-38.57421875,-27.34375,0.0
1740794775.9397078,-35.64453125,-35.64453125,-29.296875,-24.4140625,0.0
1740794775.9436135,-34.66796875,-33.203125,-29.296875,-21.484375,0.0
1740794775.9475193,-28.3203125,-32.2265625,-30.2734375,-18.5546875,0.0
1740794775.951425,-10.25390625,-30.76171875,-25.87890625,-12.20703125,0.0
1740794775.9553308,-7.8125,-32.71484375,-24.90234375,-10.25390625,0.0
1740794775.9592366,-18.06640625,-30.2734375,-26.85546875,-12.20703125,0.0
1740794775.9631424,-19.53125,-44.43359375,-27.34375,-11.23046875,0.0
1740794775.9670482,-15.13671875,-28.3203125,-39.55078125,-31.25,0.0
1740794775.9709542,-3.41796875,-14.16015625,-35.15625,-34.66796875,0.0
1740794775.97486,-15.625,-29.78515625,-22.94921875,-31.25,0.0
1740794775.9787724,-35.64453125,-25.87890625,-37.109375,-41.50390625,0.0
1740794775.9826782,-21.97265625,-13.671875,-45.41015625,-39.0625,0.0
1740794775.986584,-25.87890625,-21.484375,-41.50390625,-42.48046875,0.0
1740794775.9904897,-30.76171875,-29.78515625,-38.57421875,-45.41015625,0.0
1740794775.9943955,-22.4609375,-20.5078125,-34.1796875,-41.015625,0.0
1740794775.9983015,-27.83203125,-29.78515625,-34.66796875,-32.71484375,0.0
1740794776.0022073,-33.69140625,-29.78515625,-37.109375,-30.76171875,0.0
1740794776.006113,-40.0390625,-18.06640625,-41.9921875,-35.64453125,0.0
1740794776.0100188,-46.38671875,-28.3203125,-51.7578125,-40.52734375,0.0
1740794776.0139246,-53.7109375,-28.80859375,-49.8046875,-50.78125,0.0
1740794776.0178304,-53.22265625,-28.80859375,-46.38671875,-43.45703125,0.0
1740794776.0217361,-41.9921875,-28.3203125,-48.33984375,-40.0390625,0.0
1740794776.025648,-49.8046875,-33.203125,-45.8984375,-45.8984375,0.0
1740794776.029554,-60.546875,-34.66796875,-41.015625,-36.1328125,0.0
1740794776.03346,-51.26953125,-23.4375,-48.33984375,-33.203125,0.0
1740794776.0373657,-49.31640625,-27.34375,-53.22265625,-41.015625,0.0
1740794776.0412714,-51.26953125,-23.4375,-36.1328125,-39.55078125,0.0
1740794776.0451772,-48.33984375,-35.15625,-33.203125,-34.1796875,0.0
1740794776.049083,-49.31640625,-41.50390625,-36.62109375,-26.85546875,0.0
1740794776.0529888,-39.55078125,-38.57421875,-30.2734375,-24.90234375,0.0
1740794776.0568945,-47.8515625,-53.22265625,-37.109375,-31.73828125,0.0
1740794776.0608003,-41.50390625,-37.109375,-35.64453125,-26.85546875,0.0
1740794776.064706,-13.671875,-28.3203125,-27.34375,-24.4140625,0.0
1740794776.068612,-10.7421875,-31.73828125,-36.62109375,-31.73828125,0.0
1740794776.0725236,-7.8125,-34.1796875,-41.50390625,-26.85546875,0.0
1740794776.0764294,-11.23046875,-38.0859375,-34.66796875,-25.390625,0.0
1740794776.0803351,-20.5078125,-41.015625,-34.1796875,-31.25,0.0
1740794776.084241,-10.7421875,-39.0625,-34.66796875,-22.4609375,0.0
1740794776.088147,-5.37109375,-27.83203125,-33.203125,-18.06640625,0.0
1740794776.0920527,-20.5078125,-27.83203125,-32.71484375,-12.6953125,0.0
1740794776.0959585,-8.7890625,-36.1328125,-21.97265625,-7.8125,0.0
1740794776.0998642,6.34765625,-23.92578125,-21.97265625,-15.13671875,0.0
1740794776.10377,4.39453125,-18.5546875,-23.4375,-22.94921875,0.0
1740794776.1076758,-23.4375,-29.296875,-19.53125,-31.25,0.0
1740794776.1115816,-42.48046875,-21.484375,-19.53125,-31.25,0.0
1740794776.1154873,-47.36328125,-32.2265625,-18.5546875,-26.85546875,0.0
1740794776.1193986,-44.921875,-50.78125,-24.90234375,-31.73828125,0.0
1740794776.1233044,-23.4375,-47.8515625,-27.34375,-35.64453125,0.0
1740794776.1272101,-40.52734375,-39.55078125,-26.85546875,-29.78515625,0.0
1740794776.131116,-58.59375,-30.76171875,-35.15625,-36.62109375,0.0
1740794776.1350217,-46.875,-27.34375,-38.57421875,-41.9921875,0.0
1740794776.1389277,-32.71484375,-41.9921875,-35.64453125,-32.2265625,0.0
1740794776.1428335,-43.9453125,-39.55078125,-37.59765625,-33.203125,0.0
1740794776.1467392,-40.52734375,-22.4609375,-40.52734375,-41.50390625,0.0
1740794776.150645,-39.55078125,-15.13671875,-36.62109375,-44.43359375,0.0
1740794776.1545508,-56.15234375,-34.1796875,-32.2265625,-53.7109375,0.0
1740794776.1584566,-34.1796875,-29.296875,-34.66796875,-62.01171875,0.0
1740794776.1623623,-35.15625,-14.6484375,-33.203125,-48.828125,0.0
1740794776.1662734,-54.19921875,-30.2734375,-30.2734375,-51.7578125,0.0
1740794776.1701791,-41.9921875,-23.4375,-35.15625,-49.8046875,0.0
1740794776.174085,-50.29296875,-20.01953125,-43.45703125,-54.6875,0.0
1740794776.1779907,-75.68359375,-33.69140625,-46.875,-62.01171875,0.0
1740794776.1818964,-56.15234375,-35.64453125,-46.875,-52.734375,0.0
1740794776.1858022,-43.45703125,-34.66796875,-47.36328125,-57.12890625,0.0
1740794776.189708,-68.359375,-37.109375,-46.875,-69.82421875,0.0
1740794776.1936138,-73.73046875,-42.48046875,-46.875,-57.12890625,0.0
1740794776.1975195,-50.29296875,-37.109375,-50.78125,-49.8046875,0.0
1740794776.2014256,-64.94140625,-27.34375,-48.33984375,-59.08203125,0.0
1740794776.2053313,-62.01171875,-39.0625,-40.52734375,-46.38671875,0.0
1740794776.209237,-24.4140625,-46.38671875,-41.50390625,-37.59765625,0.0
1740794776.2131474,-26.85546875,-31.73828125,-39.0625,-30.76171875,0.0
1740794776.2170532,-33.203125,-33.203125,-36.62109375,-15.625,0.0
1740794776.2209592,-51.26953125,-42.96875,-40.52734375,-36.62109375,0.0
1740794776.224865,-41.50390625,-24.4140625,-39.0625,-39.0625,0.0
1740794776.2287707,-25.390625,-24.4140625,-34.66796875,-27.83203125,0.0
1740794776.2326765,-17.578125,-42.48046875,-33.203125,-30.2734375,0.0
1740794776.2365823,-34.1796875,-36.62109375,-26.85546875,-39.0625,0.0
1740794776.240488,-30.76171875,-31.25,-22.94921875,-41.015625,0.0
1740794776.2443938,-33.69140625,-10.7421875,-29.78515625,-48.33984375,0.0
1740794776.2482996,-85.9375,17.08984375,-44.43359375,-87.40234375,0.0
1740794776.2522056,-21.97265625,-11.23046875,-35.15625,-24.90234375,0.0
1740794776.2561114,20.01953125,-46.38671875,-24.90234375,22.4609375,0.0
1740794776.2600245,-19.04296875,-33.203125,-34.66796875,-22.4609375,0.0
1740794776.2639303,-33.69140625,-41.50390625,-31.25,-29.78515625,0.0
1740794776.267836,-52.24609375,-56.15234375,-31.25,-19.53125,0.0
1740794776.271742,-63.96484375,-1.46484375,-31.25,-35.15625,0.0
1740794776.2756479,-65.91796875,-16.11328125,-4.39453125,-54.6875,0.0
1740794776.2795537,-101.07421875,-66.40625,-3.41796875,-67.87109375,0.0
1740794776.2834594,-80.078125,3.90625,-34.1796875,-43.9453125,0.0
1740794776.2873652,-46.875,-31.73828125,-32.71484375,-35.64453125,0.0
1740794776.291271,-120.60546875,0.9765625,-33.203125,-57.6171875,0.0
1740794776.2951767,-83.0078125,2.9296875,-29.78515625,-38.57421875,0.0
1740794776.2990825,-38.0859375,-10.25390625,-36.1328125,-44.921875,0.0
1740794776.3029885,-62.01171875,0.9765625,-29.78515625,-27.83203125,0.0
1740794776.3069012,-154.78515625,40.0390625,-50.78125,-57.6171875,0.0
1740794776.310807,-71.2890625,-6.8359375,-55.6640625,-23.4375,0.0
1740794776.3147128,-18.06640625,-51.26953125,-32.2265625,0.48828125,0.0
1740794776.3186185,-141.11328125,15.13671875,-20.01953125,-86.42578125,0.0
1740794776.3225243,-150.87890625,-27.34375,-21.97265625,-86.9140625,0.0
1740794776.32643,-60.546875,-68.359375,-36.62109375,-87.40234375,0.0
1740794776.3303359,-73.73046875,-4.39453125,-27.34375,-181.640625,0.0
1740794776.3342416,-136.71875,-66.89453125,-34.66796875,-66.40625,0.0
1740794776.3381476,-85.9375,-80.078125,-7.8125,43.45703125,0.0
1740794776.3420534,-96.6796875,35.15625,-39.55078125,-93.75,0.0
1740794776.3459592,7.32421875,-24.90234375,-86.42578125,-31.73828125,0.0
1740794776.349865,65.4296875,-29.296875,3.90625,-53.22265625,0.0
1740794776.3537772,-108.3984375,-35.64453125,35.15625,-136.71875,0.0
1740794776.3576832,-146.97265625,-28.3203125,-14.6484375,-99.609375,0.0
1740794776.361589,-147.4609375,-28.3203125,-38.57421875,-63.4765625,0.0
1740794776.3654947,-28.80859375,-103.515625,-30.76171875,-37.109375,0.0
1740794776.3694005,82.51953125,-35.15625,-70.80078125,-39.55078125,0.0
1740794776.3733063,0.9765625,-11.71875,-63.4765625,-5.37109375,0.0
1740794776.377212,-62.5,-59.5703125,24.90234375,-67.87109375,0.0
1740794776.3811178,-35.64453125,-36.1328125,-26.3671875,-123.53515625,0.0
1740794776.3850236,22.94921875,-60.546875,-48.33984375,-1.46484375,0.0
1740794776.3889294,14.16015625,-39.55078125,-20.5078125,62.01171875,0.0
1740794776.3928354,-16.11328125,-32.71484375,-24.90234375,-25.87890625,0.0
1740794776.3967412,-60.546875,-7.32421875,-24.90234375,-38.0859375,0.0
1740794776.4006531,-148.4375,-0.48828125,-43.9453125,-31.73828125,0.0
1740794776.404559,-57.6171875,-7.32421875,-13.18359375,-83.49609375,0.0
1740794776.4084647,83.0078125,-30.76171875,9.27734375,26.3671875,0.0
1740794776.4123704,1.46484375,-88.8671875,-26.85546875,18.06640625,0.0
1740794776.4162765,-37.59765625,-73.2421875,-20.99609375,-126.46484375,0.0
1740794776.4201822,-10.7421875,-65.91796875,-44.43359375,7.8125,0.0
1740794776.424088,63.96484375,4.39453125,-89.84375,138.18359375,0.0
1740794776.4279938,66.40625,-11.71875,-66.89453125,62.01171875,0.0
1740794776.4318995,-33.203125,-89.35546875,-17.08984375,-84.47265625,0.0
1740794776.4358053,-118.1640625,-29.78515625,-3.41796875,-49.31640625,0.0
1740794776.439711,-72.75390625,-28.3203125,-25.87890625,59.08203125,0.0
1740794776.4436169,96.6796875,-31.73828125,-56.15234375,97.16796875,0.0
1740794776.4475286,36.62109375,-35.64453125,-33.203125,42.48046875,0.0
1740794776.4514344,-171.875,-53.7109375,26.3671875,-104.00390625,0.0
1740794776.4553401,-124.0234375,-30.2734375,-7.32421875,-109.86328125,0.0
1740794776.459246,-76.66015625,-14.16015625,-93.75,-126.953125,0.0
1740794776.4631517,56.15234375,-56.640625,-64.94140625,31.25,0.0
1740794776.4670575,139.16015625,-42.96875,-38.0859375,168.9453125,0.0
1740794776.4709632,-77.1484375,-10.7421875,-40.52734375,-27.34375,0.0
1740794776.474869,-118.1640625,-24.4140625,-9.765625,-68.84765625,0.0
1740794776.478775,-59.5703125,9.765625,-65.4296875,20.01953125,0.0
1740794776.4826808,-80.078125,-25.87890625,-35.15625,-20.99609375,0.0
1740794776.4865866,-8.30078125,-78.125,30.2734375,-69.82421875,0.0
1740794776.4904923,15.625,-56.640625,-24.90234375,36.1328125,0.0
1740794776.4944036,36.1328125,-61.5234375,-59.08203125,6.8359375,0.0
1740794776.4983094,55.17578125,-45.41015625,-45.41015625,-103.02734375,0.0
1740794776.5022151,-66.40625,16.6015625,-44.43359375,-83.984375,0.0
1740794776.506121,-216.796875,39.0625,-53.7109375,-37.109375,0.0
1740794776.5100267,-21.97265625,-72.265625,-14.16015625,-10.7421875,0.0
1740794776.5139325,64.94140625,-71.2890625,-33.203125,48.828125,0.0
1740794776.5178382,-25.87890625,-43.9453125,-53.22265625,18.5546875,0.0
1740794776.5217443,17.08984375,-47.8515625,-46.875,43.9453125,0.0
1740794776.52565,-9.27734375,-8.30078125,-44.921875,73.2421875,0.0
1740794776.5295558,-2.44140625,-45.8984375,-18.5546875,8.7890625,0.0
1740794776.5334616,-5.37109375,-56.15234375,-18.5546875,-18.5546875,0.0
1740794776.5373673,26.85546875,5.37109375,-64.94140625,-25.87890625,0.0
1740794776.5412781,-51.7578125,7.32421875,-52.24609375,-17.578125,0.0
1740794776.545184,-188.96484375,-68.84765625,-5.859375,-32.71484375,0.0
1740794776.5490897,-37.109375,-118.1640625,-2.44140625,2.44140625,0.0
1740794776.5529957,86.9140625,-83.0078125,-15.625,-49.8046875,0.0
1740794776.5569015,32.71484375,-13.18359375,-33.203125,-43.9453125,0.0
1740794776.5608072,-95.703125,-4.39453125,-39.55078125,38.0859375,0.0
1740794776.564713,-91.30859375,-33.69140625,-12.6953125,19.53125,0.0
1740794776.5686188,13.18359375,-12.20703125,-26.3671875,-42.48046875,0.0
1740794776.5725245,-24.4140625,27.34375,-33.69140625,-107.91015625,0.0
1740794776.5764303,-70.80078125,-65.4296875,-0.9765625,-44.43359375,0.0
1740794776.580336,-61.03515625,-113.76953125,-17.578125,44.43359375,0.0
1740794776.584242,-20.99609375,-66.40625,-36.62109375,5.859375,0.0
1740794776.5881526,-68.359375,-56.640625,-30.2734375,-151.85546875,0.0
1740794776.5920584,-70.3125,-9.765625,-33.69140625,-77.1484375,0.0
1740794776.5959642,39.55078125,-20.5078125,-36.1328125,51.7578125,0.0
1740794776.59987,45.8984375,-65.91796875,-50.78125,-5.37109375,0.0
1740794776.6037757,-79.1015625,-21.97265625,-21.484375,-10.7421875,0.0
1740794776.6076815,20.5078125,-60.546875,-24.90234375,-24.90234375,0.0
1740794776.6115873,-18.5546875,-90.8203125,-67.87109375,-47.8515625,0.0
1740794776.6154933,-65.91796875,-47.8515625,-21.484375,-12.6953125,0.0
1740794776.619399,-32.2265625,-25.390625,-24.4140625,-37.59765625,0.0
1740794776.6233048,-87.40234375,-3.90625,-49.31640625,-27.83203125,0.0
1740794776.6272106,-170.41015625,-18.5546875,-25.390625,-55.17578125,0.0
1740794776.6311164,-93.75,-17.08984375,-59.5703125,-42.96875,0.0
1740794776.6350298,0.0,-7.8125,-38.0859375,-35.15625,0.0
1740794776.6389358,0.0,-66.40625,18.06640625,-122.0703125,0.0
1740794776.6428416,0.0,-86.42578125,-11.71875,-109.375,0.0
1740794776.6467474,0.0,-20.01953125,-22.4609375,-49.8046875,0.0
1740794776.6506531,0.0,-1.46484375,-54.6875,-2.9296875,0.0
1740794776.654559,0.0,-44.43359375,-51.26953125,-22.94921875,0.0
1740794776.6584647,0.0,-58.10546875,-30.76171875,-15.625,0.0
1740794776.6623704,0.0,-19.04296875,-55.6640625,-41.015625,0.0
1740794776.6662762,0.0,-18.06640625,-28.3203125,-71.77734375,0.0
1740794776.670182,0.0,-48.828125,-29.296875,-34.66796875,0.0
1740794776.674088,0.0,-48.828125,-16.6015625,-83.984375,0.0
1740794776.6779938,0.0,-62.98828125,-24.90234375,-53.7109375,0.0
1740794776.6819065,-95.21484375,-28.3203125,-64.453125,-115.234375,0.0
1740794776.6858122,-109.86328125,-31.25,-43.45703125,-142.578125,0.0
1740794776.689718,-7.32421875,-42.96875,8.30078125,-51.7578125,0.0
1740794776.6936238,40.0390625,-31.25,-1.953125,0.9765625,0.0
1740794776.6975296,38.0859375,-59.5703125,-23.92578125,31.25,0.0
1740794776.7014353,41.015625,-1.46484375,-59.08203125,-47.36328125,0.0
1740794776.7053413,-40.52734375,55.17578125,-66.40625,-14.16015625,0.0
1740794776.709247,-64.94140625,-20.99609375,-37.109375,-18.06640625,0.0
1740794776.713153,-97.65625,-63.4765625,-22.4609375,-22.94921875,0.0
1740794776.7170587,-35.64453125,-46.875,-6.8359375,-18.06640625,0.0
1740794776.7209644,0.9765625,2.9296875,-41.50390625,-112.3046875,0.0
1740794776.7248702,-20.5078125,-21.97265625,-64.453125,-109.86328125,0.0
1740794776.7287827,36.1328125,-86.42578125,-17.08984375,57.12890625,0.0
1740794776.7326884,-13.18359375,-34.1796875,-28.80859375,112.3046875,0.0
1740794776.7365942,-117.67578125,3.41796875,-42.96875,-50.29296875,0.0
1740794776.7405,-128.90625,-40.0390625,-0.9765625,-237.3046875,0.0
1740794776.7444057,-102.05078125,-66.40625,-39.0625,-181.640625,0.0
1740794776.7483115,-34.1796875,-33.203125,-47.36328125,37.59765625,0.0
1740794776.7522175,63.4765625,-17.578125,-45.41015625,73.2421875,0.0
1740794776.7561233,60.546875,-62.5,-32.2265625,36.1328125,0.0
1740794776.760029,-25.390625,-22.94921875,-12.20703125,-1.953125,0.0
1740794776.7639349,-142.08984375,-14.16015625,-55.6640625,-80.078125,0.0
1740794776.7678406,-57.6171875,-37.59765625,-52.24609375,-25.87890625,0.0
1740794776.7717464,72.265625,-25.390625,-23.4375,-50.29296875,0.0
1740794776.7756584,7.32421875,-31.73828125,-60.546875,9.765625,0.0
1740794776.7795641,-11.23046875,-18.06640625,-54.19921875,72.265625,0.0
1740794776.78347,-27.34375,-46.38671875,-7.8125,45.8984375,0.0
1740794776.787376,-51.26953125,-52.734375,-12.20703125,35.15625,0.0
1740794776.7912817,35.64453125,-30.76171875,-34.66796875,-9.765625,0.0
1740794776.7951875,33.69140625,-12.6953125,-57.12890625,-2.9296875,0.0
1740794776.7990932,-23.92578125,-30.2734375,-64.94140625,-42.48046875,0.0
1740794776.802999,-58.10546875,-25.390625,-44.921875,12.20703125,0.0
1740794776.8069048,-84.9609375,-25.87890625,-39.0625,-37.109375,0.0
1740794776.8108106,-90.8203125,-45.41015625,-23.4375,-46.38671875,0.0
1740794776.8147163,-98.14453125,-66.40625,-28.3203125,-0.9765625,0.0
1740794776.8186224,-23.4375,-37.109375,-65.91796875,57.6171875,0.0
1740794776.8225338,-3.90625,-56.15234375,22.94921875,-20.99609375,0.0
1740794776.8264399,-64.453125,-82.03125,30.76171875,-114.74609375,0.0
1740794776.8303456,-38.57421875,10.25390625,-64.94140625,18.06640625,0.0
1740794776.8342514,-37.59765625,-5.859375,-62.5,53.7109375,0.0
1740794776.8381572,-23.92578125,-62.01171875,-33.69140625,-71.2890625,0.0
1740794776.842063,8.30078125,-30.2734375,-17.08984375,-37.59765625,0.0
1740794776.8459687,-16.6015625,-11.23046875,-30.76171875,-22.94921875,0.0
1740794776.8498745,-40.0390625,-46.38671875,-21.484375,-76.66015625,0.0
1740794776.8537803,-6.34765625,-39.55078125,-18.5546875,121.58203125,0.0
1740794776.8576863,13.18359375,2.9296875,-77.63671875,83.984375,0.0
1740794776.861592,-31.25,-15.13671875,-27.34375,-59.08203125,0.0
1740794776.8654978,-108.3984375,-48.33984375,10.25390625,-54.6875,0.0
1740794776.8694088,-61.5234375,-59.5703125,-31.73828125,-77.1484375,0.0
1740794776.8733149,44.921875,-53.22265625,-29.296875,-58.10546875,0.0
1740794776.8772206,2.44140625,-31.73828125,-51.26953125,51.26953125,0.0
1740794776.8811264,-24.90234375,15.13671875,-28.80859375,17.578125,0.0
1740794776.8850322,-52.24609375,0.0,-3.41796875,-181.15234375,0.0
1740794776.888938,-42.48046875,-30.76171875,-62.5,-78.61328125,0.0
1740794776.8928437,-40.52734375,-59.08203125,-56.640625,96.19140625,0.0
1740794776.8967495,-27.34375,-28.3203125,-45.8984375,-51.26953125,0.0
1740794776.9006553,-37.109375,3.90625,-50.29296875,-139.6484375,0.0
1740794776.904561,-93.75,-17.578125,-32.71484375,-51.7578125,0.0
1740794776.908467,-86.9140625,-23.92578125,-64.94140625,-57.12890625,0.0
1740794776.9123728,-51.26953125,-42.96875,-34.1796875,-70.80078125,0.0
1740794776.9162836,-10.7421875,-79.58984375,-15.625,-64.94140625,0.0
1740794776.9201894,-0.48828125,-51.7578125,-27.83203125,1.953125,0.0
1740794776.9240952,-0.48828125,-23.92578125,-24.4140625,46.38671875,0.0
1740794776.9280012,-62.98828125,1.953125,-45.8984375,-60.05859375,0.0
1740794776.931907,-116.69921875,-1.953125,-40.0390625,-104.4921875,0.0
1740794776.9358127,-22.4609375,-81.54296875,-20.99609375,-87.890625,0.0
1740794776.9397185,-18.06640625,11.71875,-48.828125,-34.66796875,0.0
1740794776.9436243,-26.85546875,10.7421875,-55.17578125,-2.44140625,0.0
1740794776.94753,-65.91796875,-101.07421875,-15.625,-115.234375,0.0
1740794776.9514358,-102.5390625,-19.53125,-46.875,-77.63671875,0.0
1740794776.9553416,-17.578125,-14.16015625,-84.47265625,29.296875,0.0
1740794776.9592476,-11.71875,-33.203125,-41.50390625,6.34765625,0.0
1740794776.9631581,-93.75,-12.6953125,-31.25,-105.95703125,0.0
1740794776.967064,-72.75390625,-31.73828125,-30.2734375,-160.15625,0.0
1740794776.9709697,-19.53125,-20.5078125,-36.62109375,-25.87890625,0.0
1740794776.9748755,33.69140625,-19.53125,-56.640625,39.55078125,0.0
1740794776.9787812,-53.22265625,-24.90234375,-61.03515625,-30.2734375,0.0
1740794776.982687,-111.81640625,-45.8984375,-9.765625,-103.02734375,0.0
1740794776.986593,-19.04296875,-60.05859375,-26.3671875,-102.5390625,0.0
1740794776.9904988,-40.52734375,-21.97265625,-53.22265625,-106.93359375,0.0
1740794776.9944046,11.23046875,-31.25,-37.59765625,-31.25,0.0
1740794776.9983103,30.2734375,-66.89453125,-50.78125,33.203125,0.0
1740794777.002216,-41.015625,-76.171875,-37.109375,-9.27734375,0.0
1740794777.0061219,-54.6875,-15.625,-62.98828125,-46.38671875,0.0
1740794777.0100353,-96.6796875,-11.71875,-35.64453125,-98.6328125,0.0
1740794777.013941,5.37109375,-61.03515625,-35.64453125,-70.3125,0.0
1740794777.0178468,49.31640625,-35.15625,-48.828125,-28.80859375,0.0
1740794777.0217526,-65.91796875,14.6484375,-71.2890625,-28.80859375,0.0
1740794777.0256584,-128.41796875,5.859375,-59.08203125,-68.359375,0.0
1740794777.0295641,-5.37109375,-38.0859375,-53.7109375,-45.41015625,0.0
1740794777.03347,-44.921875,-71.77734375,-36.62109375,-21.484375,0.0
1740794777.037376,-142.08984375,-54.19921875,-33.203125,-84.47265625,0.0
1740794777.0412817,-142.08984375,-11.23046875,-46.38671875,-62.98828125,0.0
1740794777.0451875,-95.21484375,-82.51953125,-24.4140625,-61.5234375,0.0
1740794777.0490932,12.20703125,-32.71484375,-62.01171875,-37.59765625,0.0
1740794777.052999,-2.44140625,22.94921875,-45.8984375,-56.15234375,0.0
1740794777.0569117,-113.76953125,-49.8046875,-53.7109375,-65.4296875,0.0
1740794777.0608175,-113.28125,-50.29296875,-78.61328125,24.90234375,0.0
1740794777.0647235,33.69140625,-47.8515625,-47.36328125,26.85546875,0.0
1740794777.0686293,56.15234375,-29.296875,-20.01953125,-36.1328125,0.0
1740794777.072535,-42.96875,30.2734375,-25.87890625,-70.3125,0.0
1740794777.0764408,-127.44140625,7.8125,-33.69140625,-54.6875,0.0
1740794777.0803466,1.46484375,-27.34375,-61.03515625,-64.94140625,0.0
1740794777.0842524,19.53125,-58.59375,-36.62109375,-41.015625,0.0
1740794777.0881581,-107.421875,-15.625,-33.69140625,-44.43359375,0.0
1740794777.092064,-90.33203125,34.66796875,-69.3359375,17.08984375,0.0
1740794777.09597,-139.16015625,12.6953125,-50.29296875,-23.92578125,0.0
1740794777.0998757,-133.30078125,63.4765625,-53.7109375,-163.0859375,0.0
1740794777.103788,-41.015625,-67.3828125,-7.32421875,-149.90234375,0.0
1740794777.1076937,30.2734375,-116.69921875,-23.92578125,-44.43359375,0.0
1740794777.1115994,20.5078125,40.0390625,-85.9375,-44.921875,0.0
1740794777.1155055,-73.73046875,0.48828125,-43.9453125,-97.16796875,0.0
1740794777.1194112,-59.08203125,-74.21875,-50.78125,-116.69921875,0.0
1740794777.123317,-6.8359375,-8.7890625,-88.37890625,-57.6171875,0.0
1740794777.1272228,14.16015625,-26.3671875,-60.05859375,30.2734375,0.0
1740794777.1311285,-6.34765625,-88.8671875,-43.45703125,-34.1796875,0.0
1740794777.1350343,-70.80078125,-18.06640625,-68.359375,-68.359375,0.0
1740794777.13894,-112.3046875,-11.23046875,-57.6171875,-48.828125,0.0
1740794777.1428459,-172.8515625,-62.5,-44.921875,-98.6328125,0.0
1740794777.1467516,20.5078125,-5.37109375,-46.38671875,-77.63671875,0.0
1740794777.1506639,47.36328125,-32.71484375,-28.80859375,0.0,0.0
1740794777.1545696,-173.828125,-68.359375,-32.2265625,-52.734375,0.0
1740794777.1584754,-34.66796875,10.25390625,-44.921875,-62.01171875,0.0
1740794777.1623814,-37.59765625,-42.48046875,-38.57421875,-41.015625,0.0
1740794777.1662872,-128.41796875,-82.03125,-17.578125,-35.15625,0.0
1740794777.170193,66.40625,-58.10546875,-32.71484375,56.15234375,0.0
1740794777.1740987,45.41015625,-54.19921875,-51.7578125,30.2734375,0.0
1740794777.1780045,-35.15625,-4.39453125,-47.36328125,-53.7109375,0.0
1740794777.1819103,-31.73828125,-74.70703125,-22.4609375,-20.01953125,0.0
1740794777.185816,-82.03125,-44.43359375,-27.34375,-74.70703125,0.0
1740794777.1897218,65.91796875,-60.05859375,-53.22265625,-47.8515625,0.0
1740794777.1936278,-19.04296875,-73.2421875,-26.85546875,3.90625,0.0
1740794777.1975393,-65.91796875,-56.640625,-33.203125,6.8359375,0.0
1740794777.201445,0.0,-3.41796875,-67.87109375,-43.45703125,0.0
1740794777.2053509,9.765625,-12.6953125,-53.7109375,-18.5546875,0.0
1740794777.2092566,-21.97265625,-16.11328125,-32.2265625,-92.7734375,0.0
1740794777.2131624,-72.265625,-57.6171875,-56.640625,-73.73046875,0.0
1740794777.2170682,-68.84765625,-43.9453125,-45.41015625,-13.18359375,0.0
1740794777.220974,-51.7578125,2.9296875,-36.1328125,-29.296875,0.0
1740794777.22488,29.296875,-87.890625,-21.97265625,16.11328125,0.0
1740794777.2287858,25.390625,6.34765625,-36.1328125,-62.98828125,0.0
1740794777.2326915,-83.0078125,106.4453125,-62.5,-36.62109375,0.0
1740794777.2365973,-68.84765625,-34.1796875,-20.01953125,-25.390625,0.0
1740794777.240503,3.41796875,-84.9609375,-46.38671875,24.90234375,0.0
1740794777.2444143,-44.43359375,-26.3671875,-20.99609375,-36.1328125,0.0
1740794777.24832,-26.3671875,-51.26953125,1.953125,-64.94140625,0.0
1740794777.252226,-5.859375,-12.6953125,-79.58984375,4.39453125,0.0
1740794777.256132,-52.734375,-2.44140625,-32.71484375,-94.7265625,0.0
1740794777.2600377,-34.1796875,-43.45703125,-31.73828125,-111.328125,0.0
1740794777.2639434,-24.4140625,-8.30078125,-83.0078125,-31.25,0.0
1740794777.2678492,-36.62109375,-57.12890625,-29.78515625,-29.78515625,0.0
1740794777.271755,-31.73828125,-72.265625,-17.08984375,-16.11328125,0.0
1740794777.2756608,-49.8046875,-40.52734375,-35.15625,-5.859375,0.0
1740794777.2795665,-67.87109375,-64.94140625,-4.39453125,-26.85546875,0.0
1740794777.2834725,-83.49609375,-16.11328125,-37.59765625,-28.3203125,0.0
1740794777.2873783,-15.13671875,44.43359375,-80.078125,-59.08203125,0.0
1740794777.291289,-32.71484375,-57.6171875,-33.203125,-100.5859375,0.0
1740794777.2951949,-73.73046875,-79.58984375,-7.32421875,-95.703125,0.0
1740794777.2991006,-25.390625,-2.44140625,-61.5234375,-41.015625,0.0
1740794777.3030064,-30.76171875,-35.64453125,-58.10546875,3.41796875,0.0
1740794777.3069122,29.296875,-83.0078125,-24.90234375,52.24609375,0.0
1740794777.310818,22.4609375,-57.6171875,-33.203125,-2.9296875,0.0
1740794777.314724,-67.3828125,-41.015625,-9.765625,-30.2734375,0.0
1740794777.3186297,-9.765625,-25.390625,-16.11328125,36.1328125,0.0
1740794777.3225355,-0.9765625,-43.9453125,-38.0859375,-21.97265625,0.0
1740794777.3264413,-88.37890625,-65.4296875,-7.32421875,-72.75390625,0.0
1740794777.330347,-40.0390625,6.8359375,-22.4609375,-34.1796875,0.0
1740794777.3342528,48.828125,-25.87890625,-29.78515625,-3.41796875,0.0
1740794777.3381636,36.62109375,-99.12109375,-15.13671875,15.625,0.0
1740794777.3420694,34.1796875,-16.6015625,-35.15625,41.50390625,0.0
1740794777.3459752,19.04296875,-37.109375,-36.1328125,-1.953125,0.0
1740794777.349881,15.625,-20.01953125,-22.4609375,-49.8046875,0.0
1740794777.3537867,7.8125,-0.9765625,-31.73828125,-24.90234375,0.0
1740794777.3576925,31.25,-62.98828125,-51.7578125,-29.78515625,0.0
1740794777.3615985,49.8046875,-48.828125,-51.26953125,-13.18359375,0.0
1740794777.3655043,11.71875,-45.41015625,-43.45703125,2.44140625,0.0
1740794777.36941,18.5546875,-31.73828125,-49.31640625,-1.46484375,0.0
1740794777.3733158,-15.625,-16.6015625,-39.55078125,14.16015625,0.0
1740794777.3772216,-62.01171875,-18.5546875,-40.52734375,3.41796875,0.0
1740794777.3811274,-44.43359375,-39.55078125,-39.0625,-21.484375,0.0
1740794777.3850405,-24.90234375,-36.62109375,-30.2734375,-11.71875,0.0
1740794777.3889463,-24.90234375,-25.390625,-37.109375,-5.859375,0.0
1740794777.3928523,-41.015625,-25.87890625,-33.69140625,-15.625,0.0
1740794777.396758,-46.875,-26.85546875,-36.62109375,-29.296875,0.0
1740794777.4006639,-42.48046875,-32.2265625,-31.73828125,-43.9453125,0.0
1740794777.4045696,-45.8984375,-29.296875,-29.78515625,-45.8984375,0.0
1740794777.4084754,-44.921875,-23.4375,-37.109375,-38.57421875,0.0
1740794777.4123812,-60.05859375,-26.3671875,-48.33984375,-46.875,0.0
1740794777.416287,-56.15234375,-29.78515625,-47.36328125,-55.6640625,0.0
1740794777.4201927,-41.9921875,-21.97265625,-31.25,-45.8984375,0.0
1740794777.4240987,-55.6640625,-21.484375,-30.76171875,-51.26953125,0.0
1740794777.4280045,-66.89453125,-31.73828125,-37.109375,-70.80078125,0.0
1740794777.4319172,-63.96484375,-27.83203125,-37.59765625,-81.0546875,0.0
1740794777.435823,-57.6171875,-24.90234375,-32.71484375,-77.1484375,0.0
1740794777.4397287,-63.4765625,-32.2265625,-36.1328125,-82.03125,0.0
1740794777.4436347,-73.2421875,-34.66796875,-37.59765625,-75.68359375,0.0
1740794777.4475405,-65.91796875,-38.0859375,-34.66796875,-74.70703125,0.0
1740794777.4514463,-59.08203125,-39.0625,-28.3203125,-72.265625,0.0
1740794777.455352,-62.01171875,-31.73828125,-20.99609375,-66.40625,0.0
1740794777.4592578,-75.68359375,-31.73828125,-29.296875,-76.171875,0.0
1740794777.4631636,-78.61328125,-29.296875,-40.52734375,-84.47265625,0.0
1740794777.4670694,-65.91796875,-29.78515625,-39.55078125,-84.47265625,0.0
1740794777.4709752,-60.05859375,-39.55078125,-34.66796875,-83.49609375,0.0
1740794777.474881,-61.5234375,-28.3203125,-35.64453125,-81.54296875,0.0
1740794777.4787934,-64.94140625,-20.01953125,-35.15625,-75.68359375,0.0
1740794777.4826992,-56.15234375,-28.80859375,-35.64453125,-66.40625,0.0
1740794777.486605,-47.8515625,-26.3671875,-32.71484375,-63.4765625,0.0
1740794777.490511,-56.15234375,-26.3671875,-22.4609375,-57.12890625,0.0
1740794777.4944167,-56.640625,-23.92578125,-24.90234375,-51.7578125,0.0
1740794777.4983225,-53.22265625,-17.08984375,-27.34375,-58.10546875,0.0
1740794777.5022283,-52.734375,-17.578125,-31.25,-62.5,0.0
1740794777.506134,-54.19921875,-9.27734375,-33.203125,-59.5703125,0.0
1740794777.5100398,-57.6171875,-9.765625,-29.296875,-56.15234375,0.0
1740794777.5139456,-68.84765625,-15.13671875,-31.73828125,-58.59375,0.0
1740794777.5178514,-63.96484375,-19.53125,-41.9921875,-57.6171875,0.0
1740794777.5217574,-49.8046875,-23.4375,-40.52734375,-52.24609375,0.0
1740794777.5256693,-56.640625,-18.06640625,-33.69140625,-58.59375,0.0
1740794777.529575,-59.5703125,-10.7421875,-34.66796875,-52.734375,0.0
1740794777.533481,-41.50390625,-19.53125,-30.76171875,-40.0390625,0.0
1740794777.537387,-35.64453125,-21.484375,-32.71484375,-44.43359375,0.0
1740794777.5412927,-47.8515625,-15.625,-39.55078125,-54.6875,0.0
1740794777.5451984,-49.31640625,2.9296875,-24.90234375,-45.8984375,0.0
1740794777.5491042,-42.48046875,-2.9296875,-25.87890625,-49.8046875,0.0
1740794777.55301,-33.69140625,-14.6484375,-34.66796875,-53.22265625,0.0
1740794777.5569158,-47.8515625,-2.44140625,-36.1328125,-53.22265625,0.0
1740794777.5608215,-58.59375,5.859375,-29.78515625,-57.6171875,0.0
1740794777.5647273,-52.734375,3.41796875,-25.390625,-66.40625,0.0
1740794777.5686333,-56.15234375,-7.32421875,-35.15625,-67.3828125,0.0
1740794777.572545,0.0,-10.25390625,-40.52734375,-62.5,0.0
1740794777.5764508,0.0,-15.13671875,-46.875,-76.171875,0.0
1740794777.5803566,0.0,-19.04296875,-42.96875,-70.80078125,0.0
1740794777.5842624,0.0,-17.578125,-39.55078125,-64.94140625,0.0
1740794777.5881681,0.0,-20.5078125,-44.921875,-71.2890625,0.0
1740794777.5920742,0.0,-20.99609375,-41.50390625,-63.96484375,0.0
1740794777.59598,0.0,-20.5078125,-38.57421875,-66.40625,0.0
1740794777.5998857,0.0,-26.3671875,-45.41015625,-69.82421875,0.0
1740794777.6037915,0.0,-17.578125,-40.52734375,-65.91796875,0.0
1740794777.6076972,0.0,-10.7421875,-33.69140625,-62.5,0.0
1740794777.611603,0.0,-16.6015625,-40.0390625,-53.7109375,0.0
1740794777.6155088,0.0,-25.390625,-41.015625,-49.8046875,0.0
1740794777.61942,-56.640625,-29.78515625,-38.0859375,-49.8046875,0.0
1740794777.6233258,-66.40625,-29.296875,-36.1328125,-45.41015625,0.0
1740794777.6272316,-64.94140625,-38.57421875,-39.55078125,-43.45703125,0.0
1740794777.6311376,-59.5703125,-35.15625,-42.48046875,-47.8515625,0.0
1740794777.6350434,-47.8515625,-29.78515625,-37.59765625,-48.828125,0.0
1740794777.6389492,-42.48046875,-34.1796875,-40.0390625,-48.33984375,0.0
1740794777.642855,-37.59765625,-27.83203125,-39.0625,-43.45703125,0.0
1740794777.6467607,-36.1328125,-17.08984375,-51.26953125,-42.96875,0.0
1740794777.6506665,-33.203125,-20.99609375,-57.6171875,-45.41015625,0.0
1740794777.6545722,-38.57421875,-23.4375,-41.015625,-38.57421875,0.0
1740794777.658478,-50.78125,-20.99609375,-33.69140625,-43.45703125,0.0
1740794777.6623838,-47.36328125,-21.484375,-41.50390625,-55.17578125,0.0
1740794777.6662948,-41.50390625,-19.53125,-58.59375,-61.03515625,0.0
1740794777.6702006,-35.15625,-20.99609375,-53.7109375,-52.734375,0.0
1740794777.6741064,-37.109375,-22.94921875,-42.96875,-51.26953125,0.0
1740794777.6780121,-43.9453125,-21.484375,-43.45703125,-46.875,0.0
1740794777.6819181,-46.875,-22.4609375,-53.7109375,-36.1328125,0.0
1740794777.685824,-38.0859375,-24.90234375,-53.22265625,-35.15625,0.0
1740794777.6897297,-35.64453125,-24.4140625,-37.59765625,-30.76171875,0.0
1740794777.6936355,-40.0390625,-14.6484375,-30.2734375,-29.296875,0.0
1740794777.6975412,-36.1328125,-12.20703125,-37.59765625,-37.109375,0.0
1740794777.701447,-32.71484375,-13.671875,-48.33984375,-39.55078125,0.0
1740794777.7053528,-35.64453125,-4.8828125,-44.921875,-34.66796875,0.0
1740794777.7092586,-37.59765625,-8.7890625,-34.1796875,-33.203125,0.0
1740794777.7131693,-45.8984375,-19.04296875,-31.73828125,-38.0859375,0.0
1740794777.717075,-46.875,-22.94921875,-35.15625,-41.9921875,0.0
1740794777.720981,-42.96875,-28.80859375,-44.43359375,-52.24609375,0.0
1740794777.7248867,-50.29296875,-30.76171875,-47.8515625,-53.7109375,0.0
1740794777.7287924,-51.7578125,-24.90234375,-39.55078125,-47.8515625,0.0
1740794777.7326982,-48.33984375,-25.390625,-42.96875,-45.41015625,0.0
1740794777.736604,-45.8984375,-31.73828125,-52.24609375,-49.8046875,0.0
1740794777.7405097,-49.31640625,-33.203125,-44.921875,-57.12890625,0.0
1740794777.7444158,-50.78125,-23.92578125,-45.41015625,-49.8046875,0.0
1740794777.7483215,-35.15625,-26.85546875,-47.8515625,-41.50390625,0.0
1740794777.7522273,-17.08984375,-28.80859375,-42.48046875,-37.109375,0.0
1740794777.756133,-25.87890625,-23.92578125,-44.43359375,-43.45703125,0.0
1740794777.7600462,-44.921875,-28.3203125,-51.26953125,-47.36328125,0.0
1740794777.763952,-35.64453125,-40.0390625,-48.33984375,-44.921875,0.0
1740794777.7678578,-33.69140625,-35.64453125,-48.828125,-38.57421875,0.0
1740794777.7717636,-41.9921875,-36.62109375,-41.50390625,-30.76171875,0.0
1740794777.7756693,-43.9453125,-44.921875,-34.1796875,-31.73828125,0.0
1740794777.779575,-43.9453125,-34.1796875,-38.57421875,-34.66796875,0.0
1740794777.783481,-38.57421875,-35.15625,-40.52734375,-32.2265625,0.0
1740794777.787387,-39.55078125,-35.64453125,-43.9453125,-34.1796875,0.0
1740794777.7912927,-47.8515625,-33.203125,-49.8046875,-29.78515625,0.0
1740794777.7951984,-41.9921875,-36.1328125,-50.78125,-21.97265625,0.0
1740794777.7991042,-32.71484375,-32.71484375,-50.78125,-25.87890625,0.0
1740794777.80301,-40.0390625,-30.76171875,-48.33984375,-32.71484375,0.0
1740794777.8069227,-41.50390625,-43.9453125,-49.31640625,-30.2734375,0.0
1740794777.8108284,-35.64453125,-41.50390625,-45.8984375,-28.3203125,0.0
1740794777.8147342,-26.85546875,-34.66796875,-48.828125,-25.390625,0.0
1740794777.81864,-20.99609375,-43.9453125,-52.24609375,-26.3671875,0.0
1740794777.822546,-27.34375,-36.62109375,-45.8984375,-29.78515625,0.0
1740794777.8264518,-36.62109375,-29.296875,-43.9453125,-28.3203125,0.0
1740794777.8303576,-30.2734375,-33.69140625,-45.41015625,-27.83203125,0.0
1740794777.8342633,-17.578125,-28.80859375,-45.41015625,-34.66796875,0.0
1740794777.838169,-26.85546875,-30.2734375,-45.8984375,-29.78515625,0.0
1740794777.8420749,-47.36328125,-28.80859375,-52.24609375,-29.296875,0.0
1740794777.8459806,-44.43359375,-19.53125,-50.78125,-40.0390625,0.0
1740794777.8498864,-25.390625,-22.94921875,-54.6875,-41.50390625,0.0
1740794777.8537989,-16.6015625,-28.80859375,-59.5703125,-39.55078125,0.0
1740794777.8577046,-16.6015625,-23.4375,-48.33984375,-34.66796875,0.0
1740794777.8616104,-29.296875,-13.671875,-46.38671875,-34.66796875,0.0
1740794777.8655162,-30.76171875,-21.97265625,-52.24609375,-31.25,0.0
1740794777.8694222,-35.15625,-31.25,-43.45703125,-41.015625,0.0
