timestamps,TP9,AF7,AF8,TP10,Right AUX
1740447707.5669963,0.16052010511546855,-0.46002311502729243,0.31478065254612325,0.1909317732671549,nan
1740447707.570902,0.1482887810106869,-0.47357418436021986,0.2910930139968232,0.18993605579382275,nan
1740447707.574808,0.13403628014002256,-0.4851935980011319,0.2661286558513923,0.18727023040495447,nan
1740447707.5787137,0.11787273202410467,-0.4948345785201622,0.24012200793781935,0.18298172123415093,nan
1740447707.5826194,0.09993121063634011,-0.5024725599708603,0.2133192720264571,0.1771345382449772,nan
1740447707.5865252,0.08036633803595605,-0.5081048955937149,0.18597585153343216,0.16980835921587156,nan
1740447707.590431,0.05935265719431307,-0.511750335055434,0.15835367064407813,0.16109745345263485,nan
1740447707.594337,0.03708279148721881,-0.5134482812827029,0.13071841124428876,0.15110946069805156,nan
1740447707.5982428,0.013765410490188933,-0.5132578391419872,0.10333669697387103,0.1399640401478285,nan
1740447707.6021485,-0.010376976329495751,-0.5112566702500513,0.07647325433493445,0.1277914057504367,nan
1740447707.6060543,-0.03511037469947825,-0.5075396700539359,0.05038808109359245,0.11473076505336016,nan
1740447707.60996,-0.06019178459602627,-0.5022174849765942,0.025333652201498223,0.10092867974934364,nan
1740447707.6138685,-0.08537177722324081,-0.4954148888701183,0.0015521931348537286,0.08653736676526422,nan
1740447707.6177742,-0.11039714291582589,-0.48726903923961323,-0.020726950094149228,0.07171295921719029,nan
1740447707.62168,-0.1350135822812751,-0.47792763468683525,-0.041289815948576884,0.056613746824158366,nan
1740447707.6255858,-0.15896841249947943,-0.46754699576589376,-0.05994018034368602,0.04139841542865545,nan
1740447707.6294916,-0.18201326058758208,-0.45629009193834474,-0.07650173206535174,0.026224305114424546,nan
1740447707.6333973,-0.20390671561568446,-0.4443245375592433,-0.09082004690815686,0.01124570604486576,nan
1740447707.637303,-0.2244169123222328,-0.43182057981919314,-0.10276433886452391,-0.0033877894268182513,nan
1740447707.641209,-0.24332401932116096,-0.4189491013128747,-0.1122289689795392,-0.01753286059423767,nan
1740447707.6451147,-0.2604226061079187,-0.40587965940699683,-0.11913469497591143,-0.03105394135765301,nan
1740447707.6490204,-0.2755238643474719,-0.39277858384808506,-0.12342964742439157,-0.04382459661834738,nan
1740447707.6529262,-0.288457660450634,-0.37980715309293117,-0.12509002105943356,-0.05572877771763707,nan
1740447707.656832,-0.29907439819981896,-0.3671198686744274,-0.1241204727890749,-0.06666194397853367,nan
1740447707.6607432,-0.30724667215307006,-0.3548628455474944,-0.12055422099139344,-0.07653203898878244,nan
1740447707.664649,-0.3128706947158293,-0.3431723348103381,-0.11445284379643203,-0.08526031195998791,nan
1740447707.668555,-0.3158674821009934,-0.3321733934838026,-0.10590577718996756,-0.09278197628990179,nan
1740447707.6724608,-0.316183786875459,-0.32197871417596147,-0.09502951691171305,-0.09904669932403286,nan
1740447707.6763666,-0.3137927673903521,-0.3126876254816855,-0.08196653122315455,-0.10401891923808229,nan
1740447707.6802723,-0.3086943870858347,-0.304385271890115,-0.06688389465710919,-0.10767798692320028,nan
1740447707.684178,-0.3009155394224919,-0.29714197982015045,-0.04997165580091888,-0.11001813273055074,nan
1740447707.688084,-0.29050989699183094,-0.2910128141991967,-0.03144095497750073,-0.11104825989864708,nan
1740447707.6919897,-0.27755748616990467,-0.28603732776785135,-0.01152191034405782,-0.11079156842522084,nan
1740447707.6958954,-0.2621639914722853,-0.28223950305753026,0.009538706600478949,-0.1092850150340824,nan
1740447707.6998012,-0.2444597965172657,-0.27962788477354994,0.03147998284700316,-0.10657861670631473,nan
1740447707.703707,-0.2245987711796495,-0.27819589814696744,0.054029537767070056,-0.10273460697465531,nan
1740447707.7076142,-0.20275681709294577,-0.2779223467178878,0.07690633201090662,-0.0978264558015906,nan
1740447707.71152,-0.17913018610746279,-0.2787720810034567,0.09982358286179492,-0.09193776535832891,nan
1740447707.715426,-0.15393358861103296,-0.28069682760690096,0.12249175628715041,-0.0851610553773096,nan
1740447707.7193317,-0.12739811074520857,-0.2836361665596152,0.1446216050203948,-0.0775964529511096,nan
1740447707.7232375,-0.09976896148134212,-0.2875186430752505,0.1659272214142701,-0.06935030268264494,nan
1740447707.7271433,-0.07130307223901886,-0.29226299844962933,0.18612907353226377,-0.060533713944657036,nan
1740447707.731049,-0.04226657321671995,-0.29777950357819855,0.20495699299385492,-0.05126106267167863,nan
1740447707.7349548,-0.012932171846816113,-0.30397137749646364,0.22215308346167634,-0.0416484655779997,nan
1740447707.7388606,0.016423540228247782,-0.31073627248921576,0.23747451935126457,-0.031812244965878214,nan
1740447707.7427664,0.04552282454389416,-0.3179678066697825,0.25069620535069126,-0.02186740235656105,nan
1740447707.7466722,0.07408955000683207,-0.3255571245071927,0.2616132686483433,-0.011926119042154223,nan
1740447707.750578,0.10185193616933988,-0.33339446558066804,0.27004335737003055,-0.0020963013206229775,nan
1740447707.754485,0.12854525797306135,-0.34137072186859535,0.27582872060564145,0.0075198123570165325,nan
1740447707.7583907,0.1539144847421299,-0.34937896413184694,0.27883804754244285,0.0168269658229744,nan
1740447707.7622964,0.17771682687005128,-0.35731591842539934,0.2789680455956017,0.025738105616419163,nan
1740447707.7662022,0.199724164576101,-0.3650833744617735,0.27614474001317413,0.03417549288066429,nan
1740447707.770108,0.21972533429503585,-0.3725895084463402,0.27032448020672123,0.04207169346365982,nan
1740447707.774014,0.23752824969689007,-0.37975010409784865,0.26149464099237407,0.049370434344038025,nan
1740447707.7779198,0.25296183599640637,-0.3864896568446057,0.24967400999095363,0.05602731603050167,nan
1740447707.7818255,0.2658777580877664,-0.3927423476333712,0.2349128555990974,0.06201037222486372,nan
1740447707.7857313,0.2761519251103149,-0.39845287438755284,0.21729267317419196,0.0673004697804753,nan
1740447707.789637,0.28368575629417986,-0.40357713088584707,0.19692561034183695,0.07189154380943567,nan
1740447707.7935429,0.2884071953283916,-0.40808272468258106,0.17395357560241473,0.0757906646741383,nan
1740447707.7974486,0.290271463013966,-0.4119493276359357,0.14854703764998384,0.07901793552086157,nan
1740447707.8013585,0.28926154058539577,-0.4151688546284152,0.12090352598937992,0.08160622095464133,nan
1740447707.8052642,0.2853883787793481,-0.41774546813278596,0.09124584651359875,0.08360070939425625,nan
1740447707.80917,0.2786908304723703,-0.41969540837336067,0.059820028651995066,0.08505831356298406,nan
1740447707.8130758,0.26923530747231317,-0.42104665093361143,0.026893023490247542,0.08604691544375498,nan
1740447707.8169816,0.25711516480340396,-0.421838395743356,-0.0072498251332017444,0.08664446383621473,nan
1740447707.8208873,0.24244981854488895,-0.4221203934190421,-0.04230751215933261,0.08693793437804127,nan
1740447707.8247933,0.2253836059406753,-0.4219521169063516,-0.07796627892255152,0.08702216351486494,nan
1740447707.828699,0.20608439906590015,-0.4214017882633327,-0.11390266840859761,0.08699856940431376,nan
1740447707.832605,0.18474198579033993,-0.42054527220367505,-0.14978669810783657,0.08697377410352577,nan
1740447707.8365107,0.16156623409341703,-0.41946484967347886,-0.18528511910261333,0.08705814260063563,nan
1740447707.8404164,0.1367850579384238,-0.41824788624249165,-0.22006472902620824,0.08736425529569589,nan
1740447707.8443222,0.11064220488299598,-0.416985411435225,-0.25379570585265765,0.08800533140332652,nan
1740447707.8482316,0.08339488736928558,-0.41577062629336514,-0.28615492912905766,0.08909362142801541,nan
1740447707.8521376,0.055311281183345884,-0.41469735743510255,-0.31682925524925865,0.09073878734545246,nan
1740447707.8560433,0.026667915883552884,-0.4138584766480057,-0.34551871369150755,0.09304628940344264,nan
1740447707.859949,-0.0022530169403046493,-0.4133443056107935,-0.37193959180005765,0.09611579853002268,nan
1740447707.863855,-0.031166410912772495,-0.41324102567881515,-0.3958273766765443,0.10003965320264974,nan
1740447707.8677607,-0.05978702042274322,-0.4136291127836636,-0.4169395240522021,0.10490137929117571,nan
1740447707.8716664,-0.08783223701278534,-0.4145818173869812,-0.4350580256242663,0.11077429084159436,nan
1740447707.8755722,-0.11502483915287566,-0.4161637090923553,-0.44999174824431387,0.11772018902185528,nan
1740447707.879478,-0.14109568822735394,-0.41842930495989344,-0.4615785205242016,0.12578817551266938,nan
1740447707.8833838,-0.1657863441185407,-0.42142179979068467,-0.46968694485583273,0.1350135955039463,nan
1740447707.8872895,-0.1888515745900976,-0.4251719156602604,-0.4742179155005466,0.14541712416249478,nan
1740447707.8911953,-0.2100617337492836,-0.4296968867910541,-0.47510582626634895,0.15700400898178218,nan
1740447707.8951044,-0.22920498618911808,-0.4349995944755237,-0.4723194543285867,0.1697634788243263,nan
1740447707.8990102,-0.24608935496524456,-0.4410678652080534,-0.4658625099318329,0.18366832873822694,nan
1740447707.902916,-0.2605445733326847,-0.44787394347067616,-0.4557738450064766,0.19867468778871988,nan
1740447707.9068217,-0.27242372213645666,-0.45537414876278026,-0.4421273171098756,0.21472197521264305,nan
1740447707.9107275,-0.28160463689757403,-0.46350872448737634,-0.4250313085254984,0.23173304819818544,nan
1740447707.9146335,-0.28799107094050014,-0.4722018842267622,-0.404627903790052,0.24961454253500712,nan
1740447707.9185393,-0.2915136033466059,-0.4813620587803266,-0.3810917323337754,0.2682574052923852,nan
1740447707.922445,-0.2921302830660592,-0.49088234511933465,-0.35462848627864535,0.2875376165871713,nan
1740447707.9263508,-0.2898270031522654,-0.500641156161457,-0.3254731267093539,0.3073170954212577,nan
1740447707.9302566,-0.2846176017722254,-0.5105030680050997,-0.2938877948797246,0.327444782521905,nan
1740447707.9341624,-0.2765436893658612,-0.5203198590147907,-0.2601594478106408,0.34775789112952893,nan
1740447707.9380682,-0.26567420405053044,-0.5299317329376094,-0.2245972405444647,0.3680833147676547,nan
1740447707.9419782,-0.2521047000661206,-0.5391687160811808,-0.18752967991642508,0.3882391792193359,nan
1740447707.945884,-0.23595637670456193,-0.547852216519046,-0.14930157705918196,0.4080365242431148,nan
1740447707.9497898,-0.2173748577387417,-0.5557967313320316,-0.11027082794831813,0.4272810990080392,nan
1740447707.9536955,-0.19652873383410532,-0.5628116860660277,-0.07080505310231207,0.4457752538286725,nan
1740447707.9576013,-0.17360788276706673,-0.5687033889077096,-0.031278129051649964,0.4633199095530733,nan
1740447707.961507,-0.1488215844644554,-0.5732770805690506,0.007933354627751287,0.47971658491346353,nan
1740447707.9654129,-0.12239644989584118,-0.5763390595462609,0.04645367807436186,0.49476946130291877,nan
1740447707.9693186,-0.09457418467568923,-0.5776988612944793,0.08391157854718519,0.508287463802181,nan
1740447707.9732244,-0.0656092098468198,-0.5771714689494694,0.11994380717555553,0.5200863368567458,nan
1740447707.9771302,-0.03576616370465091,-0.5745795325432077,0.1541986199455741,0.5299906928017086,nan
1740447707.981036,-0.005317309669498798,-0.5697555732104117,0.18633916836215864,0.5378360114542343,nan
1740447707.9849417,0.025460123889453967,-0.5625441486745822,0.21604675611775329,0.5434705692423395,nan
1740447707.98885,0.05628664533876289,-0.5528039563391002,0.24302392932884742,0.5467572768131767,nan
1740447707.992756,0.08688321606429818,-0.5404098505931683,0.26699736945835234,0.5475754047608371,nan
1740447707.9966617,0.1169739543441247,-0.5252547514729246,0.2877205599110334,0.5458221780275342,nan
1740447708.0005674,0.14628879997143024,-0.5072514225917663,0.304976199452739,0.5414142206549681,nan
1740447708.0044732,0.17456611322721569,-0.486334097264646,0.3185783380414772,0.5342888338848888,nan
1740447708.008379,0.20155518250530968,-0.4624599329908196,0.3283742133458751,0.5244050921172284,nan
1740447708.012285,0.22701861585168792,-0.43561027591721824,0.334245769138116,0.5117447429167113,nan
1740447708.0161908,0.2507345928862588,-0.4057917185674932,0.33611083985574414,0.49631289909862614,nan
1740447708.0200965,0.2724989550157825,-0.3730369359744812,0.33392398889919744,0.4781385129038617,nan
1740447708.0240023,0.29212711350691617,-0.33740528737927705,0.32767699163757785,0.4572746243733171,nan
1740447708.027908,0.30945575685143234,-0.29898317283900133,0.317398957600142,0.43379837823176504,nan
1740447708.0318139,0.32434434090280406,-0.257884136397148,0.3031560899009127,0.40781080586973645,nan
1740447708.0357215,0.3366763474736236,-0.21424870989263398,0.28505108354290987,0.3794363713462714,nan
1740447708.0396273,0.3463602994345412,-0.16824399399293563,0.2632221678412157,0.3488222827022607,nan
1740447708.043533,0.3533305228237469,-0.12006297560840168,0.23784180175436875,0.3161375722498385,nan
1740447708.047439,0.3575476490365456,-0.06992358345357336,0.20911503438591217,0.2815719518637937,nan
1740447708.0513449,0.35899885279150534,-0.01806748614128343,0.17727754627746015,0.2453344516223547,nan
1740447708.0552506,0.35769782423649615,0.035241360199747745,0.14259339032740875,0.20765185240310247,nan
1740447708.0591564,0.35368447623774657,0.08971840522942555,0.10535245420302221,0.16876692521200515,nan
1740447708.0630622,0.34702439056098666,0.14506042657194496,0.0658676689371175,0.12893649208696625,nan
1740447708.066968,0.3378080092787635,0.20094766640778297,0.02447199098523325,0.0884293253503528,nan
1740447708.0708737,0.32614958029594227,0.2570461657406597,-0.01848481266159614,0.04752390376716126,nan
1740447708.0747795,0.31218586835028056,0.313010277452635,-0.06263954468348062,0.006506045777835902,nan
1740447708.0786853,0.2960746451921878,0.3684853372785177,-0.10761908961338458,-0.034333558600282275,nan
1740447708.0825927,0.2779929748536314,0.4231104700332781,-0.15304402325889402,-0.07470189438692425,nan
1740447708.0864985,0.2581353119585591,0.4765215068323409,-0.19853228358187017,-0.11430622294725036,nan
1740447708.0904043,0.23671143288560265,0.528353987671999,-0.24370286656174334,-0.15285671339690493,nan
1740447708.09431,0.21394422124964027,0.5782462226008804,-0.28817951023923577,-0.19006907896742073,nan
1740447708.0982158,0.19006733060527886,0.6258423838265882,-0.3315943301758183,-0.2256671929020856,nan
1740447708.1021216,0.16532274847832254,0.6707956004748795,-0.37359136997101483,-0.2593856584086497,nan
1740447708.1060274,0.13995828678850575,0.7127710273602912,-0.41383003125185736,-0.29097230740368457,nan
1740447708.1099331,0.11422502442890577,0.7514488590424839,-0.4519883486797791,-0.320190603243706,nan
1740447708.113839,0.088374728207333,0.7865272606346586,-0.48776607699989033,-0.3468219233476254,nan
1740447708.117745,0.06265727852841858,0.8177251872994501,-0.52088755897221,-0.37066769856848214,nan
1740447708.1216507,0.03731812610043438,0.8447850651110941,-0.5511043451569553,-0.39155138736192374,nan
1740447708.1255565,0.012595805589048482,0.8674753069753196,-0.578197538956174,-0.4093202642146177,nan
1740447708.1294632,-0.01128046848479497,0.8855926385722651,-0.6019798430184148,-0.423847003425023,nan
1740447708.133369,-0.03409309918766007,0.898964210812363,-0.6222972860657247,-0.4350310411573615,nan
1740447708.1372747,-0.05563827467161732,0.90744947705755,-0.6390306123742262,-0.44279970070031976,nan
1740447708.1411805,-0.07572798380807808,0.9109418153447881,-0.6520963194998511,-0.44710906803642675,nan
1740447708.1450863,-0.09419185962660062,0.9093698780383151,-0.6614473333566091,-0.447944607145958,nan
1740447708.1489923,-0.11087883202241017,0.9026986537110984,-0.6670733133910809,-0.4453215069084437,nan
1740447708.152898,-0.12565857317909304,0.8909302285934518,-0.669000584318076,-0.43928475400253375,nan
1740447708.1568038,-0.13842272130322894,0.8741042376037599,-0.6672916946510483,-0.4299089288163513,nan
1740447708.1607096,-0.14908587056408762,0.8522979977683497,-0.6620446060398629,-0.4172977240406558,nan
1740447708.1646154,-0.15758631755030228,0.8256263197182334,-0.6533915211795418,-0.40158318830000866,nan
1740447708.1685212,-0.16388655707217117,0.794240995892802,-0.6414973617392769,-0.38292469985657174,nan
1740447708.172427,-0.1679735227273085,0.7583299670566528,-0.6265579113439165,-0.3615076780707324,nan
1740447708.176337,-0.16985857028231693,0.7181161717171924,-0.6087976420840201,-0.3375420428962158,nan
1740447708.1802428,-0.16957720457725223,0.6738560859889665,-0.5884672463003349,-0.31126043519878027,nan
1740447708.1841486,-0.16718855330577173,0.6258379643574183,-0.5658408984507042,-0.28291621309195053,nan
1740447708.1880543,-0.16277459363505514,0.5743797946217307,-0.5412132746903823,-0.25278124175601524,nan
1740447708.19196,-0.15643914017915583,0.5198269830162671,-0.5148963603512206,-0.22114349632472247,nan
1740447708.1958659,-0.14830660530143852,0.4625497880962187,-0.4872160777644743,-0.1883044993659035,nan
1740447708.1997716,-0.13852054507086012,0.4029405243999976,-0.45850876881209696,-0.15457661622746358,nan
1740447708.2036774,-0.12724200640916966,0.34141055914482993,-0.42911756819160435,-0.12028023305050034,nan
1740447708.2075834,-0.11464769301881196,0.27838712725040493,-0.3993887046222908,-0.08574084355038633,nan
1740447708.2114892,-0.1009279695534159,0.21430999179806007,-0.36966776809173085,-0.051286071720246074,nan
1740447708.215395,-0.0862847251649868,0.14962797860135707,-0.34029598173085296,-0.01724265840769019,nan
1740447708.2193007,-0.0709291190169318,0.08479541487203357,-0.3116065170065619,0.016066559754648928,nan
1740447708.22321,-0.055079231574886825,0.020268502999491976,-0.28392089063035447,0.048325650327960226,nan
1740447708.227116,-0.03895764646522356,-0.043498338788750354,-0.2575454809006269,0.0792285352400112,nan
1740447708.231022,-0.02278898841375813,-0.10605613666239759,-0.2327682001303638,0.10848186273691524,nan
1740447708.2349277,-0.006797443237053344,-0.16696498993921924,-0.2098553583696522,0.1358077732773213,nan
1740447708.2388334,0.008795713949305946,-0.22579763611583806,-0.18904875182649897,0.160946532384747,nan
1740447708.2427392,0.023774556219279746,-0.2821429203890681,-0.1705630072361181,0.1836590045932657,nan
1740447708.246645,0.03793088228334489,-0.3356091386229376,-0.15458321094821276,0.20372894399905161,nan
1740447708.2505507,0.05106650876976386,-0.38582722375371314,-0.14126284871683312,0.22096507855366657,nan
1740447708.2544565,0.06299545309076478,-0.432453746945985,-0.13072207911475214,0.23520296708975794,nan
1740447708.2583623,0.07354598377098981,-0.47517370640599016,-0.12304636018312634,0.24630661013957916,nan
1740447708.262268,0.08256251648296148,-0.5137030786094408,-0.11828544539946563,0.25416979787227134,nan
1740447708.2661738,0.08990733562886823,-0.5477911087936533,-0.1164527613368412,0.2587171809163804,nan
1740447708.270083,0.09546212311356803,-0.5772223198786137,-0.11752517553106827,0.25990505242674905,nan
1740447708.2739887,0.09912927795222275,-0.6018182214975425,-0.12144315910814549,0.25772183247532027,nan
1740447708.2778945,0.10083301252728534,-0.6214387035113168,-0.12811134469069327,0.2521882486678522,nan
1740447708.2818003,0.10052021363154257,-0.6359831012277415,-0.13739947603952918,0.24335720978598127,nan
1740447708.2857063,0.09816105888315334,-0.6453909225196023,-0.14914374183544535,0.23131337219886935,nan
1740447708.289612,0.0937493816501379,-0.6496422301068029,-0.16314848200728832,0.21617240175229052,nan
1740447708.2935178,0.08730278024948851,-0.6487576754089348,-0.17918825110604616,0.19807993679676822,nan
1740447708.2974236,0.07886246986329028,-0.64279818355562,-0.19701021945041552,0.1772102609314552,nan
1740447708.3013294,0.06849287831336355,-0.6318642923329444,-0.21633688916588403,0.15376469688821792,nan
1740447708.3052351,0.056280989529386205,-0.6160951510150037,-0.2368690988437796,0.12796973573285997,nan
1740447708.309141,0.04233544120545337,-0.5956671881498794,-0.25828928739432,0.10007491819018084,nan
1740447708.3130467,0.0267853857390406,-0.5707924604095576,-0.28026498479147655,0.07035048738038924,nan
1740447708.3169553,0.009779126057684525,-0.5417166975444703,-0.30245249483787245,0.039084834561440934,nan
1740447708.320861,-0.00851745966407983,-0.5087170612772797,-0.32450073284280273,0.0065817615815269405,nan
1740447708.3247669,-0.02792268813648369,-0.47209963860069537,-0.34605517923007745,-0.026842414363130018,nan
1740447708.3286726,-0.0482410175781113,-0.4321966923850822,-0.36676190859597363,-0.06086188641754843,nan
1740447708.3325784,-0.06926515056323423,-0.38936369442997826,-0.3862716526386278,-0.09514448556003317,nan
1740447708.3364842,-0.0907782711184722,-0.34397616808784903,-0.4042438546922168,-0.12935488012669277,nan
1740447708.34039,-0.11255639261112363,-0.29642636932930994,-0.4203506733320419,-0.16315781675527383,nan
1740447708.3442957,-0.13437079172745522,-0.24711983658943162,-0.4342808926756977,-0.1962213715851522,nan
1740447708.3482015,-0.15599050284785815,-0.19647184092074796,-0.44574369759219223,-0.22822018030000224,nan
1740447708.3521073,-0.17718484639822504,-0.1449037688681106,-0.45447227304242177,-0.25883861565313754,nan
1740447708.356013,-0.19772596430167466,-0.09283947106515139,-0.4602271882037951,-0.287773881473832,nan
1740447708.359919,-0.2173913354773821,-0.04070160982572744,-0.46279952786773076,-0.31473899281423273,nan
1740447708.3638272,-0.23596624443673567,0.011091961036410487,-0.4620137358260489,-0.33946561285588983,nan
1740447708.367733,-0.25324617641135483,0.06213175128040024,-0.4577301375616784,-0.36170671844478175,nan
1740447708.3716388,-0.26903911310978484,0.11202009198856373,-0.4498471125075318,-0.38123906765332904,nan
1740447708.3755445,-0.2831677041341556,0.16037446474811587,-0.438302889408313,-0.3978654445638237,nan
1740447708.3794503,-0.2954712902864828,0.20683067228239937,-0.42307694188343115,-0.41141665851402387,nan
1740447708.383356,-0.3058077564451195,0.2510458220973299,-0.4041909651120417,-0.42175327732367207,nan
1740447708.3872619,-0.31405519338143334,0.2927010965250138,-0.38170941860771124,-0.4287670765094613,nan
1740447708.3911676,-0.3201133497987954,0.33150428461433057,-0.3557396242821455,-0.4323821891725597,nan
1740447708.3950734,-0.32390485799159524,0.36719205361761575,-0.32643141337431264,-0.43255594408192954,nan
1740447708.3989792,-0.3253762188205585,0.39953194033174816,-0.29397632030129295,-0.429279382451782,nan
1740447708.402885,-0.32449853415931273,0.4283240452466918,-0.2586063260268502,-0.4225774469943253,nan
1740447708.4067907,-0.3212679775613723,0.4534024153090634,-0.22059215809883906,-0.41250883999002497,nan
1740447708.4106987,-0.31570599660050375,0.47463610409510193,-0.18024115903244595,-0.39916555032662027,nan
1740447708.4146044,-0.30785924312360985,0.49192990127784886,-0.137894739168236,-0.38267205268422777,nan
1740447708.4185102,-0.29779923049547713,0.5052247264374657,-0.09392543446764483,-0.36318418525557583,nan
1740447708.422416,-0.2856217197802295,0.5144976854710511,-0.04873359388049983,-0.34088771555661834,nan
1740447708.4263217,-0.2714458396656927,0.5197617910779609,-0.002743724887140178,-0.31599660697231063,nan
1740447708.4302275,-0.2554129477647573,0.5210653519974385,0.043599470458845345,-0.2887510016647695,nan
1740447708.4341333,-0.23768524369304952,0.518491038826319,0.0898353332206859,-0.25941493831686224,nan
1740447708.438039,-0.21844414699595643,0.5121546373151613,0.13549172011316402,-0.2282738258649513,nan
1740447708.4419448,-0.19788845555247847,0.5022035030016534,0.18008966922434883,-0.19563169686321163,nan
1740447708.4458506,-0.17623230249153196,0.48881473386177166,0.22314821487918757,-0.16180826639335152,nan
1740447708.4497564,-0.15370293189271575,0.47219308031459517,0.26418930562088705,-0.12713582446437274,nan
1740447708.4536622,-0.130538315584171,0.45256861438007945,0.30274277773830166,-0.09195599161629878,nan
1740447708.4575696,-0.10698463517310337,0.4301941820365372,0.3383513356698099,-0.05661636893079393,nan
1740447708.4614754,-0.08329365502953137,0.40534266483417863,0.37057548998087325,-0.021467114844328828,nan
1740447708.4653811,-0.059720013273442805,0.3783040785733196,0.39899840345375437,0.013142517957157335,nan
1740447708.469287,-0.036518458874471624,0.34938253833368244,0.4232305961492684,0.04686765171963469,nan
1740447708.4731927,-0.0139410637488029,0.3188931203302305,0.44291446110307464,0.07937122479949026,nan
1740447708.4770985,0.007765560779317227,0.2871586519595493,0.4577285435991653,0.11032737085492948,nan
1740447708.4810042,0.028363013601277572,0.2545064619804191,0.46739153871259775,0.13942470249273273,nan
1740447708.48491,0.04762379010375872,0.22126512303712761,0.4716659640194499,0.16636946656940155,nan
1740447708.4888158,0.06533387610051189,0.18776121868180934,0.47036146701693143,0.19088853942651568,nan
1740447708.4927216,0.08129522114014472,0.15431616668318693,0.4633377298590773,0.21273223173654565,nan
1740447708.4966273,0.0953280639383489,0.12124312972730741,0.45050693746743514,0.23167687433562362,nan
1740447708.500533,0.10727308399620555,0.08884404362775271,0.43183577889201524,0.24752715840905215,nan
1740447708.50444,0.11699335505651949,0.057406791878436274,0.40734695594185844,0.26011820565598404,nan
1740447708.5083458,0.12437607790355229,0.02720255381388372,0.37712017754005933,0.26931734657130607,nan
1740447708.5122516,0.1293340721108898,-0.0015166481944225852,0.34129262294495233,0.2750255877223156,nan
1740447708.5161574,0.13180700866814934,-0.028520179163487275,0.30005886187484143,0.27717875184009844,nan
1740447708.5200632,0.1317623679476742,-0.053600778519607754,0.2536702246329306,0.27574827766304716,nan
1740447708.523969,0.12919611018322227,-0.0765762852103452,0.2024336205053598,0.2707416697335811,nan
1740447708.5278747,0.12413304849772287,-0.0972910851070633,0.1467098079498431,0.26220259172789523,nan
1740447708.5317807,0.11662691750858085,-0.11561726775564497,0.08691112535610847,0.25021060036037557,nan
1740447708.5356865,0.1067601336274204,-0.13145548251734684,0.023498696392142592,0.23488052041605242,nan
1740447708.5395923,0.09464324632602765,-0.1447354872226964,-0.04302087089788337,0.2163614649922902,nan
1740447708.543498,0.08041408283012912,-0.15541638560795026,-0.1120992670568724,0.19483550854063042,nan
1740447708.5474038,0.0642365918956474,-0.1634865529848356,-0.18315071721013637,0.1705160237572236,nan
1740447708.5513139,0.046299395485777925,-0.16896325277806445,-0.25555663644862436,0.14364569674157598,nan
1740447708.5552197,0.02681406026957503,-0.1718919497197393,-0.32867066661322303,0.11449423809523446,nan
1740447708.5591254,0.006013103871829769,-0.17234532858361865,-0.4018240524665719,0.0833558107321815,nan
1740447708.5630312,-0.015852246311269472,-0.17042203034423192,-0.47433131156877983,0.050546198090064505,nan
1740447708.566937,-0.038514521185996325,-0.16624512052582405,-0.5454961488977489,0.016399739136507958,nan
1740447708.5708427,-0.061692681832838527,-0.15996030723499913,-0.6146175644077447,-0.01873394097001759,nan
1740447708.5747485,-0.08509496974814602,-0.1517339289212454,-0.6809960993318899,-0.05449337350530517,nan
1740447708.5786545,-0.10842190792706996,-0.14175073425526197,-0.7439401651317664,-0.09050882911947751,nan
1740447708.5825603,-0.13136942341756985,-0.13021147863239613,-0.8027723976022738,-0.12640600651811745,nan
1740447708.586466,-0.15363206041341787,-0.11733036367584569,-0.8568359777697016,-0.1618097910341003,nan
1740447708.5903718,-0.17490625169007767,-0.10333234771238908,-0.9055008608882131,-0.19634804630411473,nan
1740447708.5942776,-0.19489361523651783,-0.08845035650578775,-0.9481698550521657,-0.22965540168036433,nan
1740447708.598187,-0.21330424231068423,-0.07292242454575973,-0.9842844917015745,-0.26137699778473367,nan
1740447708.6020927,-0.2298599428557564,-0.05698879789300211,-1.0133306316028974,-0.29117215275417546,nan
1740447708.6059985,-0.244297414264323,-0.04088902996523285,-1.0348437517295317,-0.31871791223353446,nan
1740447708.6099043,-0.25637129987093615,-0.02485910171120932,-1.0484138608332352,-0.3437124470429359,nan
1740447708.6138103,-0.26585710428928255,-0.00912859735781411,-1.0536899943712543,-0.365878263675346,nan
1740447708.617716,-0.2725539337844125,0.006082033668573119,-1.050384242811711,-0.3849651943566134,nan
1740447708.6216218,-0.2762870312753899,0.020564098945774233,-1.0382752711543486,-0.4007531353123168,nan
1740447708.6255276,-0.2769100772886482,0.034123140893099035,-1.017211291743371,-0.41305450411707606,nan
1740447708.6294334,-0.2743072302130588,0.04658124325683078,-0.9871124570777948,-0.4217163895332478,nan
1740447708.6333392,-0.26839488152696417,0.05777914104719083,-0.9479726443026087,-0.42662237005490405,nan
1740447708.637245,-0.2591231042549954,0.06757811078391292,-0.8998606083477372,-0.4276939804344911,nan
1740447708.6411507,-0.2464767757452735,0.0758616202065647,-0.8429204862247798,-0.42489180875596777,nan
1740447708.6450598,-0.230476358909955,0.08253671912721866,-0.7773716407444831,-0.41821621009943705,nan
1740447708.6489656,-0.21117832931588415,0.08753515582219941,-0.7035078378292482,-0.4077076264861648,nan
1740447708.6528714,-0.18867523891723023,0.09081420624931354,-0.6216957576114143,-0.39344650656558927,nan
1740447708.6567771,-0.16309541075641623,0.0923572064084525,-0.5323728455746998,-0.3755528223720673,nan
1740447708.660683,-0.1346022625896777,0.09217378130637838,-0.4360445160575724,-0.35418518440218394,nan
1740447708.6645887,-0.1033932610845708,0.09029976720923806,-0.3332807264373978,-0.3295395602061413,nan
1740447708.6684945,-0.06969851195282036,0.08679682713637986,-0.2247119461974085,-0.3018476056113481,nan
1740447708.6724002,-0.033778995086862315,0.08175176283325185,-0.11102455078966068,-0.27137462156497905,nan
1740447708.676306,0.004075542574232222,0.07527552972602782,0.007044324307473652,-0.2384171533573716,nan
1740447708.6802118,0.04354902015043778,0.06750196457281413,0.12871242873127386,-0.20330025263279142,nan
1740447708.6841176,0.08430176214559702,0.05858623865274742,0.25315849609037056,-0.16637442607228758,nan
1740447708.6880233,0.12597352094034112,0.04870305234272119,0.3795287465436671,-0.12801229791051033,nan
1740447708.691932,0.1681867562922395,0.03804458979054297,0.506943739026104,-0.08860501649147379,nan
1740447708.6958377,0.2105501427935228,0.026818255073082407,0.6345055154185064,-0.04855843784632721,nan
1740447708.6997435,0.25266227359945154,0.015244213700108424,0.7613049758281885,-0.008289121760598303,nan
1740447708.7036493,0.2941155263829477,0.0035527655626294273,0.8864294215446041,0.03177982203699678,nan
1740447708.707555,0.33450005541928096,-0.008018422595476324,1.0089702001874563,0.0712229981105238,nan
1740447708.7114608,0.3734078719816216,-0.019227195403715848,1.1280303860961034,0.10961705906551603,nan
1740447708.7153666,0.4104369738542194,-0.0298298666091908,1.2427324281361027,0.1465450668200116,nan
1740447708.7192724,0.44519548376186596,-0.03958422407277925,1.352225696833521,0.1816008387226574,nan
1740447708.7231781,0.4773057558857505,-0.04825254899344649,1.455693863096724,0.21439323556091838,nan
1740447708.7270842,0.5064084093969267,-0.05560461591704621,1.55236204174983,0.24455034862993177,nan
1740447708.73099,0.5321662480957476,-0.06142064001073014,1.6415036346771943,0.2717235435714561,nan
1740447708.7348957,0.5542680258015403,-0.06549413835663594,1.7224468105539823,0.29559131964094604,nan
1740447708.738804,0.572432018090267,-0.06763467263848756,1.7945805608983656,0.3158629444135422,nan
1740447708.7427099,0.5864093623241137,-0.0676704415583452,1.857360275504855,0.3322818256871633,nan
1740447708.7466156,0.5959871296469875,-0.06545069262076729,1.910312784179356,0.34462858446985717,nan
1740447708.7505214,0.6009910947213519,-0.06084792454741061,1.953040816063137,0.35272379543200566,nan
1740447708.7544272,0.6012881714384738,-0.05375985352260217,1.9852268326687856,0.35643036404160444,nan
1740447708.758333,0.5967884856262573,-0.044111118702573233,2.0066361960154637,0.3556555127586426,nan
1740447708.7622387,0.5874470588833003,-0.03185470492746046,2.0171196388985866,0.3503523521156135,nan
1740447708.7661445,0.5732650810583287,-0.016973063332915123,2.0166150103116696,0.3405210162253189,nan
1740447708.7700503,0.554290752541435,0.0005210864587385145,2.0051482753034686,0.3262093462017609,nan
1740447708.7739563,0.5306196814056323,0.020584285707442907,1.9828337550470396,0.3075131091198083,nan
1740447708.777862,0.5023948244996547,0.04314220727692148,1.9498735995614047,0.2845757444373762,nan
1740447708.7817678,0.46980596580916684,0.06808987401940902,1.9065564923023899,0.2575876342209771,nan
1740447708.7856755,0.43308872973523005,0.09529222755174901,1.8532555926661876,0.22678489801138343,nan
1740447708.7895813,0.392523131346211,0.12458504650286467,1.7904257292662331,0.19244771769925745,nan
1740447708.793487,0.3484316701014069,0.15577620963490743,1.7185998635895992,0.15489820230894272,nan
1740447708.7973928,0.3011769779798953,0.18864729556971283,1.6383848502520695,0.11449780706969143,nan
1740447708.8012986,0.2511590373345909,0.22295550722540705,1.5504565264912549,0.07164432554519798,nan
1740447708.8052044,0.19881198808731676,0.25843590552179696,1.4555541697056005,0.02676847785270456,nan
1740447708.8091102,0.1446005480445037,0.29480393348375394,1.3544743677071558,-0.019669877908843853,nan
1740447708.813016,0.0890160741043525,0.3317582085945431,1.2480643518530936,-0.06718588002554016,nan
1740447708.8169217,0.03257229590565098,0.3689835581600857,1.1372148483039182,-0.1152741087071505,nan
1740447708.8208275,-0.024199243001764615,0.4061542695731231,1.0228525072771215,-0.16341330483320135,nan
1740447708.8247333,-0.08075399814035576,0.4429375247438618,0.9059319742799129,-0.21107132091966593,nan
1740447708.8286393,-0.1365394499915166,0.47899698561956006,0.7874276708738115,-0.2577102606468201,nan
1740447708.8325498,-0.19100029895831316,0.5139964956756593,0.6683253555126829,-0.30279176099400995,nan
1740447708.8364556,-0.24358378337743772,0.5476038605488465,0.549613537374184,-0.3457823691344442,nan
1740447708.8403616,-0.29374507275526257,0.5794946696181946,0.43227481784833727,-0.3861589647738337,nan
1740447708.8442674,-0.34095268702700327,0.6093561193413437,0.3172772354369727,-0.42341417758795424,nan
1740447708.8481731,-0.3846938917017291,0.6368907985322851,0.20556569024121202,-0.45706174883949274,nan
1740447708.852079,-0.42448001827258086,0.6618203955358409,0.09805352396368659,-0.486641786143017,nan
1740447708.8559847,-0.45985165925019617,0.683889287417841,-0.004385669573228472,-0.51172586070382,nan
1740447708.8598905,-0.4903836876231161,0.7028679718519191,-0.1009259299873529,-0.531921897182541,nan
1740447708.8637962,-0.5156900514625121,0.7185563033426838,-0.19079644082356811,-0.5468788076294114,nan
1740447708.867702,-0.5354282957663548,0.7307864967756729,-0.2732885967131312,-0.5562908226820219,nan
1740447708.8716078,-0.5493037654722852,0.7394258630181414,-0.3477625624671302,-0.5599014754166596,nan
1740447708.8755136,-0.5570734458467377,0.7443792433987213,-0.4136532634730923,-0.5575071958694101,nan
1740447708.8794208,-0.5585493991639332,0.7455911123519846,-0.4704757514282964,-0.5489604772791544,nan
1740447708.8833265,-0.5536017597018029,0.7430473203060011,-0.5178298946262945,-0.5341725785262579,nan
1740447708.8872325,-0.5421612525783138,0.7367764519938899,-0.5554043476707926,-0.5131157310204358,nan
1740447708.8911383,-0.5242212058029745,0.7268507787575054,-0.5829797615752015,-0.48582482239768987,nan
1740447708.895044,-0.4998390290929573,0.7133867870533686,-0.6004312016648167,-0.452398533785029,nan
1740447708.8989499,-0.4691371374663948,0.6965452692354839,-0.6077297474759923,-0.41299991204553804,nan
1740447708.9028556,-0.4323033023393473,0.67653096674218,-0.6049432558841468,-0.3678563632853791,nan
1740447708.9067614,-0.389590417777265,0.6535917600177247,-0.5922362759287338,-0.31725905894636136,nan
1740447708.9106672,-0.3413156746439329,0.6280174038157293,-0.5698691111751211,-0.26156175097882567,nan
1740447708.914573,-0.28785914060632956,0.6001378109201598,-0.5381960328960387,-0.20117899784423807,nan
1740447708.9184787,-0.22966174924665783,0.5703208917401076,-0.4976626548032338,-0.136583808388622,nan
1740447708.9223845,-0.1672227068558694,0.5389699616445269,-0.4488024874474449,-0.06830471590944748,nan
1740447708.9262943,-0.10109633078860636,0.5065207322608548,-0.39223269766620494,0.0030777000374610933,nan
1740447708.9302,-0.03188833849968483,0.47343790722477774,-0.32864910552977333,0.07693482142540368,nan
1740447708.934106,0.039748388490712626,0.4402114069959583,-0.2588204580523819,0.15259450150552278,nan
1740447708.938012,0.11311853648921683,0.40735225130558744,-0.18358202543805996,0.2293460441131147,nan
1740447708.9419177,0.18748955340445642,0.37538813153694267,-0.10382857175892944,0.30644561559863004,nan
1740447708.9458234,0.2620972659212521,0.34485870882189873,-0.020506757663766927,0.38312204820464063,nan
1740447708.9497292,0.3361518773736983,0.3163106768290363,0.06539296206594337,0.4585829897876904,nan
1740447708.953635,0.4088442997346151,0.29029263108923886,0.15284487860389054,0.5320213512224469,nan
1740447708.9575408,0.47935276962787576,0.2673497892218288,0.24079693518204737,0.6026219996592769,nan
1740447708.9614465,0.5468496951650775,0.2480186085610086,0.3281799240693803,0.6695686430664086,nan
1740447708.9653523,0.6105086777401147,0.23282134941406557,0.41391689641788626,0.7320508492016922,nan
1740447708.969258,0.6695116507119274,0.22226063348900416,0.49693270476834184,0.7892711403502299,nan
1740447708.9731677,0.7230560751906183,0.21681404789283326,0.5761635964997337,0.8404521038524001,nan
1740447708.9770734,0.7703621319344738,0.21692884550982866,0.6505667757039805,0.8848434576471808,nan
1740447708.9809792,0.8106798476803224,0.22301679251258144,0.7191298508806491,0.9217290097790942,nan
1740447708.984885,0.843296094077306,0.23544921323317594,0.7808800864775085,0.9504334510696116,nan
1740447708.9887908,0.8675413977804144,0.25455228162672083,0.834893377648689,0.9703289209371524,nan
1740447708.9926965,0.8827965011858655,0.28060260709890184,0.8803028696529498,0.9808412876606959,nan
1740447708.9966023,0.8884986147518557,0.31382316055142595,0.9163071460541732,0.9814560862127042,nan
1740447709.000508,0.8841473038366479,0.3543795841367938,0.9421779132924816,0.9717240591250966,nan
1740447709.0044138,0.8693099554881455,0.402376925423612,0.9572671132392275,0.9512662486804239,nan
1740447709.0083196,0.8436267736169188,0.45785683347650563,0.9610133999988185,0.9197785920177737,nan
1740447709.0122254,0.8068152544556371,0.5207952507754473,0.9529479224356947,0.8770359744836863,nan
1740447709.0161312,0.7586740981251621,0.5911006309665552,0.9326993596415698,0.8228957007126756,nan
1740447709.0200405,0.6990865164601907,0.6686127081821069,0.8999981627674141,0.7573003474565614,nan
1740447709.0239463,0.6280229019605079,0.7531018391270086,0.854679963273438,0.6802799670595264,nan
1740447709.027852,0.5455428277891508,0.8442689343404056,0.7966881146416211,0.5919536156566203,nan
1740447709.0317578,0.451796354094527,0.9417459900452887,0.7260753418889662,0.49253018561419276,nan
1740447709.0356636,0.3470246215451588,1.0450972268389378,0.6430044807526646,0.38230852738596993,nan
1740447709.0395694,0.23155971878624446,1.1538208361976536,0.5477482961256445,0.26167685178060424,nan
1740447709.0434752,0.1058238165074017,1.267351330416938,0.4406883771357669,0.13111140957616702,nan
1740447709.047381,-0.02967243309997054,1.3850624862303997,0.32231311411650276,-0.008825548576276104,nan
1740447709.0512867,-0.17433222657147132,1.5062708669953384,0.1932147705429869,-0.1574885229955644,nan
1740447709.0551925,-0.32747565801062595,1.6302399030483927,0.0540856707369762,-0.3141522116091575,nan
1740447709.0590982,-0.4883434693675005,1.7561845046688387,-0.09428646828990146,-0.4780156315384961,nan
1740447709.063004,-0.6561014789823444,1.8832761770875088,-0.25102402514896416,-0.6482068890221803,nan
1740447709.0669127,-0.8298456593780751,2.0106486021919667,-0.4151657397949956,-0.8237885654973408,nan
1740447709.0708184,-1.008607829647883,2.137403647048356,-0.5856737072183276,-1.0037636823263913,nan
1740447709.0747242,-1.1913619224023968,2.262617755129849,-0.7614410433978223,-1.187082201607487,nan
1740447709.07863,-1.37703078016255,2.385348672251363,-0.9413001619976279,-1.3726480157870002,nan
1740447709.0825357,-1.5644934313547503,2.5046424556977356,-1.124031595002755,-1.5593263744429942,nan
1740447709.0864415,-1.7525927917267758,2.619540711932482,-1.3083732857656105,-1.7459516926686902,nan
1740447709.0903473,-1.9401437330951983,2.7290880056177382,-1.49303027881879,-1.9313356819897667,nan
1740447709.0942533,-2.125941457893816,2.832339380490406,-1.6766847273346115,-2.114275741730457,nan
1740447709.098159,-2.3087701150493207,2.9283679309483217,-1.8580061363094764,-2.293563546228565,nan
1740447709.1020648,-2.487411590292824,3.0162723620226157,-2.035661757445543,-2.4679937613119267,nan
1740447709.1059706,-2.6606544021470406,3.095184474763114,-2.208327050311781,-2.6363728220074294,nan
1740447709.1098764,-2.8273026335273532,3.164276513952815,-2.374696123703467,-2.797527702572646,nan
1740447709.1137846,-2.98618482817423,3.2227683155006313,-2.533492071189093,-2.9503146096288204,nan
1740447709.1176903,-3.1361627810031427,3.269934191839293,-2.6834771156361636,-3.0936275294369526,nan
1740447709.121596,-3.276140151919759,3.305109495173648,-2.8234624790351233,-3.2264065611955806,nan
1740447709.1255019,-3.4050708337012203,3.327696800474327,-2.952317896180483,-3.347645969644309,nan
1740447709.1294076,-3.5219670061819213,3.3371716526794106,-3.068980693700472,-3.4564018922208186,nan
1740447709.1333134,-3.6259068111926775,3.3330878256337755,-3.1724643595255704,-3.5517996385260653,nan
1740447709.1372192,-3.7160415854686577,3.3150820438394257,-3.2618665321207736,-3.633040522882765,nan
1740447709.141125,-3.7916025920422753,3.282878122083066,-3.336376343639303,-3.6994081743018903,nan
1740447709.1450307,-3.851907194446149,3.236290482417967,-3.39528105654479,-3.7502742721719926,nan
1740447709.1489365,-3.896364422337283,3.175227012770778,-3.4379719391475745,-3.785103660424184,nan
1740447709.1528423,-3.924479881881988,3.099691236581291,-3.4639493318575725,-3.8034587977648617,nan
1740447709.156748,-3.9358599693726832,3.009783768322419,-3.472826862715708,-3.8050035067689114,nan
1740447709.160656,-3.9302153520402254,2.905703035443612,-3.464334777869694,-3.7895059901448542,nan
1740447709.1645617,-3.907363685833096,2.7877452531864244,-3.438322360046137,-3.756841088274395,nan
1740447709.1684675,-3.867231546009162,2.656303644786063,-3.3947594156757894,-3.706991758143741,nan
1740447709.1723733,-3.809855552675818,2.5118669057465133,-3.333736819086322,-3.6400497599725266,nan
1740447709.176279,-3.735382679867557,2.3550169171066373,-3.255466110020238,-3.5562155441565952,nan
1740447709.1801848,-3.644069743311699,2.186425718847304,-3.1602781485970404,-3.455797337520082,nan
1740447709.1840906,-3.536282068648106,2.006851760771516,-3.0486208396505434,-3.339209434267023,nan
1740447709.1879964,-3.412491348481192,1.817135454267399,-2.9210559460675243,-3.2069697033791558,nan
1740447709.1919022,-3.2732727031964073,1.6181940542849684,-2.778255018266476,-3.0596963304715152,nan
1740447709.195808,-3.1193009669132956,1.4110159065702434,-2.6209944742211633,-2.8981038182381402,nan
1740447709.1997137,-2.951346226218451,1.1966541006544429,-2.450149871390789,-2.7229982755454483,nan
1740447709.2036195,-2.77026864537115,0.9762195742436769,-2.2666894185081072,-2.5352720309108614,nan
1740447709.207527,-2.5770126174507504,0.7508737194501179,-2.0716667813427834,-2.335897611491513,nan
1740447709.2114327,-2.372600286369124,0.5218205457063854,-1.866213242248035,-2.1259211337572648,nan
1740447709.2153385,-2.158124489757163,0.2902984581712961,-1.6515292784664066,-1.9064551566916441,nan
1740447709.2192442,-1.9347411774087016,0.05757171393135083,-1.4288756287725901,-1.678671052614817,nan
1740447709.22315,-1.7036613641883012,-0.17507837870361287,-1.19956392202972,-1.4437909545189447,nan
1740447709.2270558,-1.4661426800457327,-0.40636245004806887,-0.9649469445979412,-1.2030793421169887,nan
1740447709.2309616,-1.2234805829978892,-0.634992178358233,-0.7264086262337671,-0.957834331603843,nan
1740447709.2348673,-0.9769993036114064,-0.8596894476065506,-0.4853538261345689,-0.7093787363909221,nan
1740447709.238773,-0.7280425916238831,-1.0791954819467175,-0.2431980020998493,-0.4590509677836464,nan
1740447709.2426789,-0.47796433686090967,-1.2922798849430213,-0.0013568463908713504,-0.2081958457123419,nan
1740447709.2465847,-0.22811913752760177,-1.4977495120757778,0.2387640282297104,0.041844609807898954,nan
1740447709.2504904,0.020147110730332807,-1.6944571060687847,0.47577926960269606,0.28974033582735886,nan
1740447709.2543974,0.2655065318918451,-1.88130962620821,0.708333753248549,0.5341822621537696,nan
1740447709.2583032,0.5066584205430089,-2.057276205023516,0.9351122564247563,0.7738911566832866,nan
1740447709.262209,0.7423381560584413,-2.2213956684629,1.1548487630156268,1.0076262131935974,nan
1740447709.2661147,0.9713258113367403,-2.372783558996813,1.366335326578543,1.234193316693847,nan
1740447709.2700205,1.1924543900822573,-2.510638604896795,1.5684304229417574,1.4524529242224025,nan
1740447709.2739263,1.40461762980363,-2.634248583232492,1.7600667283802647,1.661327502279787,nan
1740447709.277832,1.606777311390453,-2.7429955288720183,1.9402582645454258,1.8598084658512626,nan
1740447709.281738,1.797970020301177,-2.8363602469210174,2.1081068569438317,2.0469625681786248,nan
1740447709.2856438,1.9773133090113861,-2.9139260915509824,2.2628078598003833,2.2219376950469707,nan
1740447709.2895496,2.1440112153919784,-2.975381980002201,2.4036551065454232,2.383968022319683,nan
1740447709.2934554,2.297359097068032,-3.02052461665205,2.5300450518785618,2.5323785007405393,nan
1740447709.2973611,2.436747747504708,-3.049259908364593,2.6414800783229353,2.6665886375802983,nan
1740447709.301271,2.561666765527381,-3.0616035588293258,2.7375709473313434,2.786115550488545,nan
1740447709.305177,2.6717071561580292,-3.057680836200982,2.8180383822770256,2.8905762748704635,nan
1740447709.3090827,2.7665631469856815,-3.037725515013116,2.8827137779932337,2.9796893121919688,nan
1740447709.3129885,2.846033210731307,-3.0020779999994844,2.931539038853005,3.0532754127732495,nan
1740447709.3168943,2.9100202911617203,-2.951182646062971,2.9645655546405165,3.1112575928084922,nan
1740447709.3208,2.958531235997741,-2.885584295126198,2.9819523305951545,3.1536603914960013,nan
1740447709.3247058,2.9916754468937032,-2.805924056926137,2.983963294948106,3.180608380226702,nan
1740447709.3286116,3.0096627628840507,-2.712934366923646,2.9709638139597416,3.192323941709323,nan
1740447709.3325174,3.0128005998449447,-2.607433360336127,2.9434164508477987,3.1891243426580855,nan
1740447709.3364232,3.0014903744526245,-2.490318606818396,2.9018760110178827,3.1714181291860455,nan
1740447709.340329,2.97622324678638,-2.362560255466481,2.8469839216192203,3.139700879288888,nan
1740447709.3442347,2.9375752210749324,-2.2251936445582876,2.7794619986036784,3.09455035172728,nan
1740447709.3481443,2.8862016490767637,-2.0793114347337336,2.7001056591233357,3.0366210751809897,nan
1740447709.35205,2.8228311851763515,-1.9260553281191375,2.609776641223943,2.966638425718406,nan
1740447709.3559558,2.748259246432084,-1.766607439184388,2.509395296346686,2.8853922443677837,nan
1740447709.3598616,2.6633410344943553,-1.6021813858592728,2.399932523111603,2.7937300498624427,nan
1740447709.3637674,2.5689841794948403,-1.4340131716045752,2.282401413201543,2.6925499044363033,nan
1740447709.3676732,2.466141068665414,-1.2633519307162633,2.15784868187972,2.582792992847638,nan
1740447709.371579,2.3558009245575904,-1.0914506101244381,2.027345956746705,2.4654359765916833,nan
1740447709.3754847,2.238981699285446,-0.9195566613249798,1.8919809987695653,2.341483186514905,nan
1740447709.3793905,2.1167218521964366,-0.7489028158485673,1.7528489293983647,2.2119587177582485,nan
1740447709.3832963,1.9900720787800306,-0.5806980168315907,1.6110435367303768,2.0778984911312612,nan
1740447709.387202,1.860087058453393,-0.4161185778144723,1.4676487322028609,1.9403423446557524,nan
1740447709.3911078,1.7278172881212797,-0.2562996378679596,1.3237302272094331,1.8003262181237325,nan
1740447709.395017,1.594301067103467,-0.10232697955523594,1.1803274963661792,1.6588744921011138,nan
1740447709.3989227,1.4605566971721233,0.04477072690002172,1.0384460909304238,1.516992540892023,nan
1740447709.4028285,1.3275749590627448,0.18402919352462824,0.8990503621305636,1.3756595565787544,nan
1740447709.4067342,1.1963119239394737,0.31455524301155807,0.7630566499372556,1.2358216983936232,nan
1740447709.41064,1.0676821549367819,0.43553294465610737,0.6313269881362777,1.0983856183892482,nan
1740447709.4145458,0.9425523500968584,0.5462291118282483,0.5046633714966824,0.9642124106848581,nan
1740447709.4184515,0.8217354738112819,0.645998120363263,0.3838026254131457,0.8341120275127896,nan
1740447709.4223573,0.7059854192959214,0.7342860129393294,0.26941191268971515,0.7088382009093678,nan
1740447709.426263,0.5959922397217038,0.8106338604686539,0.16208490617712273,0.589083904228085,nan
1740447709.430169,0.4923779804357108,0.8746803577067964,0.06233864983260381,0.47547738274313534,nan
1740447709.4340749,0.3956931392841031,0.9261636366301875,-0.029388875503710755,0.36857877750219253,nan
1740447709.4379807,0.3064137764394003,0.9649222875902737,-0.11274047167109548,0.2688773613247629,nan
1740447709.4418893,0.22493928938992575,0.9908955847692476,-0.18744072451088717,0.17678940047322209,nan
1740447709.445795,0.15159086291971938,1.0041229189815388,-0.2532962896975416,0.09265665009522184,nan
1740447709.4497008,0.08661059804455133,1.0047424473320186,-0.3101954720562249,0.016745486096009444,nan
1740447709.4536066,0.03016131802520869,0.992988975601505,-0.3581071134240789,-0.0507533293053335,nan
1740447709.4575124,-0.017672956195985988,0.9691910954292775,-0.39707880998709655,-0.10972425640410921,nan
1740447709.4614182,-0.05688587444536006,0.9337676043488422,-0.4272344856444347,-0.1601259744857511,nan
1740447709.465324,-0.08754698845272245,0.8872232424573364,-0.4487713532689779,-0.20198978423519587,nan
1740447709.4692297,-0.10979936974188462,0.8301437849131065,-0.46195630070229066,-0.2354174391751967,nan
1740447709.4731355,-0.12385664336161917,0.7631905345155394,-0.4671217429024185,-0.2605784337843822,nan
1740447709.4770412,-0.1299994712539655,0.687094263284761,-0.4646609858170777,-0.2777067802103151,nan
1740447709.480947,-0.12857152342837014,0.6026486561883817,-0.45502315124940285,-0.28709730943177464,nan
1740447709.4848528,-0.11997497910535969,0.5107033139242231,-0.4387077151900018,-0.28910153630665175,nan
1740447709.488761,-0.10466560358007501,0.41215637493195095,-0.4162587147836861,-0.28412313113944615,nan
1740447709.4926667,-0.08314744970578686,0.30794681954757985,-0.38825868126286317,-0.27261304319109236,nan
1740447709.4965725,-0.055967235586150015,0.19904652141192627,-0.3553223577981848,-0.25506432391344735,nan
1740447709.5004783,-0.023708452272580234,0.08645211288150073,-0.31809026228183906,-0.23200669960480483,nan
1740447709.5043843,0.013014743025760011,-0.028823267743115517,-0.2772221555660939,-0.20400094463906696,nan
1740447709.50829,0.05356379150828228,-0.14575827886676512,-0.23339047563077528,-0.1716331074115621,nan
1740447709.5121958,0.09728209772467886,-0.26333165991071295,-0.18727379755495285,-0.1355086416651567,nan
1740447709.5161016,0.14350143731671955,-0.38053042973116613,-0.1395503780315786,-0.09624649591159691,nan
1740447709.5200074,0.1915483503229419,-0.49635793281874185,-0.09089184150573802,-0.054473213249530826,nan
1740447709.5239131,0.24075046365206976,-0.6098416687311302,-0.04195706285845129,-0.010817093011071808,nan
1740447709.527819,0.29044268766690085,-0.7200408425228265,0.006613701075882984,0.034097535644285686,nan
1740447709.5317247,0.3399732336328448,-0.8260535767574487,0.0542043819496695,0.07965587980949253,nan
1740447709.5356324,0.3887094010536483,-0.9270237289922357,0.100228326582619,0.12525804235121799,nan
1740447709.5395381,0.4360430866167292,-1.0221472623798258,0.1441331380318749,0.17032413116992962,nan
1740447709.543444,0.4813959695735945,-1.1106781212039696,0.18540509340269254,0.21429907738186404,nan
1740447709.5473497,0.52422433185559,-1.19193356771514,0.22357310524458515,0.25665712481807956,nan
1740447709.5512555,0.5640234750368068,-1.2652989415173588,0.2582121981190302,0.29690595674162207,nan
1740447709.5551615,0.6003317003669665,-1.3302318079348143,0.288946476866334,0.3345904294487256,nan
1740447709.5590672,0.6327338224675183,-1.3862654672093464,0.3154515681927219,0.3692958864070519,nan
1740447709.562973,0.6608641918720694,-1.4330118019993479,0.3374565223949021,0.400651030754689,nan
1740447709.5668788,0.6844092063540175,-1.4701634464171882,0.35474516728850625,0.42833033829843964,nan
1740447709.5707846,0.703109295875036,-1.4974952657050977,0.36715691165922015,0.45205599756797515,nan
1740447709.5746903,0.7167603709622552,-1.5148651415573176,0.37458700076184104,0.47159936796264773,nan
1740447709.578596,0.7252147293335127,-1.5222140639977924,0.3769862315045346,0.48678195152880693,nan
1740447709.5825036,0.7283814205929757,-1.5195655365667515,0.37436013992642314,0.4974758783862037,nan
1740447709.5864093,0.7262260737682044,-1.5070243073061007,0.3667676783609769,0.5036039102420429,nan
1740447709.590315,0.7187701973096721,-1.4847744436136825,0.35431940423273955,0.5051389707509206,nan
1740447709.5942209,0.7060899658815477,-1.4530767744130322,0.3371752067203181,0.502103215660065,nan
1740447709.5981266,0.6883145127963626,-1.412265728213173,0.31554160149692256,0.4945666596854119,nan
1740447709.6020324,0.6656237512465062,-1.362745600469654,0.2896686273970091,0.48264538086061304,nan
1740447709.6059382,0.6382457515248665,-1.304986288163795,0.2598463821233259,0.4664993266557412,nan
1740447709.609844,0.6064537051709228,-1.2395185336553363,0.22640123697607584,0.44632974944554754,nan
1740447709.6137497,0.5705625103955433,-1.1669287236014694,0.1896917730326203,0.42237630189176667,nan
1740447709.6176558,0.5309250161994262,-1.0878532920432036,0.1501044832136185,0.3949138254662046,nan
1740447709.6215615,0.48792796528178534,-1.0029727796129961,0.10804928622583408,0.36424886766062703,nan
1740447709.6254673,0.44198767811642525,-0.913005603194432,0.06395489946352256,0.33071596538846165,nan
1740447709.6293743,0.3935455224347393,-0.8187015922488436,0.018264118574365176,0.29467373366831845,nan
1740447709.63328,0.34306321378614457,-0.720835349402798,-0.028570948448228554,0.2565007998801624,nan
1740447709.6371858,0.2910179938371324,-0.6201994937568122,-0.07609364509275945,0.21659162469519935,nan
1740447709.6410916,0.23789773361554,-0.5175978457262693,-0.12384748128740064,0.175352251197329,nan
1740447709.6449974,0.18419600900621338,-0.4138386120619767,-0.17138075390484056,0.1331960237383303,nan
1740447709.6489034,0.1304071954613417,-0.3097276290260522,-0.21825102886400335,0.09053931770531395,nan
1740447709.6528091,0.07702162811108186,-0.20606172052949562,-0.26402944291655145,0.04779732063548523,nan
1740447709.656715,0.024520872259055426,-0.10362222638567321,-0.3083047856250353,0.005379904001502148,nan
1740447709.6606207,-0.026626852361531145,-0.0031687537180677973,-0.35068732481128184,-0.0363123764744055,nan
1740447709.6645265,-0.07597105219310803,0.09456679799595834,-0.3908123418472669,-0.07689211591991878,nan
1740447709.6684322,-0.12308310630618412,0.1888858907343232,-0.4283433465422827,-0.11598869688298027,nan
1740447709.672338,-0.16756014238931805,0.27912863643572855,-0.46297494501345315,-0.1532516958358636,nan
1740447709.6762514,-0.20902860898305212,0.3646786797499524,-0.4944353377732252,-0.1883540307460081,nan
1740447709.6801572,-0.2471475139606932,0.44496763860068606,-0.5224884292872086,-0.2209948237529681,nan
1740447709.684063,-0.2816113028017887,0.5194790704236102,-0.5469355344074199,-0.25090195610309585,nan
1740447709.6879687,-0.31215235395781904,0.587751936472152,-0.5676166713272733,-0.27783429577981095,nan
1740447709.6918745,-0.3385430725365403,0.6493835413053891,-0.5844114349929548,-0.30158358169443855,nan
1740447709.6957803,-0.3605975675928037,0.70403192944291,-0.5972394491983737,-0.3219759518363337,nan
1740447709.699686,-0.37817290246972424,0.7514177261453551,-0.6060603998453563,-0.3388731063866932,nan
1740447709.7035918,-0.3911699118447061,0.7913254143114149,-0.6108736560256395,-0.35217310044291267,nan
1740447709.7074976,-0.3995335833593655,0.8236040445268228,-0.6117174896361376,-0.36181076464452294,nan
1740447709.7114034,-0.4032530059108606,0.8481673803131904,-0.6086679081351367,-0.36775775560298546,nan
1740447709.7153091,-0.40236089081471543,0.8649934855598792,-0.6018371187476897,-0.37002224158186514,nan
1740447709.719215,-0.3969326760773805,0.8741237659372555,-0.5913716458989198,-0.3686482323181876,nan
1740447709.7231245,-0.387085227903135,0.8756614807426273,-0.5774501268623787,-0.36371456518841444,nan
1740447709.7270303,-0.3729751572688249,0.8697697460810538,-0.5602808135277696,-0.35533356307329933,nan
1740447709.730936,-0.3547967728976932,0.8566690544941787,-0.5400988107925632,-0.34364938223679453,nan
1740447709.7348418,-0.3327796952188238,0.8366343400860381,-0.5171630843426033,-0.3288360712789358,nan
1740447709.7387476,-0.30718615888268896,0.8099916218230229,-0.49175327248885514,-0.31109536472758914,nan
1740447709.7426534,-0.2783080340899864,0.7771142609765087,-0.4641663382557923,-0.2906542370778395,nan
1740447709.7465591,-0.24646359935748388,0.7384188716050868,-0.4347130990601221,-0.26776224505219476,nan
1740447709.750465,-0.21199410037133912,0.6943609255165251,-0.40371467206927203,-0.2426886875240555,nan
1740447709.7543707,-0.17526013124899545,0.6454300952887457,-0.3714988736837825,-0.21571961390851807,nan
1740447709.7582765,-0.13663787583273157,0.5921453806494591,-0.33839661154705625,-0.18715471286901111,nan
1740447709.7621825,-0.09651524756206757,0.5350500648048188,-0.3047383070542275,-0.1573041139091768,nan
1740447709.7660882,-0.05528796701326608,0.47470654816162317,-0.27085038551762686,-0.12648513481373733,nan
1740447709.7699971,-0.013355616350423608,0.41169110730254,-0.2370518699614291,-0.0950190079697139,nan
1740447709.773903,0.028882290293773358,0.34658862705074356,-0.2036511129783996,-0.06322761834368255,nan
1740447709.7778087,0.07103018209286341,0.27998735300458205,-0.17094269920615093,-0.0314302853178977,nan
1740447709.7817144,0.11270021501318087,0.21247371104356064,-0.13920454879146327,5.938029252573894e-05,nan
1740447709.7856202,0.1535159273940659,0.14462723901705674,-0.10869524973412732,0.030936513895453648,nan
1740447709.7895262,0.19311573316802078,0.07701567414338642,-0.07965164426448272,0.06090790076166979,nan
1740447709.793432,0.2311562202509303,0.010190237589153894,-0.052286691441653495,0.08969471868012652,nan
1740447709.7973378,0.2673152239135717,-0.05531884470941517,-0.026787624994777715,0.11703509462329022,nan
1740447709.8012435,0.3012946474990745,-0.11900654865397325,-0.0033144221014816577,0.14268645260212767,nan
1740447709.8051493,0.33282300564954925,-0.18039695271900158,0.01800140465814544,0.16642763227248217,nan
1740447709.809055,0.3616576682191951,-0.23904680280446924,0.03705768348119522,0.18806076040841307,nan
1740447709.8129609,0.3875867862496244,-0.2945487147184492,0.05378212256600017,0.20741286005661475,nan
1740447709.8168695,0.4104308847329646,-0.34653399151892406,0.06813251091001872,0.22433718500103314,nan
1740447709.8207753,0.4300441103554855,-0.3946750368193342,0.08009658280923512,0.23871427006924892,nan
1740447709.824681,0.4463151259640872,-0.43868734915820695,0.08969155172794331,0.2504526907725301,nan
1740447709.8285868,0.4591676470945346,-0.47833108661099294,0.09696332265601804,0.25948952875979747,nan
1740447709.8324926,0.4685606195081585,-0.5134121949431644,0.10198539539132034,0.26579054255230883,nan
1740447709.8363984,0.4744880402674217,-0.5437830967288632,0.10485747434470737,0.26935004598112783,nan
1740447709.8403041,0.4769784284052294,-0.569342942950493,0.10570380343287633,0.27019049964455305,nan
1740447709.84421,0.4760939546741334,-0.5900374326139428,0.10467124737102154,0.26836182350959153,nan
1740447709.8481157,0.47192924316653345,-0.6058582098249751,0.10192714317632354,0.2639404414734826,nan
1740447709.8520215,0.46460986074434285,-0.6168418515395747,0.097656947920886,0.25702807125274224,nan
1740447709.8559272,0.4542905131764815,-0.6230684627912881,0.09206171070777049,0.24775027535442967,nan
1740447709.859833,0.44115296962747974,-0.6246598995803057,0.08535539846863094,0.23625479108534697,nan
1740447709.8637414,0.4254037396450507,-0.6217776427533113,0.07776210648145183,0.222709659549897,nan
1740447709.8676472,0.4072715290360204,-0.6146203490832991,0.06951318547111678,0.20730117535866896,nan
1740447709.871553,0.3870045029783186,-0.6034211083509561,0.06084431777622473,0.1902316803022012,nan
1740447709.8754587,0.3648673863749262,-0.5884444375130955,0.05199257533885277,0.1717172255251915,nan
1740447709.8793645,0.34113843279955935,-0.5699830450013804,0.043193492199381706,0.15198512775549838,nan
1740447709.8832703,0.3161062944027624,-0.5483543998119492,0.03467818375916793,0.13127144589228823,nan
1740447709.887176,0.29006682583329535,-0.5238971413125731,0.026670544316470455,0.10981840473396326,nan
1740447709.8910818,0.26331985557913457,-0.49696736660123086,0.019384553295711985,0.08787179282717371,nan
1740447709.8949876,0.2361659581441053,-0.4679348327945623,0.013021719190289608,0.0656783613442929,nan
1740447709.8988934,0.2089032601526609,-0.437179111806014,0.007768688541318644,0.04348325055169498,nan
1740447709.9027991,0.18182431282232212,-0.4050857349947195,0.003795045298417514,0.021527469821495337,nan
1740447709.906705,0.15521306226981715,-0.37204236453366846,0.0012513236762603294,4.545627391019061e-05,nan
1740447709.9106126,0.1293419478350642,-0.3384350274692291,0.0002672551568946288,-0.020737263972519328,nan
1740447709.9145186,0.104469157031874,-0.3046444472364556,0.0009502676198569437,-0.04060628930619207,nan
1740447709.9184244,0.08083606388351784,-0.27104250587196194,0.0033842517389310934,-0.05936040980190475,nan
1740447709.9223301,0.058664875295480215,-0.237988868346964,0.007628606796604784,-0.07681350874542546,nan
1740447709.926236,0.03815650777978796,-0.2058277983490954,0.013717574967063812,-0.09279628110339622,nan
1740447709.9301417,0.01948871430011583,-0.17488519249636655,0.02165986993871039,-0.10715775362388132,nan
1740447709.9340475,0.002814478281534702,-0.14546585739625956,0.03143860252165026,-0.11976659347101375,nan
1740447709.9379532,-0.011739311048372902,-0.11785105119520424,0.04301150264811045,-0.13051219462454242,nan
1740447709.941859,-0.024072890819307264,-0.09229630832796779,0.05631143395850999,-0.1393055336869575,nan
1740447709.9457648,-0.034114356101190915,-0.0690295631035601,0.07124719400627864,-0.1460797892118319,nan
1740447709.9496706,-0.041820085981880806,-0.04824958458573448,0.0877045900436046,-0.15079072117141198,nan
1740447709.9535763,-0.04717486238808493,-0.030124731974415987,0.10554777739961481,-0.15341680969344354,nan
1740447709.9574838,-0.050191683070011005,-0.014792036402024486,0.12462084466274387,-0.15395915469104288,nan
1740447709.9613895,-0.05091127330591359,-0.002356611758472448,0.14474962725876228,-0.15244114045987572,nan
1740447709.9652953,-0.049401303950548425,0.007108606117168494,0.16574372860200895,-0.1489078716993383,nan
1740447709.969201,-0.04575532642115142,0.013562795759801719,0.18739872581426836,-0.14342538970517446,nan
1740447709.9731069,-0.04009143805672687,0.016996868930130332,0.20949853507552116,-0.13607967965741322,nan
1740447709.9770126,-0.0325506939732619,0.017432782024727762,0.23181791001282048,-0.12697548196848085,nan
1740447709.9809184,-0.023295284042885365,0.01492255294472824,0.25412504516427414,-0.1162349225421831,nan
1740447709.9848242,-0.012506495924791498,0.009546999023020602,0.27618425548794423,-0.10399597850703607,nan
1740447709.98873,-0.00038248714795261277,0.0014142141137432024,0.2977587021306584,-0.09041079751118616,nan
1740447709.992636,0.012864108929273777,-0.009342194766134909,0.318613134236203,-0.07564388998702815,nan
1740447709.9965417,0.027008716896703266,-0.022565088804983525,0.33851661645985326,-0.059870214899723884,nan
1740447710.0004475,0.04181746513869856,-0.03807597254276404,0.35724521206684434,-0.043273180375902116,nan
1740447710.0043542,0.057049915088423254,-0.0556773370394643,0.37458459202323835,-0.02604258125969425,nan
1740447710.00826,0.07246184453488949,-0.07515514406667664,0.3903325413322533,-0.008372496058275829,nan
1740447710.0121658,0.0878080552372227,-0.09628142336973283,0.4043013350178986,0.009540834083826178,nan
1740447710.0160716,0.10284517501623662,-0.11881695438977756,0.4163199575979203,0.027501121803069965,nan
1740447710.0199776,0.11733442471443109,-0.14251400347527285,0.42623614160390844,0.04531412304492239,nan
1740447710.0238833,0.13104432093820467,-0.16711908755043559,0.4339182026793626,0.0627896779441306,nan
1740447710.027789,0.14375328631351997,-0.1923757354407935,0.43925665099538563,0.07974368204775253,nan
1740447710.031695,0.15525214008881602,-0.2180272185771374,0.44216556114484645,0.09599996783212118,nan
1740447710.0356007,0.16534644329413242,-0.2438192235998012,0.44258368528368014,0.11139207762653972,nan
1740447710.0395064,0.17385867429792723,-0.2695024404535915,0.4404752970547301,0.12576491040529014,nan
1740447710.0434122,0.18063021247520897,-0.2948350408856139,0.43583075672604116,0.13897622642980798,nan
1740447710.047318,0.18552310979242123,-0.31958502381705056,0.42866679097125443,0.1508979953974427,nan
1740447710.0512278,0.18842163240370186,-0.343532405836707,0.4190264837832174,0.16141757556325914,nan
1740447710.0551336,0.1892335568157265,-0.3664712370381106,0.4069789781109555,0.17043871322683116,nan
1740447710.0590394,0.1878912077886631,-0.3882114245703199,0.39261889091231594,0.17788235399593566,nan
1740447710.0629451,0.18435222787162756,-0.4085803485714016,0.37606544738738773,0.18368725933142963,nan
1740447710.0668511,0.17860007129441272,-0.42742425757721714,0.3574613431691094,0.18781042402000137,nan
1740447710.070757,0.17064421782404224,-0.44460943302031786,0.33697134616589686,0.1902272923910011,nan
