timestamps,TP9,AF7,AF8,TP10,Right AUX
1740447644.804305,0.2750913745387905,-0.4580832571448318,0.45272434420953894,0.42206421718183273,nan
1740447644.8082108,0.264328110934689,-0.5658327949767361,0.43375780259814795,0.40298747943676744,nan
1740447644.8121166,0.2512095552032462,-0.6726092380567953,0.4121812251254542,0.3812190349603651,nan
1740447644.8160224,0.23570888048136351,-0.7780856054372288,0.3879852541498374,0.35671105835637174,nan
1740447644.8199282,0.21782270825762004,-0.8819430195583735,0.36118279493199773,0.3294418124955363,nan
1740447644.823834,0.1975715306085176,-0.983872228115498,0.33180948709115554,0.29941649350610766,nan
1740447644.8277397,0.17499989770620794,-1.0835750449037072,0.2999239601690947,0.26666780812912605,nan
1740447644.8316455,0.15017636712205334,-1.180765701909043,0.2656078679830464,0.23125627520945663,nan
1740447644.835551,0.12319321380812037,-1.2751721057473537,0.22896569862363977,0.1932702458558062,nan
1740447644.8394568,0.09416590201511572,-1.3665369924210937,0.19012435917496584,0.15282563963060733,nan
1740447644.8433626,0.06323232277685246,-1.4546189752593752,0.14923253647837087,0.11006539699544833,nan
1740447644.8472683,0.030551802934279726,-1.539193481819996,0.10645983750728438,0.06515865111079516,nan
1740447644.8511772,-0.0036961060368215556,-1.6200535764553017,0.061995715145008075,0.018299624941428318,nan
1740447644.855083,-0.03931304891423265,-1.6970106661682742,0.016048187338281117,-0.030293737577602342,nan
1740447644.8589888,-0.07608348473436188,-1.7698950883029856,-0.0311576402850236,-0.08038139483365132,nan
1740447644.8628945,-0.11377648731380996,-1.8385565795165748,-0.07938123621731463,-0.13170307118593913,nan
1740447644.8668003,-0.15214771182481027,-1.902864626360603,-0.12836847525402578,-0.18398034438032573,nan
1740447644.870706,-0.19094150925682152,-1.9627086986507438,-0.17785362522617496,-0.23691893780514453,nan
1740447644.8746119,-0.22989316906573268,-2.017998367618545,-0.22756147080298186,-0.29021119651135624,nan
1740447644.8785176,-0.2687312689714245,-2.0686633116111057,-0.2772095553992192,-0.3435387239703829,nan
1740447644.8824234,-0.30718010972722887,-2.1146532128283173,-0.32651052091440314,-0.39657515481527134,nan
1740447644.8863292,-0.3449622117630029,-2.1559375492576094,-0.3751745239153111,-0.44898903732354983,nan
1740447644.890235,-0.3818008499064706,-2.1925052865785237,-0.4229117059613129,-0.5004467981682719,nan
1740447644.8941407,-0.41742260192261627,-2.224364475360057,-0.4694346950737865,-0.5506157610006162,nan
1740447644.898049,-0.45155988638323125,-2.2515417593594806,-0.5144611148741114,-0.5991671897430056,nan
1740447644.901955,-0.4839534653908999,-2.2740818011498694,-0.5577160776652289,-0.6457793270737232,nan
1740447644.9058607,-0.5143548879341091,-2.292046631653149,-0.5989346377128016,-0.6901403984770087,nan
1740447644.9097664,-0.5425288501407396,-2.305514930435249,-0.6378641811950646,-0.7319515524185474,nan
1740447644.9136722,-0.5682554494214415,-2.314581243829519,-0.6742667297340621,-0.7709297076838302,nan
1740447644.9175777,-0.591332310445716,-2.319355148094639,-0.7079211350921452,-0.8068102796823231,nan
1740447644.9214835,-0.611576562062799,-2.319960364884772,-0.7386251435103821,-0.8393497585665742,nan
1740447644.9253893,-0.6288266456556407,-2.3165338363146635,-0.7661973092723624,-0.8683281133329942,nan
1740447644.929295,-0.6429439369860549,-2.309224766843096,-0.7904787383875729,-0.893550997647362,nan
1740447644.9332008,-0.6538141653375177,-2.298193639077737,-0.8113346447912769,-0.9148517349585334,nan
1740447644.9371066,-0.6613486156719864,-2.283611210426396,-0.8286557031386051,-0.9320930625106578,nan
1740447644.9410124,-0.6654851015702014,-2.2656574972882697,-0.8423591841137064,-0.945168616118075,nan
1740447644.9449203,-0.6661886989010357,-2.244520753198255,-0.8523898601629197,-0.9540041400060121,nan
1740447644.948826,-0.6634522324435511,-2.220396447012911,-0.858720671675282,-0.9585584086207438,nan
1740447644.9527318,-0.6572965100431662,-2.193486246863169,-0.8613531458539921,-0.9588238500497855,nan
1740447644.9566376,-0.647770301297762,-2.1639970152021424,-0.8603175628276671,-0.9548268635392374,nan
1740447644.9605434,-0.6349500602170474,-2.13213981985184,-0.8556728659181536,-0.9466278265239534,nan
1740447644.9644492,-0.6189393937550224,-2.098128965506102,-0.8475063153894324,-0.9343207895680785,nan
1740447644.968355,-0.599868280557008,-2.0621810496846433,-0.83593288742672,-0.9180328606195288,nan
1740447644.9722607,-0.5778920466653068,-2.024514046660311,-0.8210944225125362,-0.8979232829827059,nan
1740447644.9761662,-0.5531901072677488,-1.9853464224046096,-0.8031585297539577,-0.8741822143797099,nan
1740447644.980072,-0.5259644858279814,-1.9448962831206644,-0.7823172560491525,-0.8470292173722964,nan
1740447644.9839778,-0.4964381240833807,-1.9033805594636524,-0.7587855312389011,-0.8167114742263449,nan
1740447644.9878836,-0.46485299841466476,-1.8610142280915731,-0.7327994025479314,-0.7835017419898024,nan
1740447644.9917989,-0.43146805996089105,-1.818009571748846,-0.7046140736604692,-0.7476960660975407,nan
1740447644.9957047,-0.39655701755604944,-1.7745754786663486,-0.6745017656741761,-0.709611273186951,nan
1740447644.9996104,-0.3604059840821737,-1.7309167816681426,-0.6427494189179687,-0.6695822659830255,nan
1740447645.0035162,-0.3233110081538248,-1.6872336370111274,-0.609656256184705,-0.6279591450694595,nan
1740447645.007422,-0.2855755141568393,-1.6437209426523862,-0.5755312293038154,-0.5851041840833562,nan
1740447645.0113277,-0.2475076745495546,-1.6005677953428132,-0.5406903721477901,-0.541388686338345,nan
1740447645.0152333,-0.20941773898842836,-1.5579569856870072,-0.5054540841182962,-0.49718975207938915,nan
1740447645.019139,-0.17161534525568084,-1.5160645300899604,-0.4701443688826351,-0.45288698649028203,nan
1740447645.0230448,-0.13440683714009702,-1.4750592383320138,-0.43508205362195823,-0.4088591792022964,nan
1740447645.0269506,-0.09809261435166812,-1.4351023153753466,-0.4005840143035325,-0.3654809863831336,nan
1740447645.0308564,-0.06296453923704107,-1.396346995908041,-0.3669604324976821,-0.3231196465155878,nan
1740447645.0347621,-0.029303424508672647,-1.3589382100748655,-0.334512109024916,-0.2821317607043723,nan
1740447645.0386734,0.0026233745882440263,-1.3230122788264322,-0.303527859242166,-0.24286016777975009,nan
1740447645.0425792,0.032564241263112796,-1.2886966373385889,-0.27428201406279457,-0.2056309436029261,nan
1740447645.046485,0.0602854301467311,-1.2561095850098611,-0.2470320498597471,-0.17075055282888385,nan
1740447645.0503907,0.08557303250110548,-1.2253600606339032,-0.22201636923329135,-0.13850317995812106,nan
1740447645.0542965,0.10823475556509544,-1.1965474414633506,-0.19945225324526852,-0.1091482648233373,nan
1740447645.0582023,0.1281014997329098,-1.1697613650278553,-0.17953400414329349,-0.0829182657265283,nan
1740447645.0621078,0.14502871922391708,-1.145081572738903,-0.16243129583600713,-0.06001667128486162,nan
1740447645.0660136,0.15889755400155642,-1.1225777745032142,-0.14828774745068096,-0.04061627968083003,nan
1740447645.0699193,0.169615722915751,-1.102309533771118,-0.13721973322570374,-0.02485776146647216,nan
1740447645.0738251,0.1771181703552513,-1.0843261726619118,-0.12931543978238486,-0.012848519367444968,nan
1740447645.077731,0.1813674610810887,-1.0686666970303864,-0.1246341795042352,-0.00466185569682564,nan
1740447645.0816367,0.18235392034627765,-1.0553597415630893,-0.12320596634948842,-0.0003364550480707736,nan
1740447645.0855472,0.18009551886607672,-1.044423535214865,-0.125031357957233,0.00012381307959327383,nan
1740447645.089453,0.17463750466345113,-1.0358658875113982,-0.1300815654026146,-0.003250229867173064,nan
1740447645.0933588,0.1660517862513729,-1.0296841964476244,-0.1382988294364678,-0.010393515678423162,nan
1740447645.0972643,0.15443607400363588,-1.0258654789006905,-0.1495970595333731,-0.021207489043160402,nan
1740447645.10117,0.13991278888503808,-1.0243864246457868,-0.16386272959405482,-0.035561175114155304,nan
1740447645.1050758,0.1226277499376135,-1.0252134752099995,-0.1809560217268855,-0.0532925444486453,nan
1740447645.1089816,0.10274865403000459,-1.0283029289198604,-0.20071220719251764,-0.07421016195034816,nan
1740447645.1128874,0.08046336335131776,-1.0336010735896701,-0.22294325135808868,-0.09809510371996019,nan
1740447645.1167932,0.0559780179496569,-1.041044348357221,-0.24743962739443778,-0.12470312315917309,nan
1740447645.120699,0.02951499226094374,-1.0505595361991409,-0.27397232148209016,-0.15376704529246624,nan
1740447645.1246047,0.0013107160296492236,-1.0620639886479972,-0.3022950104883368,-0.18499936609472079,nan
1740447645.1285105,-0.028386618724660456,-1.0754658841863327,-0.33214639145610947,-0.21809503166248456,nan
1740447645.1324203,-0.05931944200463724,-1.090664521708214,-0.36325264082136594,-0.25273437036153945,nan
1740447645.136326,-0.09122325789562423,-1.1075506503164831,-0.3953299800631534,-0.28858614964013757,nan
1740447645.1402318,-0.1238291403118962,-1.126006836564007,-0.4280873235012978,-0.3253107280299093,nan
1740447645.1441376,-0.15686624801397345,-1.1459078700506937,-0.4612289832004191,-0.36256327197664284,nan
1740447645.1480434,-0.19006433438727033,-1.1671212080561786,-0.49445740542313865,-0.3999970065593957,nan
1740447645.1519492,-0.22315622762046994,-1.1895074596228619,-0.5274759128050176,-0.4372664688745787,nan
1740447645.155855,-0.25588025731142044,-1.2129209092075637,-0.5599914264016533,-0.4740307328845131,nan
1740447645.1597607,-0.2879826041549886,-1.2372100796954824,-0.5917171419847701,-0.5099565748572424,nan
1740447645.1636665,-0.31921955022464105,-1.262218334220422,-0.6223751354369428,-0.5447215491529781,nan
1740447645.1675723,-0.34935960843878344,-1.2877845158642367,-0.6516988728093475,-0.5780169450362194,nan
1740447645.171478,-0.37818551109300086,-1.313743623919933,-0.6794356015566374,-0.6095505964022798,nan
1740447645.1753838,-0.40549603882728735,-1.339927525001384,-0.7053486006386954,-0.6390495177907998,nan
1740447645.1792932,-0.4311076730679007,-1.3661656968725584,-0.7292192685691649,-0.6662623418021849,nan
1740447645.183199,-0.4548560568198543,-1.3922860024554873,-0.7508490300817916,-0.6909615350186606,nan
1740447645.1871047,-0.4765972506695575,-1.4181154910637797,-0.7700610438625236,-0.712945371740242,nan
1740447645.1910105,-0.4962087729677701,-1.4434812235024521,-0.7867016957404124,-0.7320396472555185,nan
1740447645.1949162,-0.5135904153795077,-1.4682111172803036,-0.8006418638251458,-0.7480991149542001,nan
1740447645.198822,-0.5286648272873795,-1.4921348078031462,-0.8117779443027751,-0.7610086343270689,nan
1740447645.2027278,-0.5413778648949655,-1.5150845210599382,-0.8200326289325903,-0.770684019762653,nan
1740447645.2066333,-0.5516987032732616,-1.5368959529842503,-0.8253554277041021,-0.7770725830099726,nan
1740447645.210539,-0.5596197120019047,-1.5574091503751497,-0.827722932590545,-0.7801533652042132,nan
1740447645.2144449,-0.5651560974533962,-1.576469387999159,-0.8271388208497105,-0.779937057416937,nan
1740447645.2183506,-0.5683453171287588,-1.593928036272502,-0.8236335988500323,-0.7764656117644759,nan
1740447645.2222564,-0.5692462737531077,-1.6096434137443658,-0.8172640899148171,-0.7698115481567926,nan
1740447645.2261655,-0.5679382990562817,-1.623481618470715,-0.808112672155913,-0.7600769647644524,nan
1740447645.230071,-0.5645199392745871,-1.6353173322874548,-0.7962862746856694,-0.7473922631935754,nan
1740447645.2339768,-0.5591075563934303,-1.6450345919638445,-0.7819151429291501,-0.7319146021590639,nan
1740447645.2378826,-0.5518337609872593,-1.6525275212441433,-0.7651513859844583,-0.7138260961071545,nan
1740447645.2417884,-0.542845694184051,-1.6577010178689244,-0.7461673210758696,-0.693331777733178,nan
1740447645.2456942,-0.5323031777697291,-1.6604713898082346,-0.7251536320918143,-0.6706573456444693,nan
1740447645.2496,-0.520376752738389,-1.6607669351371255,-0.7023173609784918,-0.646046720508901,nan
1740447645.2535057,-0.5072456276737776,-1.6585284602397274,-0.6778797523526555,-0.6197594348856825,nan
1740447645.2574115,-0.4930955592053231,-1.6537097313400375,-0.652073973088244,-0.592067883538465,nan
1740447645.2613173,-0.4781166874094261,-1.6462778547244834,-0.6251427298075047,-0.5632544623654968,nan
1740447645.265223,-0.4625013494171618,-1.6362135814409287,-0.5973358081564129,-0.5336086251342228,nan
1740447645.2691288,-0.4464418946392639,-1.623511532728405,-0.5689075584573843,-0.5034238879679381,nan
1740447645.2730372,-0.43012852492651993,-1.6081803429481973,-0.5401143528024229,-0.47299481199219734,nan
1740447645.276943,-0.4137471826495046,-1.5902427173461544,-0.511212038872353,-0.4426139947040367,nan
1740447645.2808487,-0.3974775091093646,-1.5697354025738626,-0.48245341574061607,-0.4125691004762527,nan
1740447645.2847545,-0.38149089488674165,-1.5467090685278022,-0.45408575664332107,-0.3831399601531582,nan
1740447645.2886603,-0.3659486427073261,-1.5212281007255826,-0.42634840317388906,-0.3545957689382892,nan
1740447645.292566,-0.35100026216015573,-1.4933703031210592,-0.39947045459560765,-0.3271924107255422,nan
1740447645.2964718,-0.33678191416148423,-1.4632265119597947,-0.3736685749665071,-0.30116993569398287,nan
1740447645.3003776,-0.32341502142747114,-1.4309001219864437,-0.3491449395479784,-0.27675021638603003,nan
1740447645.3042834,-0.3110050594196754,-1.3965065270299628,-0.32608534053349014,-0.25413480563494906,nan
1740447645.3081892,-0.2996405402769251,-1.3601724777043491,-0.30465747050109715,-0.23350301761913111,nan
1740447645.312095,-0.289392200165386,-1.3220353596651104,-0.28500940017892207,-0.215010251018126,nan
1740447645.3160007,-0.2803123982870253,-1.2822423965483545,-0.26726826513484053,-0.1987865707520566,nan
1740447645.3199124,-0.27243473350766234,-1.2409497823832967,-0.25153917387949726,-0.1849355621266752,nan
1740447645.3238182,-0.2657738822227946,-1.1983217489037787,-0.23790434762666102,-0.17353346840754968,nan
1740447645.327724,-0.2603256586966216,-1.1545295737835368,-0.226422499609169,-0.1646286199368021,nan
1740447645.3316298,-0.2560672967117484,-1.1097505363773636,-0.21712845942544154,-0.1582411599135956,nan
1740447645.3355355,-0.25295794897869633,-1.0641668280601606,-0.21003304541494053,-0.15436306891522367,nan
1740447645.3394413,-0.2509393984004796,-1.0179644247126773,-0.20512318555565867,-0.15295848716990598,nan
1740447645.343347,-0.24993697299247383,-0.971331929301479,-0.20236228486758703,-0.15396433053593897,nan
1740447645.3472526,-0.24986065404570573,-0.9244593928368623,-0.2016908348182465,-0.15729119312571269,nan
1740447645.3511584,-0.2506063650155474,-0.8775371222620088,-0.20302725778449918,-0.16282452656757507,nan
1740447645.3550642,-0.2520574266398803,-0.8307544840262635,-0.20626897725343293,-0.17042608305351797,nan
1740447645.35897,-0.2540861619619123,-0.7842987122222181,-0.21129370216780272,-0.17993560660499144,nan
1740447645.3628757,-0.25655563327242803,-0.7383537302182058,-0.21796091166116546,-0.19117275443038487,nan
1740447645.3667872,-0.25932149151215284,-0.6930989946933374,-0.22611352440608215,-0.20393922787201257,nan
1740447645.370693,-0.26223391740290997,-0.648708370880726,-0.23557973493597842,-0.21802109027195363,nan
1740447645.3745987,-0.2651396325203536,-0.6053490476459434,-0.24617499761610923,-0.23319124714722575,nan
1740447645.3785045,-0.26788395769292855,-0.5631805007728032,-0.2577041374487396,-0.24921206237539392,nan
1740447645.3824103,-0.27031289552072674,-0.5223535124987446,-0.2699635656170527,-0.2658380826693577,nan
1740447645.386316,-0.27227521346125233,-0.48300925493953456,-0.2827435766146811,-0.2828188414797217,nan
1740447645.3902218,-0.2736245038311158,-0.44527844457068017,-0.2958307029837889,-0.2999017126167257,nan
1740447645.3941276,-0.2742211972255625,-0.4092805743943484,-0.3090101031029274,-0.3168347833404947,nan
1740447645.3980331,-0.2739345062608327,-0.37512322982004037,-0.3220679571326122,-0.33336971643442675,nan
1740447645.401939,-0.27264427719453455,-0.34290149362962435,-0.3347938461452577,-0.3492645708548587,nan
1740447645.4058447,-0.27024272787091613,-0.3126974446880419,-0.3469830896380755,-0.3642865509407687,nan
1740447645.4097505,-0.26663605156283193,-0.2845797543060427,-0.35843901705126896,-0.3782146548667236,nan
1740447645.4136617,-0.2617458676298547,-0.25860338336722855,-0.3689751495855798,-0.39084219402446413,nan
1740447645.4175675,-0.25551050146934967,-0.23480938250533467,-0.37841726952651034,-0.4019791563137882,nan
1740447645.4214733,-0.24788607798931564,-0.21322479676634118,-0.38660535542859914,-0.41145438789949096,nan
1740447645.4253788,-0.2388474147611976,-0.19386267532128554,-0.3933953628808378,-0.4191175698327651,nan
1740447645.4292846,-0.22838870309852066,-0.17672218591726957,-0.3986608321502719,-0.42484096802462973,nan
1740447645.4331903,-0.2165239675323106,-0.16178883287414622,-0.40229430576956615,-0.4285209373751895,nan
1740447645.437096,-0.20328729649448354,-0.1490347765606908,-0.40420854107842163,-0.4300791633829929,nan
1740447645.441002,-0.18873283945202615,-0.13841925142473943,-0.40433750482884484,-0.42946362725832454,nan
1740447645.4449077,-0.17293456823315081,-0.12988907881479808,-0.4026371391997044,-0.4266492834162626,nan
1740447645.4488134,-0.15598580282624136,-0.12337927002375637,-0.39908589091436353,-0.4216384412011195,nan
1740447645.4527192,-0.13799850448701143,-0.1188137142160872,-0.39368499759310244,-0.41446084576365616,nan
1740447645.456625,-0.11910234153272505,-0.11610594517566238,-0.38645852797508323,-0.40517345614541683,nan
1740447645.460539,-0.09944353570790623,-0.1151599801387913,-0.37745317518770394,-0.3938599217889274,nan
1740447645.4644449,-0.07918349944759122,-0.11587122336286691,-0.36673780479866974,-0.3806297618563513,nan
1740447645.4683506,-0.05849727671616731,-0.11812742653087803,-0.3544027619322683,-0.365617254870365,nan
1740447645.4722564,-0.03757180233702034,-0.12180969761151084,-0.3405589442403282,-0.3489800492574049,nan
1740447645.4761622,-0.016603996826907823,-0.12679354938820336,-0.32533664996472655,-0.3308975083438228,nan
1740447645.480068,0.004201284313760817,-0.1329499785424916,-0.3088842126871979,-0.31156880619905086,nan
1740447645.4839737,0.02463342614881886,-0.14014656593061364,-0.2913664366093921,-0.2912107934073979,nan
1740447645.4878795,0.04447833243377263,-0.1482485885301359,-0.2729628483186071,-0.27005565435339873,nan
1740447645.4917853,0.06352078273097964,-0.1571201334572263,-0.25386578295058243,-0.24834837989864844,nan
1740447645.495691,0.08154684382278088,-0.1666252044660583,-0.2342783244397859,-0.22634408138635273,nan
1740447645.4995968,0.09834630988289363,-0.17662881143987483,-0.21441212113122987,-0.20430517371155532,nan
1740447645.5035026,0.11371514527550286,-0.18699803356781125,-0.19448509939929143,-0.18249845672057424,nan
1740447645.5074124,0.1274579035277642,-0.19760304717126784,-0.1747190990635348,-0.1611921254358157,nan
1740447645.5113182,0.13939009597040725,-0.20831810949599147,-0.15533745529680287,-0.1406527405277794,nan
1740447645.515224,0.14934048376557982,-0.21902249021818965,-0.13656255237675885,-0.1211421910639561,nan
1740447645.5191298,0.1571532675411404,-0.2296013429209404,-0.11861337503092177,-0.10291468184645174,nan
1740447645.5230355,0.16269014962347086,-0.2399465093763517,-0.10170308326201821,-0.086213777602075,nan
1740447645.526941,0.16583224490102313,-0.24995725011409764,-0.08603663641272094,-0.07126953590905716,nan
1740447645.5308468,0.1664818176500593,-0.25954089546212095,-0.07180849183660037,-0.05829576003546477,nan
1740447645.5347526,0.16456382320130264,-0.26861341200395594,-0.05920040288831692,-0.04748740183112707,nan
1740447645.5386584,0.16002723510812294,-0.2770998802021957,-0.04837934003610162,-0.03901814346619072,nan
1740447645.5425642,0.15284614047726897,-0.28493487978159265,-0.03949555774140296,-0.03303818515699149,nan
1740447645.54647,0.14302058832381934,-0.29206278034015143,-0.03268082835482817,-0.029672264078778328,nan
1740447645.5503757,0.1305771781923988,-0.2984379355541795,-0.028046862657141177,-0.029017927452863534,nan
1740447645.554285,0.11556937882429714,-0.3040247802550021,-0.025683934844269722,-0.03114408033367579,nan
1740447645.5581908,0.09807756932076635,-0.30879783057230187,-0.025659727733647508,-0.03608982593233629,nan
1740447645.5620966,0.07820879803062737,-0.3127415882530837,-0.028018411774985364,-0.043863613423432334,nan
1740447645.5660024,0.05609625724827464,-0.31585035116727833,-0.032779969103252385,-0.05444270511864238,nan
1740447645.5699081,0.03189847471827073,-0.3181279328923936,-0.039939771397859446,-0.06777297168434607,nan
1740447645.573814,0.005798225875898088,-0.31958729512185746,-0.04946841773427929,-0.08376902076193099,nan
1740447645.5777197,-0.02199882631989502,-0.32025009745659994,-0.061311835957920224,-0.10231466095174022,nan
1740447645.5816255,-0.0512657542134064,-0.32014616990902733,-0.0753916484013701,-0.1232636996781473,nan
1740447645.5855312,-0.08175623836504081,-0.31931291416543656,-0.09160580003218609,-0.14644106999855336,nan
1740447645.589437,-0.11320667524432847,-0.3177946403100841,-0.10982944438666739,-0.17164427798772272,nan
1740447645.5933428,-0.14533850178800878,-0.3156418463051021,-0.12991607994291188,-0.19864515895542703,nan
1740447645.5972483,-0.17786071644886153,-0.3129104480395149,-0.15169892694155218,-0.22719192747427622,nan
1740447645.6011574,-0.2104725740779776,-0.3096609682025094,-0.17499253210163354,-0.25701150303926235,nan
1740447645.6050632,-0.24286642990104515,-0.30595769259661093,-0.19959458622863196,-0.28781209018364384,nan
1740447645.608969,-0.2747307059909419,-0.3018678027817493,-0.22528793739681194,-0.3192859890683916,nan
1740447645.6128747,-0.30575295202531977,-0.29746049412872705,-0.2518427802332685,-0.3511126099741155,nan
1740447645.6167803,-0.3356229707676851,-0.2928060884582452,-0.27901899985867834,-0.38296166278263866,nan
1740447645.620686,-0.36403597763987455,-0.2879751504484902,-0.3065686472711381,-0.41449649046551285,nan
1740447645.6245918,-0.39069576297653524,-0.2830376169099758,-0.334238521413448,-0.4453775138214292,nan
1740447645.6284976,-0.4153178250790317,-0.27806194785181537,-0.3617728318580998,-0.4752657532437412,nan
1740447645.6324034,-0.43763244202518214,-0.27311430800018743,-0.38891591499249883,-0.5038263921701263,nan
1740447645.6363091,-0.4573876503473225,-0.26825778708023784,-0.41541497580222747,-0.5307323460826604,nan
1740447645.640215,-0.4743520991663068,-0.2635516667401211,-0.4410228268419162,-0.5556678004987087,nan
1740447645.6441207,-0.48831774916204934,-0.25905074148460494,-0.4655005957588503,-0.5783316813282416,nan
1740447645.648029,-0.4991023868677668,-0.2548047004006189,-0.4886203727979819,-0.5984410212749752,nan
1740447645.6519349,-0.5065519261877014,-0.2508575758039141,-0.5101677700700697,-0.6157341866270597,nan
1740447645.6558406,-0.5105424707463803,-0.24724726422108562,-0.5299443650059059,-0.6299739298143083,nan
1740447645.6597464,-0.5109821126678848,-0.24400512435164234,-0.5477700013447645,-0.6409502344958926,nan
1740447645.6636522,-0.5078124456397684,-0.2411556558380073,-0.5634849222072994,-0.6484829216743018,nan
1740447645.667558,-0.5010097726191224,-0.23871626181560868,-0.5769517112722709,-0.6524239873938533,nan
1740447645.6714637,-0.49058599126606556,-0.2366970973288839,-0.5880570198002157,-0.6526596449575974,nan
1740447645.6753695,-0.4765891431185891,-0.23510100479096863,-0.5967130592102888,-0.6491120472642555,nan
1740447645.6792753,-0.45910361562588553,-0.23392353674414088,-0.6028588411014781,-0.6417406678030404,nan
1740447645.6831808,-0.43824998940680115,-0.23315306525403823,-0.606461148996309,-0.630543322022249,nan
1740447645.6870866,-0.41418452646594833,-0.23277097635240923,-0.6075152286519294,-0.6155568141780893,nan
1740447645.6909924,-0.38709829855089345,-0.2327519470401672,-0.6060451865062111,-0.596857198341932,nan
1740447645.6949008,-0.3572159583372515,-0.23306430148385762,-0.6021040886795211,-0.5745596459634674,nan
1740447645.6988065,-0.32479415965108555,-0.23367044219327687,-0.5957737559089872,-0.548817916218931,nan
1740447645.7027123,-0.29011963644596,-0.2345273511646279,-0.5871642528229957,-0.5198234292810693,nan
1740447645.706618,-0.2535069537111948,-0.23558715522055254,-0.5764130730401678,-0.48780394659321596,nan
1740447645.7105236,-0.21529594686447842,-0.23679774908335466,-0.5636840246690207,-0.4530218661755473,nan
1740447645.7144294,-0.17584886944254854,-0.23810346908822794,-0.5491658238617277,-0.41577214489865494,nan
1740447645.7183352,-0.13554727201542818,-0.23944580988571476,-0.5330704071073975,-0.37637986348956654,nan
1740447645.722241,-0.0947886381811529,-0.24076417600316521,-0.5156309759067441,-0.3351974537501901,nan
1740447645.7261467,-0.05398280621889137,-0.24199665973871173,-0.4970997903214418,-0.29260161103066745,nan
1740447645.7300525,-0.013548207460358756,-0.24308083655267845,-0.47774573060861764,-0.24898991837418227,nan
1740447645.7339582,0.02609204534401603,-0.24395456890401288,-0.4578516487062606,-0.20477721190092396,nan
1740447645.737864,0.06451418446077556,-0.24455680935582563,-0.437711533702059,-0.16039171989445697,nan
1740447645.7417793,0.10129789159192436,-0.2448283937463166,-0.41762751757167166,-0.1162710106633339,nan
1740447645.745685,0.13603044217181687,-0.24471281528990943,-0.3979067493894623,-0.07285778654639907,nan
1740447645.7495909,0.16831085049889127,-0.24415697063826353,-0.37885816787452814,-0.030595563386837183,nan
1740447645.7534966,0.1977539760786785,-0.24311186919072944,-0.3607892035187705,0.010075723604532556,nan
1740447645.7574024,0.22399455134319524,-0.2415332972967778,-0.3440024426357305,0.04872414546058929,nan
1740447645.7613082,0.24669109107542528,-0.23938242943577936,-0.3287922864555488,0.08493019358732848,nan
1740447645.765214,0.26552964440882426,-0.23662637898844116,-0.31544163886223175,0.1182911390411082,nan
1740447645.7691195,0.28022735118980274,-0.2332386818241926,-0.3042186565166855,0.14842529358433665,nan
1740447645.7730253,0.2905357657816331,-0.22919970661429007,-0.29537359492836235,0.17497612956952116,nan
1740447645.776931,0.2962439130431856,-0.22449698653482936,-0.2891357835282652,0.1976162165392426,nan
1740447645.7808368,0.29718104322397143,-0.21912546783994039,-0.2857107619583496,0.21605093368158934,nan
1740447645.7847426,0.2932190548632136,-0.2130876716554299,-0.2852776086318243,0.23002191893872156,nan
1740447645.7886574,0.2842745574469816,-0.20639376625836492,-0.2879864911436378,0.23931021761861704,nan
1740447645.7925632,0.27031054854238507,-0.19906154805968562,-0.29395646633154154,0.24373909579073819,nan
1740447645.796469,0.25133768336709567,-0.19111633048541699,-0.30327355571977155,0.2431764865358103,nan
1740447645.8003747,0.2274151182388832,-0.18259074094760325,-0.31598911973650123,0.23753704024490008,nan
1740447645.8042805,0.1986509130536946,-0.1735244270987347,-0.3321185515025699,0.22678375359704472,nan
1740447645.8081863,0.16520198182995258,-0.16396367456304115,-0.35164030816494185,0.21092915555801084,nan
1740447645.812092,0.12727358439722963,-0.15396093932423946,-0.374495294718523,0.19003603270289574,nan
1740447645.8159976,0.08511835646329284,-0.1435742989121623,-0.4005866120513452,0.16421768033688233,nan
1740447645.8199034,0.03903487952761081,-0.1328668274599885,-0.4297796775894067,0.13363767023415601,nan
1740447645.8238091,-0.0106342036166973,-0.12190590058985404,-0.46190272343922173,0.09850913029530171,nan
1740447645.827715,-0.06350451777572022,-0.11076243691807362,-0.4967476733601581,0.05909353599733024,nan
1740447645.8316207,-0.11915271438964935,-0.0995100837429449,-0.5340713962779594,0.01569901813572094,nan
1740447645.8355312,-0.17711964229896623,-0.08822435517990887,-0.5735973304092242,-0.03132180400874658,nan
1740447645.839437,-0.23691390779045784,-0.07698173163269706,-0.615017468438261,-0.08157445034743964,nan
1740447645.8433428,-0.2980157975865324,-0.06585873002806009,-0.6579946906071441,-0.13462565025532433,nan
1740447645.8472486,-0.35988153474920015,-0.054930954689344585,-0.7021654290812243,-0.1900068327888483,nan
1740447645.8511543,-0.4219478340068728,-0.04427213907513145,-0.747142643569501,-0.24721800996963578,nan
1740447645.85506,-0.4836367198119538,-0.03395318885879408,-0.7925190849453337,-0.30573202222594,nan
1740447645.8589659,-0.54436056753207,-0.024041236969612845,-0.837870820559571,-0.3649991113014125,nan
1740447645.8628716,-0.6035273255974055,-0.014598721253329762,-0.8827609920960442,-0.42445178244109877,nan
1740447645.8667772,-0.6605458741978519,-0.0056824953383180455,-0.9267437742170097,-0.48350991448294145,nan
1740447645.870683,-0.714831474270549,0.002657016887790224,-0.9693684999104456,-0.541586073652026,nan
1740447645.8745887,-0.765811259061675,0.010376613076331372,-1.0101839164065087,-0.5980909844039858,nan
1740447645.8784945,-0.8129297195032948,0.017441040773554944,-1.0487425337988876,-0.6524391086196579,nan
1740447645.8824046,-0.8556541340305244,0.023823653119133644,-1.0846050271075993,-0.7040542828380064,nan
1740447645.88631,-0.8934798932860509,0.029506983274858994,-1.1173446514691603,-0.7523753620474227,nan
1740447645.8902159,-0.9259356704243906,0.03448322966986216,-1.1465516294512637,-0.7968618178516979,nan
1740447645.8941216,-0.952588388439075,0.03875464493744351,-1.1718374691721536,-0.8369992385970049,nan
1740447645.8980274,-0.9730479370905344,0.042333822290798774,-1.1928391719662772,-0.8723046792965843,nan
1740447645.9019332,-0.9869715936046651,0.04524387403278742,-1.209223288780738,-0.9023318099225391,nan
1740447645.905839,-0.9940681033320767,0.047518497910012024,-1.2206897853112664,-0.9266758118469043,nan
1740447645.9097447,-0.994101378991877,0.04920192809470892,-1.2269756770878475,-0.9449779739000697,nan
1740447645.9136505,-0.9868937799537999,0.05034876869932447,-1.2278583972916002,-0.9569299416625551,nan
1740447645.9175563,-0.9723289362171007,0.05102370888783743,-1.2231588620149656,-0.9622775762004839,nan
1740447645.921462,-0.95035408529883,0.05130111983390312,-1.2127441999526307,-0.9608243814760534,nan
1740447645.9253678,-0.9209818941195628,0.05126453497744563,-1.1965301161132582,-0.9524344630880816,nan
1740447645.9292772,-0.8842917421398774,0.051006016236967364,-1.174482862051407,-0.9370349847965608,nan
1740447645.933183,-0.840430446421505,0.050625410032626314,-1.14662078831134,-0.9146180934277134,nan
1740447645.9370887,-0.7896124139262174,0.05022949815356159,-1.1130154582232765,-0.885242287207573,nan
1740447645.9409945,-0.7321192111840539,0.04993104965004518,-1.073792305869152,-0.8490332072948533,nan
1740447645.9449003,-0.6682985464192731,0.04984778103545569,-1.0291308249077218,-0.8061838372370962,nan
1740447645.948806,-0.5985626642749132,0.05010123313344931,-0.9792642789845971,-0.7569541002150341,nan
1740447645.9527118,-0.5233861583811957,0.05081557389121534,-0.9244789286165569,-0.7016698492235814,nan
1740447645.9566176,-0.4433032121246214,0.052116337389978395,-0.8651127736945473,-0.6407212507174018,nan
1740447645.9605234,-0.35890428304846206,0.05412911010924915,-0.8015538150587704,-0.5745605676766656,nan
1740447645.9644291,-0.2708322513065077,0.05697817623257269,-0.7342378429236553,-0.5036993534759441,nan
1740447645.968335,-0.17977805745561468,0.06078513441157774,-0.6636457642315067,-0.4287050733170668,nan
1740447645.9722407,-0.08647585956523399,0.06566749892448384,-0.5903004852524237,-0.350197175266582,nan
1740447645.9761496,0.008302255899169136,0.07173729856857983,-0.5147633698859848,-0.26884263807176284,nan
1740447645.9800553,0.10375197073789474,0.07909968690813066,-0.437630298119242,-0.18535102786869176,nan
1740447645.983961,0.19904279661301594,0.08785157765539317,-0.3595273529187822,-0.10046910059601702,nan
1740447645.9878669,0.2933244553681621,0.09808031898987302,-0.28110616744627226,-0.014974991344385536,nan
1740447645.9917724,0.3857335286268811,0.10986242051757425,-0.2030389678529763,0.07032796403722755,nan
1740447645.9956782,0.4754003243854297,0.12326234633712191,-0.12601334999717193,0.15461772603029783,nan
1740447645.999584,0.5614559059005234,0.138331387313744,-0.05072683120934564,0.23706031485627685,nan
1740447646.0034897,0.643039226205168,0.15510662516685153,0.02211877932367417,0.31681678493918186,nan
1740447646.0073955,0.7193043100867269,0.17361000035542465,0.09182314589735496,0.3930503527224129,nan
1740447646.0113013,0.7894274243473515,0.1938474950016824,0.1576932599859957,0.46493361819689627,nan
1740447646.015207,0.8526141766501996,0.2158084412329572,0.21904933362432538,0.5316558190615519,nan
1740447646.0191128,0.9081064832436603,0.23946496435092834,0.275230682906731,0.5924300555253726,nan
1740447646.0230212,0.9551893463536855,0.2647715691638369,0.3256015515665211,0.6465004233848316,nan
1740447646.026927,0.993197383040772,0.2916648766498464,0.36955682455929534,0.6931489931780818,nan
1740447646.0308328,1.0215210488278421,0.3200635168678108,0.40652758197155126,0.73170257393067,nan
1740447646.0347385,1.0396125014087862,0.3498681827059402,0.4359864444079013,0.7615392012637822,nan
1740447646.0386443,1.0469910522307615,0.3809618476705439,0.45745266227351844,0.7820942914278641,nan
1740447646.04255,1.0432481566883374,0.4132101494781063,0.4704969030547282,0.7928664051396505,nan
1740447646.0464559,1.0280518970519055,0.44646193973712417,0.474745692798244,0.7934225679221977,nan
1740447646.0503616,1.001150916050271,0.48054999850440316,0.469885470482918,0.7834030969539244,nan
1740447646.0542674,0.9623777632078782,0.5152919109873801,0.455666216847955,0.7625258881979331,nan
1740447646.0581732,0.9116516205674519,0.5504911021532218,0.4319046224658181,0.7305901217768482,nan
1740447646.0620787,0.8489803792721037,0.5859380235107028,0.3984867634007956,0.6874793481469627,nan
1740447646.0659845,0.774462043597764,0.6214114848661138,0.35537025664653427,0.6331639225707303,nan
1740447646.069893,0.6882854443749051,0.6566801224332958,0.30258587165624323,0.5677027606475928,nan
1740447646.0737987,0.5907302492737503,0.691503993313806,0.24023857863356518,0.49124439319545943,nan
1740447646.0777044,0.48216626310321953,0.7256362850692617,0.16850801880393604,0.4040273045322883,nan
1740447646.08161,0.3630520170433405,0.758825127896596,0.08764838659738576,0.30637954414004465,nan
1740447646.0855157,0.23393265154502224,0.7908154958002115,-0.0020122814958078413,0.19871760775121797,nan
1740447646.0894215,0.09543710344091223,0.8213511821440462,-0.10007341172639755,0.08154459002890693,nan
1740447646.0933273,-0.0517253864329193,0.8501768340716637,-0.20606378692910843,-0.04455238283762288,nan
1740447646.097233,-0.20676942315150892,0.8770400295130234,-0.3194440198531378,-0.17890542618249028,nan
1740447646.1011388,-0.36883823769680313,0.9016933798609814,-0.43960959153612056,-0.32076985508745615,nan
1740447646.1050446,-0.5370090642762836,0.9238966409059076,-0.5658944354787775,-0.4693288014189023,nan
1740447646.1089504,-0.7102990771467208,0.9434188142692241,-0.697575043711816,-0.6236984576149889,nan
1740447646.1128561,-0.8876718443541193,0.9600402213808005,-0.833875066354921,-0.7829339097012159,nan
1740447646.1167676,-1.0680442513592137,0.9735545320044646,-0.9739703719892195,-0.946035516843032,nan
1740447646.1206734,-1.2502938434445114,0.9837707294324476,-1.116994532137318,-1.11195578991017,nan
1740447646.1245792,-1.433266532129523,0.9905149947440528,-1.2620446894044552,-1.2796067170721985,nan
1740447646.1284847,-1.6157846075880524,0.9936324929554312,-1.408187765413988,-1.4478674804085034,nan
1740447646.1323905,-1.7966549962938012,0.9929890444739986,-1.5544669616009084,-1.6155925039348973,nan
1740447646.1362963,-1.9746777008431196,0.9884726660090811,-1.6999085032362076,-1.7816197703560888,nan
1740447646.140202,-2.1486543571371097,0.979994965974953,-1.8435285747671346,-1.9447793412767325,nan
1740447646.1441078,-2.3173968428659766,0.9674923804472243,-1.9843403926949725,-2.103902013567777,nan
1740447646.1480136,-2.479735870538424,0.9509272368909237,-2.121361360790293,-2.2578280431088276,nan
1740447646.1519194,-2.6345294981454046,0.9302886341598143,-2.2536202514795796,-2.405415866225691,nan
1740447646.1558251,-2.780671490943388,0.9055931286614126,-2.3801643567363953,-2.545550748824951,nan
1740447646.159731,-2.917099468785528,0.8768852180798119,-2.500066551780835,-2.6771532934987454,nan
1740447646.163642,-3.0428027749130844,0.8442376156365152,-2.6124322153344757,-2.7991877357324015,nan
1740447646.1675477,-3.1568300041329245,0.8077513095352452,-2.7164059510923044,-2.910669961789488,nan
1740447646.1714535,-3.2582961308340352,0.767555403966069,-2.811178056451505,-3.010675182862468,nan
1740447646.1753592,-3.3463891803167143,0.7238067398229513,-2.8959906863694136,-3.0983452026466574,nan
1740447646.179265,-3.420376390397789,0.6766892951017627,-2.9701436624947144,-3.172895218599959,nan
1740447646.1831708,-3.479609814185613,0.6264133667775691,-3.0329998804091556,-3.2336201007656618,nan
1740447646.1870766,-3.523531319257395,0.573214537794905,-3.083990270909605,-3.2799000961304965,nan
1740447646.1909823,-3.551676943182799,0.5173524346268036,-3.122618274726999,-3.3112059110312573,nan
1740447646.194888,-3.5636805703829575,0.4591092826518299,-3.148463793890886,-3.3271031290725417,nan
1740447646.198794,-3.559276900651043,0.3987882683474093,-3.1611865870742686,-3.327255927334166,nan
1740447646.2026994,-3.5383036852452046,0.3367117189869718,-3.1605290806589434,-3.3114300592845938,nan
1740447646.2066052,-3.5007032122503827,0.2732191121427734,-3.1463185719095836,-3.279495078728808,nan
1740447646.2105157,-3.446523028844333,0.20866492882117113,-3.1184688054965535,-3.2314257852553587,nan
1740447646.2144215,-3.3759158941452454,0.14341636547893877,-3.0769809096219523,-3.1673028779556143,nan
1740447646.218327,-3.289138962413769,0.07785092147470063,-3.021943683138706,-3.0873128106153453,nan
1740447646.2222328,-3.186552202479787,0.012353879686875756,-2.9535332302650334,-2.9917468480694622,nan
1740447646.2261386,-3.0686160653133863,-0.05268430093249361,-2.872011944742643,-2.880999329910288,nan
1740447646.2300444,-2.9358884176095863,-0.1168706612099187,-2.7777268505221557,-2.755565154192509,nan
1740447646.2339501,-2.7890207650581216,-0.17981246561957398,-2.671107311239163,-2.6160365001289785,nan
1740447646.237856,-2.6287537945745596,-0.2411199532145615,-2.55266212582552,-2.463098814966941,nan
1740447646.2417617,-2.4559122701307756,-0.30040909427091517,-2.422976032539828,-2.2975260962209316,nan
1740447646.2456675,-2.271399321896989,-0.357304331075948,-2.282705648456948,-2.1201755061658942,nan
1740447646.2495732,-2.0761901731519807,-0.41144128125214613,-2.1325748759887104,-1.9319813609131107,nan
1740447646.253479,-1.8713253537940524,-0.46246938214747707,-1.973369812278582,-1.7339485414563016,nan
1740447646.2573888,-1.657903453256371,-0.5100544551426294,-1.805933201285901,-1.527145378742838,nan
1740447646.2612946,-1.4370734691646323,-0.5538811692236428,-1.6311584720171763,-1.3126960690559217,nan
1740447646.2652004,-1.2100268111433932,-0.5936553838414341,-1.4499834096422852,-1.0917726797520335,nan
1740447646.2691061,-0.9779890217555682,-0.6291063519231915,-1.2633835091249164,-0.8655868086524783,nan
1740447646.273012,-0.7422112786268994,-0.6599887649080981,-1.0723650634751982,-0.6353809631111624,nan
1740447646.2769177,-0.5039617433476459,-0.6860846228439359,-0.8779580407778536,-0.4024197269503154,nan
1740447646.2808235,-0.2645168237457214,-0.7072049138924394,-0.6812088057445855,-0.16798078505389247,nan
1740447646.2847292,-0.0251524165821063,-0.7231910890396802,-0.48317274267208726,0.06665412357786873,nan
1740447646.288635,0.21286480237174427,-0.7339163193815258,-0.2849068373481674,0.3002082530875585,nan
1740447646.2925408,0.4482859745512839,-0.7392865250405638,-0.08746227563330058,0.5314188272811609,nan
1740447646.2964466,0.6798884759626351,-0.7392411665561869,0.10812288384711424,0.7590458751227958,nan
1740447646.300352,0.9064840922460361,-0.7337537914588944,0.3008309062301251,0.981880856265785,nan
1740447646.3042617,1.1269268902047536,-0.7228323306780725,0.4896713907239102,1.1987550096031103,nan
1740447646.3081675,1.3401207272683464,-0.7065191414231987,0.6736880409454499,1.4085473602953744,nan
1740447646.3120732,1.5450263435283418,-0.6848907952051917,0.8519651436596364,1.6101923237408413,nan
1740447646.315979,1.740667984591522,-0.658057611710262,1.0236337068371533,1.802686848463303,nan
1740447646.3198848,1.9261395075089867,-0.6261629412861298,1.1878772108903177,1.9850970438778177,nan
1740447646.3237906,2.100609926422956,-0.5893822008323285,1.3439369302592665,2.1565642433168097,nan
1740447646.3276963,2.2633283592893343,-0.5479216698855406,1.4911167861758345,2.316310457520192,nan
1740447646.331602,2.4136283420416627,-0.5020170556402793,1.6287876953975018,2.463643178971089,nan
1740447646.3355079,2.5509314818177384,-0.45193183752836236,1.7563913839439973,2.5979595029476434,nan
1740447646.3394136,2.6747504263287656,-0.397955403781218,1.87344363934789,2.7187495369136827,nan
1740447646.3433194,2.784691132065637,-0.3404009941018843,1.9795369796087607,2.82559907583637,nan
1740447646.347225,2.880454419759825,-0.27960346416384935,2.07434272187809,2.918191527145741,nan
1740447646.351134,2.9618368112989657,-0.2159168891179856,2.157612438857098,2.9963090752861428,nan
1740447646.3550398,3.028730648090443,-0.14971202461415212,2.2291787959199216,3.0598330820992987,nan
1740447646.3589456,3.0811234966215784,-0.08137364501901731,2.288955767036801,3.108743725568935,nan
1740447646.3628511,3.1190968526340437,-0.011297779526116542,2.33693823262316,3.1431188856937218,nan
1740447646.366757,3.1428241608657985,0.060111132300725977,2.3732009674378767,3.163132292385519,nan
1740447646.3706627,3.1525681726702586,0.13244314334121426,2.3978970315553707,3.1690509562614544,nan
1740447646.3745685,3.148677668955648,0.20528573739467793,2.411255582200233,3.161231908960654,nan
1740447646.3784742,3.131583580755522,0.27822678032498366,2.413579128820153,3.1401182851211096,nan
1740447646.38238,3.1017945443050805,0.3508574607721934,2.4052402581447843,3.1062347833530244,nan
1740447646.3862858,3.0598919317205167,0.42277519741121744,2.386677860098741,3.060182548398962,nan
1740447646.3901916,3.0065244022268063,0.49358649001058097,2.3583928892725736,3.0026335211381694,nan
1740447646.3940973,2.9424020223233462,0.5629096920055847,2.320943700175056,2.9343243071361624,nan
1740447646.3980057,2.8682900062899814,0.6303776829459412,2.27494099766535,2.856049618028506,nan
1740447646.4019115,2.7850021309963116,0.6956404200030446,2.22104244676944,2.7686553431312455,nan
1740447646.4058173,2.693393881065878,0.7583673487194346,2.159946988499969,2.6730313112656177,nan
1740447646.409723,2.59435538205009,0.8182496543445119,2.092388910303966,2.5701038048520175,nan
1740447646.4136288,2.4888041803744625,0.8750023364162385,2.019131721344428,2.460827889853009,nan
1740447646.4175346,2.3776779294264077,0.9283660907074007,1.9409618839684595,2.346179626117383,nan
1740447646.4214404,2.2619270412583563,0.9781089842446494,1.8586824534197293,2.2271482230920787,nan
1740447646.4253461,2.1425073629853975,1.024027910815494,1.7731066781133284,2.104728205725926,nan
1740447646.429252,2.0203729360706424,1.0659498161882546,1.6850516126075152,1.9799116546934628,nan
1740447646.4331577,1.8964688953256181,1.1037326841672996,1.5953317947840102,1.8536805838283332,nan
1740447646.4370632,1.7717245626230955,1.137266276574638,1.50475303769493,1.7269995158880593,nan
1740447646.440969,1.6470467880455577,1.1664726222722959,1.4141063850624116,1.6008083154945842,nan
1740447646.4448771,1.5233135884973417,1.1913062524008495,1.3241622775422108,1.4760153353309338,nan
1740447646.4487827,1.4013681307193402,1.2117541810903385,1.2356649746042265,1.3534909284513468,nan
1740447646.4526885,1.282013102192147,1.2278356329829994,1.149327274263661,1.23406137591154,nan
1740447646.4565942,1.1660055096296793,1.2396015209752056,1.0658255699415833,1.1185032748824013,nan
1740447646.4605,1.0540519406864342,1.2471336796209562,0.9857952804714762,1.007538428012618,nan
1740447646.4644058,0.9468043201654611,1.2505438616242475,0.9098266857295554,0.9018292700945846,nan
1740447646.4683115,0.8448561874609802,1.2499725067657328,0.8384611965842447,0.8019748631071292,nan
1740447646.4722173,0.7487395172406949,1.2455872944440982,0.7721880838691041,0.70850748550388,nan
1740447646.476123,0.6589221005110197,1.2375814927490782,0.7114416869201013,0.6218898362348736,nan
1740447646.4800289,0.5758054982571646,1.2261721186065497,0.6565991179202679,0.5425128684800848,nan
1740447646.4839346,0.4997235748531826,1.2115979250327968,0.6079784739009606,0.4706942624863532,nan
1740447646.4878404,0.4309416134386577,1.1941172328927507,0.5658375637985004,0.4066775412836467,nan
1740447646.4917555,0.3696560105022279,1.174005625764132,0.5303731534971906,0.3506318274625468,nan
1740447646.4956613,0.3159945420404524,1.1515535275563344,0.5017207273439216,0.3026522336714196,nan
1740447646.499567,0.27001718891524923,1.127063683410815,0.4799547602344924,0.2627608740874239,nan
1740447646.5034728,0.23171750445452224,1.1008485651118307,0.46508949008538236,0.23090847887699026,nan
1740447646.5073786,0.20102450296687982,1.073227722756854,0.4570801763536234,0.20697658863391674,nan
1740447646.5112844,0.17780504370880215,1.0445251047712123,0.45582482628707127,0.19078030100952023,nan
1740447646.5151901,0.1618666809848458,1.015066368498801,0.4611663668110026,0.1820715372696837,nan
1740447646.519096,0.15296094750939773,0.9851762035597161,0.47289523641609754,0.18054279236545806,nan
1740447646.5230017,0.15078703494006768,0.9551756899370248,0.49075236813636697,0.18583132832120805,nan
1740447646.5269074,0.15499583263265446,0.9253797123413411,0.5144325317199505,0.19752376735768867,nan
1740447646.5308132,0.1651942831869545,0.8960944518075024,0.5435880004244246,0.21516103820362006,nan
1740447646.534719,0.18095001126916044,0.867614974708163,0.577832505531936,0.23824362653106154,nan
1740447646.53863,0.20179618052408127,0.8402229384317458,0.616745439695494,0.2662370783956979,nan
1740447646.5425358,0.22723653213902031,0.8141844318755966,0.6598762686101389,0.2985777039872472,nan
1740447646.5464416,0.2567505577969911,0.7897479676593636,0.7067491092621805,0.3346784279073665,nan
1740447646.550347,0.2897987593624347,0.767142641579849,0.756867432153381,0.37393473159793483,nan
1740447646.5542529,0.3258279476760006,0.746576473319349,0.8097188444285321,0.4157306334422256,nan
1740447646.5581586,0.3642765332909328,0.728234940798254,0.864779910754467,0.4594446524514737,nan
1740447646.5620644,0.4045797628529005,0.7122797188439054,0.9215209691027452,0.5044557023216415,nan
1740447646.5659702,0.44617485609490787,0.698847631046624,0.9794108992702837,0.5501488639872161,nan
1740447646.569876,0.48850600007288125,0.6880498218063597,1.037921803021844,0.5959209865941066,nan
1740447646.5737817,0.5310291592860409,0.6799711536559714,1.0965335561421479,0.6411860690414469,nan
1740447646.5776875,0.573216662686416,0.674669832996596,1.154738194426988,0.6853803768779634,nan
1740447646.5815933,0.614561531258328,0.6721772654138914,1.2120440977025488,0.7279672523546422,nan
1740447646.5855036,0.654581512813066,0.6724981397783378,1.2679799383182382,0.7684415788004655,nan
1740447646.5894094,0.6928227938658013,0.6756107383852623,1.3220983631859167,0.8063338641679928,nan
1740447646.5933151,0.7288633619084901,0.6814674684776356,1.373979381310755,0.8412139125536867,nan
1740447646.597221,0.7623159950297808,0.6899956086335526,1.4232334318471378,0.8726940566952923,nan
1740447646.6011267,0.7928308596252002,0.7010982617064215,1.469504110986587,0.9004319288443733,nan
1740447646.6050324,0.8200977008514432,0.7146555042947382,1.5124705394116607,0.9241327519639971,nan
1740447646.6089382,0.8438476144700608,0.7305257211042956,1.5518493555971482,0.9435511378661905,nan
1740447646.612844,0.8638543927605943,0.7485471110624563,1.5873963238738733,0.9584923836370677,nan
1740447646.6167498,0.8799354412235401,0.7685393506641717,1.6189075498566892,0.9688132624551811,nan
1740447646.6206555,0.8919522668021519,0.7903053987843947,1.6462202995425042,0.9744223096464981,nan
1740447646.6245613,0.8998105422924081,0.8136334260913226,1.6692134220720178,0.9752796094938664,nan
1740447646.628467,0.9034597554469643,0.8382988512486974,1.6878073797867104,0.9713960928873127,nan
1740447646.632377,0.9028924549773341,0.864066465310453,1.7019638927674148,0.9628323603226706,nan
1740447646.6362827,0.8981431091864402,0.8906926250934796,1.711685208480714,0.9496970489903923,nan
1740447646.6401885,0.8892865962904266,0.9179274958686477,1.7170130104540713,0.9321447667064185,nan
1740447646.6440942,0.8764363485859011,0.9455173234395211,1.7180269830209909,0.9103736191876852,nan
1740447646.648,0.8597421754607233,0.9732067155837731,1.7148430520969977,0.8846223606337997,nan
1740447646.6519058,0.8393877928097816,1.0007409129141123,1.707611324640785,0.8551672007144002,nan
1740447646.6558115,0.8155880886817,1.0278680294717832,1.6965137519003421,0.8223183038525612,nan
1740447646.6597173,0.7885861569306664,1.0543412437932143,1.681761543721209,0.7864160191157621,nan
1740447646.663623,0.7586501322655308,1.079920921784401,1.6635923630861444,0.7478268810584362,nan
1740447646.6675286,0.7260698613650725,1.1043766534919195,1.6422673316481116,0.7069394234888203,nan
1740447646.6714344,0.6911534456563964,1.1274891867664947,1.61806787830022,0.664159849346544,nan
1740447646.6753402,0.6542236919286254,1.1490522418658782,1.5912924637888068,0.6199076006688644,nan
1740447646.6792498,0.6156145071756157,1.1688741922282495,1.5622532150139001,0.5746108729894985,nan
1740447646.6831553,0.5756672739320284,1.1867795979541935,1.5312725029728376,0.5287021184555187,nan
1740447646.687061,0.534727241892513,1.2026105799521662,1.498679498288708,0.4826135814695016,nan
1740447646.6909668,0.4931399707932168,1.2162280242159969,1.4648067379295893,0.43677290977490524,nan
1740447646.6948726,0.45124785840044784,1.2275126072993874,1.4299867360743097,0.39159888261499326,nan
1740447646.6987784,0.4093867860083121,1.2363656357167305,1.3945486711255461,0.34749729592576556,nan
1740447646.7026842,0.3678829121133516,1.2427096937168278,1.35881517962429,0.30485704249098877,nan
1740447646.70659,0.32704964293024397,1.2464890956303554,1.323099286296265,0.26404642261549494,nan
1740447646.7104957,0.2871848061612266,1.247670140767517,1.2877014976787455,0.2254097181873845,nan
1740447646.7144015,0.24856805195812914,1.246241170623139,1.252907084755342,0.18926406002942503,nan
1740447646.7183073,0.21145850234653674,1.2422124299164692,1.2189835777889846,0.15589661521586573,nan
1740447646.722213,0.17609266754507147,1.2356157347365209,1.186178494113438,0.12556211758650157,nan
1740447646.726122,0.14268264463874736,1.2265039527652708,1.1547173170468648,0.09848076106021364,nan
1740447646.7300277,0.11141461098456565,1.2149503021955297,1.1248017413541138,0.07483647157196514,nan
1740447646.7339334,0.08244762157129425,1.2010474775333282,1.0966081978355708,0.05477556956811911,nan
1740447646.7378392,0.055912716355554865,1.1849066119625058,1.0702866666882542,0.038405831033269194,nan
1740447646.741745,0.03191234038464338,1.166656087339023,1.0459597862987724,0.025795951026490366,nan
1740447646.7456508,0.01052007632468533,1.1464402041623643,1.0237222611171388,0.016975409714654756,nan
1740447646.7495565,-0.008219314128320658,1.1244177250303913,1.0036405692548003,0.011934736943751804,nan
1740447646.753462,-0.024289546536973277,1.1007603061124953,0.9857529674786298,0.010626167523534059,nan
1740447646.7573678,-0.037702177242621315,1.0756508320652283,0.9700697883634488,0.012964675652951767,nan
1740447646.7612736,-0.048495686461316294,1.049281670557782,0.9565740215465935,0.018829373318773317,nan
1740447646.7651794,-0.05673429594763012,1.0218528631656814,0.9452221683253624,0.028065254090875687,nan
1740447646.7690852,-0.06250653867829971,0.993570269825594,0.935945356277042,0.04048526054621069,nan
1740447646.7729936,-0.06592360025735029,0.9646436843191335,0.9286506981849121,0.05587265060830902,nan
1740447646.7768993,-0.06711745376409108,0.9352849383675024,0.9232228773437551,0.07398363541664332,nan
1740447646.780805,-0.0662388115378951,0.9057060118716196,0.9195259393144951,0.0945502589636941,nan
1740447646.784711,-0.0634549189042545,0.8761171666254942,0.9174052684169383,0.11728348767747122,nan
1740447646.7886167,-0.05894721608330596,0.8467251204668238,0.9166897257072059,0.1418764764007398,nan
1740447646.7925224,-0.05290889547577544,0.8177312783123307,0.9171939238947917,0.16800797583898264,nan
1740447646.7964282,-0.04554238218581344,0.78933003586194,0.9187206136232154,0.1953458455275076,nan
1740447646.800334,-0.0370567660122423,0.7617071709522408,0.9210631547751801,0.22355063571083664,nan
1740447646.8042397,-0.027665213218956885,0.7350383366041644,0.9240080459726323,0.2522792012376085,nan
1740447646.8081455,-0.017582386184102038,0.7094876687515446,0.9273374852259318,0.2811883106513844,nan
1740447646.8120513,-0.007021898531737099,0.6852065204667476,0.9308319347436758,0.309938214097719,nan
1740447646.815957,0.003806167422947188,0.6623323332280724,0.9342726632419818,0.33819613446329605,nan
1740447646.819865,0.01469765512218988,0.6409876544134647,0.9374442396830817,0.3656396473027133,nan
1740447646.8237708,0.025456615606098278,0.6212793087691167,0.9401369532191666,0.391959916578493,nan
1740447646.8276765,0.035897453770359446,0.6032977301033315,0.9421491352073961,0.41686475502272385,nan
1740447646.8315823,0.045846917812427716,0.5871164579097863,0.9432893604824126,0.4400814800041163,nan
1740447646.8354878,0.05514591258164035,0.5727918020442854,0.9433785066078763,0.461359538129212,nan
1740447646.8393936,0.06365111966953993,0.5603626769801585,0.9422516515609719,0.48047287439561637,nan
1740447646.8432994,0.07123640935069989,0.5498506055642096,0.9397597922140045,0.4972220245207158,nan
1740447646.8472052,0.07779403188670944,0.5412598906024249,0.9357713680441869,0.5114359120619144,nan
1740447646.851111,0.0832355782109831,0.5345779510370168,0.9301735767041373,0.5229733350927777,nan
1740447646.8550167,0.08749270259299181,0.5297758179481309,0.9228734703979606,0.5317241304711685,nan
1740447646.8589225,0.09051760251022765,0.5268087841384461,0.9137988244066332,0.5376100070970251,nan
1740447646.8628283,0.09228325360738035,0.5256171996503131,0.9028987715667806,0.5405850429748741,nan
1740447646.8667397,0.09278340026730854,0.5261274042355893,0.8901441990033648,0.5406358443350784,nan
1740447646.8706455,0.09203230493046387,0.5282527865597484,0.8755279059236156,0.5377813684938723,nan
1740447646.8745513,0.09006426185182793,0.5318949587851183,0.8590645237714688,0.5320724155115255,nan
1740447646.878457,0.08693288345155517,0.5369450341532367,0.8407902024935322,0.5235907970072327,nan
1740447646.8823628,0.08271016977264048,0.5432849942821067,0.8207620690548264,0.5124481936763781,nan
1740447646.8862686,0.0774853737828253,0.5507891321183758,0.7990574666415915,0.4987847160997729,nan
1740447646.8901744,0.07136367732680803,0.5593255558437037,0.7757729851767424,0.4827671863061214,nan
1740447646.89408,0.06446469442859624,0.568757738533991,0.751023295829924,0.4645871602210021,nan
1740447646.8979857,0.0569208203444756,0.5789460980137682,0.7249398041087373,0.4444587135829065,nan
1740447646.9018915,0.048875446258574755,0.5897495911384337,0.6976691378526363,0.42261601610662897,nan
1740447646.9057972,0.040481060781645255,0.6010273066754699,0.6693714879999814,0.399310720606441,nan
1740447646.909703,0.03189726044809507,0.6126400410421353,0.6402188213476038,0.37480919543861646,nan
1740447646.913614,0.02328869219765603,0.624451841389991,0.6103929856590004,0.3493896299707081,nan
1740447646.9175198,0.014822951369964029,0.6363315009031657,0.5800837283920787,0.32333904382214707,nan
1740447646.9214256,0.00666845902907685,0.6481539916933999,0.5494866510027753,0.29695023133910614,nan
1740447646.9253314,-0.0010076575306079926,0.6598018213252655,0.5188011212317594,0.2705186731612717,nan
1740447646.9292371,-0.00804165746390664,0.671166299783092,0.48822816599518193,0.24433944680750666,nan
1740447646.933143,-0.014275229073821748,0.68214870458908,0.45796836747674385,0.21870416795301686,nan
1740447646.9370487,-0.0195574600731209,0.6926613327914822,0.42821978475947686,0.1938979934973129,nan
1740447646.9409544,-0.023746713894023483,0.7026284296524402,0.3991759228460432,0.1701967166380705,nan
1740447646.94486,-0.026712391695584127,0.7119869850667672,0.37102377020302246,0.1478639829818615,nan
1740447646.9487658,-0.028336561090594542,0.7206873900241009,0.3439419250366499,0.1271486552527502,nan
1740447646.9526715,-0.028515434178658747,0.7286939467753982,0.3180988293759659,0.10828235242052489,nan
1740447646.9565773,-0.02716067921189636,0.7359852277680033,0.2936511287177341,0.09147718708137913,nan
1740447646.9604878,-0.02420055211540924,0.7425542798585549,0.27074217349074786,0.07692372270672213,nan
1740447646.9643936,-0.019580836115419425,0.7484086717861611,0.2495006769420963,0.0647891699545047,nan
1740447646.9682992,-0.01326557987194059,0.7535703843762175,0.2300395422529856,0.055215838637700076,nan
1740447646.972205,-0.005237626746873725,0.7580755444340973,0.21245486977631742,0.04831985919388175,nan
1740447646.9761107,0.004501069861213346,0.7619740047641812,0.19682515327322875,0.044190184626909615,nan
1740447646.9800165,0.01592934784207462,0.7653287741998227,0.18321067193281812,0.04288788092652127,nan
1740447646.9839222,0.029006954725531307,0.7682153029407208,0.1716530828105637,0.044445710944626515,nan
1740447646.987828,0.04367488107498463,0.7707206298530705,0.16217521613934116,0.048868013649561774,nan
1740447646.9917338,0.05985590461780729,0.7729423996825165,0.15478107377524994,0.0561308776224479,nan
1740447646.9956396,0.07745533854403981,0.7749877593488599,0.1494560288617866,0.06618260463443153,nan
1740447646.9995453,0.09636197522069223,0.7769721436237589,0.14616722265269125,0.07894445618023886,nan
1740447647.003451,0.11644921448690829,0.7790179615283378,0.1448641523484245,0.09431167297213525,nan
1740447647.007361,0.13757636373668677,0.7812531957176525,0.14547944179499103,0.11215475464759102,nan
1740447647.0112667,0.15959009518057243,0.7838099279351927,0.14792978498734852,0.1323209843411027,nan
1740447647.0151725,0.18232604402436153,0.7868228043161077,0.15211705053223679,0.15463618034136423,nan
1740447647.0190783,0.2056105298279224,0.7904274548866662,0.15792953357505712,0.1789066548231482,nan
1740447647.022984,0.2292623820254956,0.7947588820449971,0.1652433401989485,0.20492135763053687,nan
1740447647.0268898,0.25309484951311134,0.7999498331107595,0.17392388797630667,0.23245418131389928,nan
1740447647.0307956,0.2769175733494557,0.8061291721969721,0.1838275052068247,0.26126640210414137,nan
1740447647.0347013,0.30053860098200896,0.8134202666846426,0.1948031104227347,0.29110923025845065,nan
1740447647.0386071,0.32376642000642203,0.8219394034703903,0.2066939529904723,0.32172644224343344,nan
1740447647.0425127,0.3464119892974186,0.8317942499104065,0.2193393950953596,0.3528570665427305,nan
1740447647.0464184,0.3682907454151549,0.8430823740036099,0.23257671506690883,0.3842380944924224,nan
1740447647.0503242,0.3892245624904978,0.8558898378465055,0.2462429118894987,0.41560718746135217,nan
1740447647.0542338,0.4090436443224407,0.8702898777572781,0.2601764908467588,0.4467053519043743,nan
1740447647.0581396,0.42758832817470316,0.8863416837129936,0.2742192105659903,0.4772795543210087,nan
1740447647.062045,0.44471078072800374,0.9040892898788052,0.2882177722572502,0.507085248943501,nan
1740447647.0659509,0.46027656781904824,0.9235605870397804,0.3020254326738971,0.5358887920476058,nan
1740447647.0698566,0.47416608096413315,0.9447664666834938,0.31550352324896774,0.5634697181142112,nan
1740447647.0737624,0.4862758052097891,0.9677001053346823,0.328522858974391,0.589622854655566,nan
1740447647.0776682,0.4965194145587023,0.9923363965225273,0.3409650218751992,0.6141602543389636,nan
1740447647.081574,0.5048286830680664,1.0186315364777327,0.3527235053746374,0.6369129250736663,nan
1740447647.0854797,0.5111542016900767,1.0465227683220835,0.36370470743258304,0.6577323409519866,nan
1740447647.0893855,0.5154658929997696,1.0759282881396655,0.3738287620518367,0.6764917193290886,nan
1740447647.0932913,0.5177533181118832,1.106747314918698,0.3830302005661885,0.6930870518630625,nan
1740447647.097197,0.5180257723036105,1.1388603249384897,0.3912584360312516,0.7074378799905543,nan
1740447647.101106,0.5163121681105515,1.1721294497598989,0.3984780660134992,0.719487808055962,nan
1740447647.1050117,0.5126607069256504,1.2063990355722949,0.40466899109366816,0.729204750115424,nan
1740447647.1089175,0.5071383423817417,1.2414963602678004,0.40982634844639243,0.7365809092714933,nan
1740447647.1128232,0.4998300410142412,1.2772325032664378,0.413960261906753,0.7416324912312044,nan
1740447647.116729,0.49083784785832013,1.3134033618154386,0.4170954119648247,0.7443991565899033,nan
1740447647.1206348,0.4802797667124641,1.3497908062435025,0.4192704311198092,0.7449432190970392,nan
1740447647.1245406,0.46828846677592123,1.3861639654768334,0.420537131954895,0.7433485998296055,nan
1740447647.1284463,0.45500982922080335,1.4222806330280957,0.4209595771423712,0.7397195497570808,nan
1740447647.132352,0.4406013489713888,1.4578887826613087,0.4206130023361605,0.734179155602197,nan
1740447647.136258,0.42523040851569577,1.4927281820232838,0.4195826045375234,0.7268676461602543,nan
1740447647.1401637,0.4090724419516825,1.5265320917229317,0.4179622100120493,0.717940518312911,nan
1740447647.1440692,0.39230900865817075,1.559029036640058,0.4158528371764786,0.7075665038396136,nan
1740447647.1479778,0.3751257969665384,1.5899446356604356,0.4133611710483153,0.6959253997720898,nan
1740447647.1518836,0.35771057898317493,1.6190034755684577,0.41059796684718103,0.6832057864382914,nan
1740447647.1557894,0.3402511382665571,1.6459310144856425,0.40767640114391873,0.6696026584877234,nan
1740447647.1596951,0.3229331923908919,1.6704555000248886,0.4047103895630768,0.6553149950689072,nan
1740447647.1636007,0.30593833252701785,1.692309887237731,0.40181289044997803,0.640543295933235,nan
1740447647.1675065,0.28944200203968423,1.7112337414647079,0.39909421411088414,0.6254871105617751,nan
1740447647.1714122,0.2736115357395421,1.7269751113562126,0.39666035722143345,0.6103425874498793,nan
1740447647.175318,0.25860428084186277,1.7392923576105481,0.3946113817746484,0.5953000704386154,nan
1740447647.1792238,0.24456581987806592,1.7479559233739486,0.39303985750743947,0.5805417684550626,nan
1740447647.1831295,0.23162831478861817,1.7527500327597565,0.39202938610809424,0.5662395242210405,nan
1740447647.1870353,0.21990899020717797,1.753474304565365,0.3916532246730133,0.5525527064205323,nan
1740447647.190941,0.20950877253834027,1.7499452689897557,0.39197302485762986,0.5396262484910749,nan
1740447647.194849,0.20051109984917956,1.7419977759743404,0.39303770296425905,0.5275888556376715,nan
1740447647.1987548,0.19298091585423444,1.7294862846974914,0.3948824548410652,0.5165513998755948,nan
1740447647.2026606,0.18696385939214422,1.712286024740093,0.39752792794528935,0.5066055209094151,nan
1740447647.2065663,0.18248565878911574,1.6902940204964143,0.40097956126614837,0.49782244847037305,nan
1740447647.210472,0.17955173840005567,1.6634299715219727,0.40522710202528106,0.4902520593854357,nan
1740447647.2143779,0.1781470424340021,1.6316369826775992,0.4102443061937585,0.4839221801631832,nan
1740447647.2182837,0.17823607892871854,1.5948821391362897,0.4159888279037815,0.478838143279823,nan
1740447647.2221894,0.1797631844627412,1.5531569225557615,0.422402300810591,0.474982602659722,nan
1740447647.2260952,0.18265300790507188,1.5064774659743108,0.4294106123967021,0.4723156110967494,nan
1740447647.230001,0.1868112092264255,1.4548846462494103,0.436924370127763,0.47077495958350213,nan
1740447647.2339067,0.19212536715470502,1.3984440141170542,0.44483955628878646,0.47027677573381504,nan
1740447647.2378125,0.1984660872740576,1.3372455631940863,0.4530383662727229,0.47071637572832875,nan
1740447647.2417278,0.20568830006396072,1.2714033404655918,0.4613902230820536,0.4719693615117929,nan
1740447647.2456336,0.21363273637357807,1.201054901984556,0.46975295885889556,0.4738929523516496,nan
1740447647.2495394,0.22212756594794691,1.1263606186519777,0.4779741524008775,0.47632753735762795,nan
1740447647.2534451,0.23099018288549242,1.0475028380331513,0.4858926098678935,0.4790984331870268,nan
1740447647.2573507,0.24002912032894302,0.9646849091915894,0.49333997425756476,0.48201782894476,nan
1740447647.2612565,0.2490460752901939,0.8781300784779834,0.5001424477419141,0.48488689825385956,nan
1740447647.2651622,0.25783802329864397,0.7880802650906862,0.5061226096303779,0.48749805664199825,nan
1740447647.269068,0.26619940155454547,0.6947947260200221,0.511101311568983,0.4896373407815969,nan
1740447647.2729738,0.2739243384747138,0.5985486206957665,0.5148996306150329,0.4910868847521279,nan
1740447647.2768795,0.2808089069458482,0.49963148627071285,0.5173408600514829,0.49162746737728735,nan
1740447647.2807853,0.28665337825709547,0.39834563498962366,0.5182525172343352,0.49104110383895033,nan
1740447647.284691,0.2912644535721607,0.2950044855090976,0.5174683474062565,0.4891136541928804,nan
1740447647.2886019,0.2944574499239491,0.18993084034822139,0.5148303022650609,0.4856374211147153,nan
1740447647.2925076,0.29605841807055605,0.08345512186112683,0.5101904721488817,0.480413709192005,nan
1740447647.2964134,0.2959061701374286,-0.02408642076910754,0.5034129509910849,0.47325531834980644,nan
1740447647.3003192,0.29385419578118127,-0.13235352100966574,0.49437561370520416,0.4639889445511586,nan
1740447647.304225,0.28977244663828355,-0.24100370851901062,0.4829717863791146,0.45245746174467116,nan
1740447647.3081307,0.28354897005671753,-0.3496941145303959,0.46911179058208363,0.43852206013142525,nan
