timestamps,TP9,AF7,AF8,TP10,Right AUX
1740788794.4967113,0.22201323771144246,0.27836037792819646,0.3705555668113437,0.07094008862211511,nan
1740788794.500616,0.19500488326303095,0.3214901070212656,0.3644773458025173,0.05282038769409246,nan
1740788794.504521,0.1668637085409311,0.3624277929604823,0.35713896237406784,0.03415529989628811,nan
1740788794.5084257,0.13784529136882195,0.4008848498978141,0.34867939167368334,0.015147723951242144,nan
1740788794.5123305,0.10821013562083624,0.436586955624403,0.33924261320611093,-0.003997496972163225,nan
1740788794.5162356,0.07822107535850552,0.46927652798434644,0.3289758088439396,-0.023075795646383325,nan
1740788794.5201404,0.04814067115257412,0.4987150727652167,0.31802756228733264,-0.041885086578044364,nan
1740788794.5240452,0.01822862484104228,0.5246853802194273,0.3065460799386289,-0.0602279340573428,nan
1740788794.52795,-0.011260761293462625,0.5469935487699986,0.2946774527294839,-0.07791365978812981,nan
1740788794.5318549,-0.04008105547418344,0.5654708160666205,0.28256397780320636,-0.09476036812855122,nan
1740788794.5357597,-0.06799607284212053,0.5799751793670682,0.27034255812131575,-0.1105968679028369,nan
1740788794.5396645,-0.09478213369668312,0.590392789206918,0.25814319704083755,-0.12526447089046389,nan
1740788794.543589,-0.12023018120300953,0.5966391024675815,0.24608760370940846,-0.13861864844721994,nan
1740788794.547494,-0.14414773769759767,0.5986597832372654,0.23428792376255592,-0.15053052924915541,nan
1740788794.5513988,-0.16636068042541285,0.5964313422592306,0.22284560829682004,-0.16088822285896423,nan
1740788794.5553036,-0.1867148194332828,0.5899615082525492,0.21185043245054705,-0.16959795567694338,nan
1740788794.5592084,-0.20507726240657587,0.5792893269479099,0.20137967316933778,-0.176585007835855,nan
1740788794.5631132,-0.22133755344788517,0.5644849862795063,0.19149745388449202,-0.1817944417100094,nan
1740788794.5670183,-0.23540857513482166,0.5456493687879036,0.18225426191055355,-0.18519161491167363,nan
1740788794.570923,-0.2472272056353284,0.5229133348921923,0.17368664239305562,-0.18676247291977577,nan
1740788794.574828,-0.25675472517816506,0.49643674325696824,0.1658170706311885,-0.18651361880319323,nan
1740788794.5787327,-0.2639769687477932,0.4664072169854064,0.15865400258389808,-0.18447215983994925,nan
1740788794.5826375,-0.268904224470585,0.43303866678916936,0.15219210136362576,-0.18068533317013535,nan
1740788794.5865424,-0.2715708797568879,0.39656958459541025,0.14641263555081993,-0.1752199149304381,nan
1740788794.5904653,-0.2720348198344762,0.35726112322791237,0.141284043245686,-0.16816141957805034,nan
1740788794.5943704,-0.27037658582747975,0.3153949798221307,0.13676265393165166,-0.15961309829822704,nan
1740788794.5982752,-0.26669830197544825,0.2712711024829147,0.13279355847736074,-0.14969474748064948,nan
1740788794.60218,-0.2611223839252129,0.22520524135077774,0.12931161596912955,-0.138541340223481,nan
1740788794.6060848,-0.2537900422400319,0.17752636669181884,0.12624258456100573,-0.12630149566059382,nan
1740788794.6099896,-0.2448595973340344,0.12857397785375302,0.12350436217067096,-0.1131358025881456,nan
1740788794.6138945,-0.2345046239343218,0.07869532792415912,0.12100832165075741,-0.09921501537436686,nan
1740788794.6177993,-0.22291194487939434,0.028242589677626915,0.11866072403920307,-0.08471814145585535,nan
1740788794.6217043,-0.21027949556376133,-0.022430011100968494,0.11636419264975094,-0.06983044084147418,nan
1740788794.6256092,-0.1968140816196244,-0.07296906858394117,0.11401923011338005,-0.054741358949819005,nan
1740788794.629514,-0.18272905347478344,-0.12302484983645112,0.111525760029935,-0.03964241478911792,nan
1740788794.6334188,-0.16824192223100368,-0.17225410166427493,0.10878467464114142,-0.024725066942461047,nan
1740788794.637341,-0.1535719418610497,-0.2203227858369121,0.10569936989390602,-0.010178580042024665,nan
1740788794.6412458,-0.13893768302030773,-0.2669087179155764,0.10217724942648837,0.00381208559863867,nan
1740788794.645151,-0.12455462380734067,-0.3117040859210653,0.09813117937791273,0.017068338774900788,nan
1740788794.6490557,-0.11063278258709204,-0.3544178263103267,0.09348087648858434,0.02941995466655396,nan
1740788794.6529605,-0.09737441751300624,-0.394777836180297,0.08815421272137379,0.040706983370429384,nan
1740788794.6568654,-0.08497181665531757,-0.4325330022681972,0.0820884205790004,0.05078154939111157,nan
1740788794.6607702,-0.0736052016698501,-0.46745502915221737,0.07523118441517207,0.0595095229300234,nan
1740788794.664675,-0.06344076673487699,-0.4993400510567776,0.06754160432150504,0.06677204515082469,nan
1740788794.66858,-0.05462887305552254,-0.5280100138120091,0.058991020605846545,0.0724668911213279,nan
1740788794.6724849,-0.04730241760048631,-0.5533138157861682,0.04956368844484357,0.0765096558232571,nan
1740788794.6763897,-0.04157539291133244,-0.5751281989795192,0.039257293977620705,0.0788347504638364,nan
1740788794.6802945,-0.037541652828957384,-0.5933583839150182,0.028083304890083653,0.07939619829834312,nan
1740788794.6842253,-0.035273896835604474,-0.6079384444603354,0.01606715040152872,0.07816822126012676,nan
1740788794.6881301,-0.03482288343571362,-0.6188314212425015,0.0032482274869515843,0.07514561087286506,nan
1740788794.692035,-0.03621688061849772,-0.6260291748453997,-0.010320267871060744,0.0703438791663453,nan
1740788794.69594,-0.03946135898344147,-0.6295519824864653,-0.024571683628615892,0.06379918760917541,nan
1740788794.6998448,-0.044538930592313175,-0.6294478843272245,-0.039426426077991614,0.05556805438558133,nan
1740788794.7037497,-0.05140953406319209,-0.6257917879585676,-0.05479264099926063,0.0457268426554767,nan
1740788794.7076545,-0.060010863869671804,-0.6186843418921693,-0.0705670549648758,0.03437103472330213,nan
1740788794.7115593,-0.07025903927759783,-0.6082505910618082,-0.08663596835820174,0.021614299278386238,nan
1740788794.715464,-0.0820495058684275,-0.5946384293711764,-0.10287638991552298,0.007587361034799754,nan
1740788794.719369,-0.09525816018772233,-0.5780168661981835,-0.11915730095486254,-0.007563315830469059,nan
1740788794.723274,-0.10974268574405685,-0.5585741254616736,-0.13534103593208047,-0.023677017086850757,nan
1740788794.7271788,-0.12534408639133626,-0.5365155973583858,-0.1512847645817296,-0.040580425533304265,nan
1740788794.7310977,-0.14188840107844272,-0.5120616641716221,-0.16684205967234209,-0.05808940891630422,nan
1740788794.7350025,-0.15918858206530076,-0.4854454226261166,-0.1818645333468013,-0.07601093035028343,nan
1740788794.7389073,-0.1770465170029996,-0.45691032610610843,-0.19620352414001463,-0.09414506160165317,nan
1740788794.7428122,-0.1952551737749847,-0.42670777065790877,-0.20971181607835093,-0.11228707849164686,nan
1740788794.746717,-0.21360084571190466,-0.39509464905911107,-0.22224537077610187,-0.13022961677948341,nan
1740788794.7506218,-0.23186547373753558,-0.36233089735134677,-0.23366505315960598,-0.1477648662150077,nan
1740788794.7545269,-0.2498290211883124,-0.32867705810174824,-0.24383833137335323,-0.16468678000624823,nan
1740788794.7584317,-0.2672718764826085,-0.2943918842824834,-0.25264093155598377,-0.18079327673686243,nan
1740788794.7623365,-0.2839772585040691,-0.2597300070423977,-0.2599584285170238,-0.19588841179382102,nan
1740788794.7662413,-0.2997335995092354,-0.22493968979721038,-0.26568775389462557,-0.20978449562672097,nan
1740788794.7701461,-0.3143368805741325,-0.1902606899942818,-0.2697386041255327,-0.22230413665462684,nan
1740788794.774051,-0.3275928950555598,-0.15592224862640627,-0.27203473150385704,-0.23328218735940628,nan
1740788794.7779803,-0.33931941625590295,-0.12214122609024929,-0.272515102735822,-0.24256757304913998,nan
1740788794.7818851,-0.3493482464384099,-0.0891204013247328,-0.27113491070230417,-0.25002498393200634,nan
1740788794.78579,-0.3575271255333603,-0.05704694934053063,-0.2678664266066734,-0.2555364124984907,nan
1740788794.7896948,-0.36372147929259785,-0.026091110283056385,-0.2626996812974696,-0.2590025197543679,nan
1740788794.7935998,-0.36781598827604317,0.003594938921300873,-0.2556429662973908,-0.26034381556308106,nan
1740788794.7975047,-0.3697159608729215,0.031878001480615925,-0.24672314692426622,-0.259501640226754,nan
1740788794.8014095,-0.36934849555399013,0.05864455963317417,-0.23598578183706645,-0.2564389364411865,nan
1740788794.8053143,-0.3666634196990626,0.083801251271367,-0.22349504536057782,-0.2511408028816621,nan
1740788794.8092191,-0.361633994624763,0.10727512240192316,-0.20933345101521758,-0.24361482289175146,nan
1740788794.813124,-0.35425737882775754,0.12901365591787442,-0.1936013767821117,-0.23389116403414864,nan
1740788794.817029,-0.3445548439343874,0.14898457950710292,-0.1764163947460408,-0.22202244659778583,nan
1740788794.8209338,-0.33257174038360543,0.1671754578298098,-0.15791240985808808,-0.20808338151527295,nan
1740788794.8248718,-0.318377212440723,0.18359307633901936,-0.1382386146238042,-0.19217018050528292,nan
1740788794.8287768,-0.30206366471842466,0.19826262627115784,-0.11755826852946057,-0.17439974359164342,nan
1740788794.8326817,-0.28374598494277553,0.2112267023757954,-0.09604731294750099,-0.15490863144100225,nan
1740788794.8365865,-0.26356053021924575,0.22254412686380617,-0.0738928340917109,-0.13385183218048188,nan
1740788794.8404913,-0.24166388650156012,0.23228861481200394,-0.051291388303581285,-0.1114013344830994,nan
1740788794.844396,-0.21823141331939408,0.24054729785175433,-0.02844720552509255,-0.08774452072017125,nan
1740788794.848301,-0.19345558805545401,0.24741912437301947,-0.005570288232742395,-0.06308239585566972,nan
1740788794.8522058,-0.16754416615547446,0.25301315567948346,0.01712557564276396,-0.03762766947839221,nan
1740788794.8561108,-0.14071817558451297,0.2574467785227151,0.039424866220926766,-0.011602709915920979,nan
1740788794.8600156,-0.11320976558978166,0.26084385521379394,0.061112431139985206,0.014762609266256615,nan
1740788794.8639205,-0.08525993137605292,0.2633328330518459,0.08197560986595023,0.041233148920666596,nan
1740788794.8678253,-0.05711613762827414,0.26504483511520965,0.10180636126920987,0.06757080772769283,nan
1740788794.8717515,-0.029029864913602123,0.26611175452980995,0.12040337266653824,0.09353686624197154,nan
1740788794.8756564,-0.0012541038499312746,0.2666643741602111,0.137574128521127,0.11889434797460881,nan
1740788794.8795612,0.02595917746888244,0.2668305332641977,0.1531369172131342,0.1434103736652901,nan
1740788794.883466,0.05236156695630633,0.2667333620158491,0.16692275473765533,0.1668584848944877,nan
1740788794.887371,0.07771071700789522,0.2664896039422869,0.1787772048524266,0.1890209134238542,nan
1740788794.891276,0.10177280223225002,0.26620804524458513,0.18856207607875936,0.20969077313076206,nan
1740788794.8951807,0.12432490114701852,0.26598806869564817,0.19615697704816631,0.22867415211647743,nan
1740788794.8990855,0.1451572772517257,0.2659183483405793,0.20146071297422588,0.24579208350994197,nan
1740788794.9029903,0.1640755358440501,0.26607569958413624,0.20439250750220528,0.260882374651618,nan
1740788794.9068952,0.18090263414405322,0.2665240974525637,0.20489303583410426,0.2738012757130536,nan
1740788794.9108002,0.19548072372002145,0.2673138738827737,0.20292525682807175,0.2844249703743651,nan
1740788794.914705,0.20767280585615797,0.26848110284089016,0.19847503371137248,0.29265087292839354,nan
1740788794.9186294,0.21736418235014082,0.2700471799266118,0.1915515351060194,0.2983987180895933,nan
1740788794.9225342,0.2244636862592898,0.27201860090233165,0.18218741022575674,0.3016114318388783,nan
1740788794.9264393,0.22890467930768932,0.274386941320218,0.17043873434070542,0.30225577381235424,nan
1740788794.930344,0.2306458050011533,0.27712903713061243,0.15638472289944477,0.30032274402029235,nan
1740788794.934249,0.22967148894928113,0.28020736386550293,0.1401272150245367,0.2958277490402854,nan
1740788794.9381537,0.2259921804392974,0.2835706097260613,0.12178992943303033,0.2888105252414874,nan
1740788794.9420586,0.2196443319195783,0.28715443568738575,0.10151749815464575,0.27933481904113566,nan
1740788794.9459634,0.2106901157052828,0.29088241359054573,0.0794742857034784,0.2674878266454673,nan
1740788794.9498684,0.19921687988771575,0.29466713114474424,0.055843003580663866,0.25337939816007576,nan
1740788794.9537733,0.18533634808591432,0.2984114508329762,0.030823132122768285,0.23714101334507307,nan
1740788794.957678,0.1691835702965856,0.30200990792396415,0.004629163741316043,0.21892453861394123,nan
1740788794.961583,0.1509156346503623,0.3053502311606808,-0.02251131649816214,0.19890077710810436,nan
1740788794.9655063,0.1307101523423931,0.3083149682394937,-0.05035969525416878,0.17725782579922378,nan
1740788794.9694111,0.10876353034843178,0.31078319692981665,-0.07866852095235165,0.15419925555647315,nan
1740788794.973316,0.08528904873981008,0.31263230162625133,-0.10718379879671736,0.12994213194612528,nan
1740788794.9772208,0.060514761449352056,0.3137397942855604,-0.13564736884586218,0.10471489618690198,nan
1740788794.9811256,0.0346812411943264,0.313985158089054,-0.16379934425734713,0.07875512714956781,nan
1740788794.9850307,0.00803919091263132,0.3132516917945367,-0.19138058603314578,0.05230720654788153,nan
1740788794.9889355,-0.019153054502553526,0.31142833260568725,-0.21813519006164503,0.02561991050711018,nan
1740788794.9928403,-0.04663211119175297,0.30841143549306577,-0.24381296195382474,-0.0010560484952984225,nan
1740788794.996745,-0.07413218812009328,0.30410648724971223,-0.2681718551173558,-0.027470504753191193,nan
1740788795.00065,-0.1013877610640036,0.2984297341528809,-0.29098034770464215,-0.05337632263245843,nan
1740788795.0045547,-0.12813625177001858,0.29130970292656067,-0.31201973450856746,-0.07853185508851208,nan
1740788795.0084598,-0.15412068511655747,0.28268859574951066,-0.33108631056030213,-0.10270335261760115,nan
1740788795.0123813,-0.17909229723834563,0.2725235413203762,-0.3479934241013202,-0.1256672982865768,nan
1740788795.0162861,-0.2028130679758848,0.26078768546275366,-0.3625733777491648,-0.14721264515978075,nan
1740788795.0201912,-0.2250581516858082,0.24747110641418296,-0.3746791580432839,-0.16714293335607397,nan
1740788795.024096,-0.24561818138617622,0.2325815417773437,-0.38418597513099995,-0.1852782651151676,nan
1740788795.0280008,-0.2643014224051735,0.21614491610068234,-0.3909925961199669,-0.20145711761961516,nan
1740788795.0319057,-0.2809357531410766,0.1982056601790782,-0.3950224575655705,-0.2155379748937284,nan
1740788795.0358105,-0.2953704522120657,0.17882681540117584,-0.39622454466139095,-0.2274007618683342,nan
1740788795.0397153,-0.307477773160403,0.158089918795717,-0.3945740269379341,-0.23694806564323007,nan
1740788795.0436203,-0.31715428995842565,0.13609466682043697,-0.3900726426277118,-0.24410613107859674,nan
1740788795.0475252,-0.3243219988234067,0.11295835836901355,-0.3827488263006755,-0.24882562008173628,nan
1740788795.05143,-0.328929164262427,0.08881511991867494,-0.3726575768889506,-0.25108212630429677,nan
1740788795.0553348,-0.33095089981335,0.06381491817766825,-0.35988006577915604,-0.2508764394044105,nan
1740788795.0592554,-0.33038947659836543,0.03812236799200513,-0.3445229872288859,-0.248234555533526,nan
1740788795.0631604,-0.32727435553651113,0.011915345609312,-0.32671765593570595,-0.24320743325445218,nan
1740788795.0670652,-0.32166194184331337,-0.014616580351105007,-0.3066188591263111,-0.23587049665942195,nan
1740788795.07097,-0.3136350632521108,-0.04127388573269038,-0.2844034730150621,-0.2263228900095756,nan
1740788795.0748749,-0.30330217619389005,-0.06784897898590539,-0.2602688558795392,-0.2146864907340803,nan
1740788795.0787797,-0.2907963069430173,-0.09412822227882597,-0.23443103229191778,-0.20110469008306095,nan
1740788795.0826845,-0.2762737374466166,-0.11989406555908731,-0.20712268520513655,-0.18574095309860228,nan
1740788795.0865896,-0.25991244817840375,-0.14492727207687991,-0.1785909745998743,-0.16877717182829519,nan
1740788795.0904944,-0.2419103328666478,-0.1690092126164471,-0.14909520323129827,-0.15041182783305965,nan
1740788795.0943992,-0.22248320231505359,-0.19192420464946622,-0.11890435165408751,-0.1308579820135606,nan
1740788795.098304,-0.20186259674034965,-0.2134618718302147,-0.08829450613299646,-0.11034111157707611,nan
1740788795.1022089,-0.18029342806851345,-0.23341949870996975,-0.057546204248646066,-0.08909681557062553,nan
1740788795.1061385,-0.15803147544180496,-0.25160435526429514,-0.026941723971105506,-0.06736841179977254,nan
1740788795.1100433,-0.13534075877215873,-0.26783596580699376,0.0032376573139251737,-0.045404449121075115,nan
1740788795.113948,-0.11249081651627174,-0.2819482971108178,0.03271440688828052,-0.023456160027285903,nan
1740788795.117853,-0.0897539149293219,-0.29379184106759165,0.06121745676783666,-0.0017748791278267423,nan
1740788795.1217577,-0.06740221686608171,-0.3032355679958631,0.08848487270679097,0.019390546444721796,nan
1740788795.1256626,-0.045704938730623014,-0.3101687277372417,0.11426644544405158,0.03979632850372186,nan
1740788795.1295676,-0.024925524422770337,-0.31450247696457156,0.13832617811325315,0.059206265050086145,nan
1740788795.1334724,-0.005318865086984381,-0.3161713126451656,0.16044464461802985,0.077394197541613,nan
1740788795.1373773,0.012871406863166157,-0.31513429334707177,0.18042119490988212,0.09414637306390305,nan
1740788795.141282,0.029415521592219197,-0.31137603202971836,0.19807598448745128,0.10926368715023349,nan
1740788795.145187,0.044100046612477226,-0.3049074461043681,0.2132518070511649,0.1225637841185462,nan
1740788795.1490917,0.05673020670532892,-0.29576625286425434,0.22581571108108345,0.13388299315108151,nan
1740788795.1530201,0.06713202466647164,-0.28401720084708404,0.23566038314170265,0.14307807992366606,nan
1740788795.156925,0.07515426024137202,-0.26975203027998257,0.24270528293621613,0.15002779538196995,nan
1740788795.1608298,0.08067012654672585,-0.2530891584437391,0.24689751751353323,0.15463420524413538,nan
1740788795.1647346,0.08357876541998292,-0.23417308855291136,0.24821244455126742,0.15682378596372407,nan
1740788795.1686397,0.08380646548191353,-0.21317354355374704,0.2466539972731389,0.15654827519315748,nan
1740788795.1725445,0.08130760921379573,-0.19028432906478834,0.24225472628386394,0.15378526722290786,nan
1740788795.1764493,0.07606533801699247,-0.16572193249706968,0.23507555639248648,0.14853854641196076,nan
1740788795.180354,0.06809192701234425,-0.139723868163549,0.22520525931884877,0.14083815424529755,nan
1740788795.184259,0.05742886422248267,-0.11254678089220113,0.21275964600955843,0.13074018832832413,nan
1740788795.1881638,0.04414663173371114,-0.08446432326638391,0.19788048510166326,0.1183263343298724,nan
1740788795.1920688,0.028344189426026668,-0.05576482410226775,0.1807341568359992,0.10370313458749335,nan
1740788795.1959736,0.010148164860592628,-0.02674876811020309,0.16151005441033098,0.08700099976416764,nan
1740788795.1999004,-0.01028824410641178,0.002273891150029607,0.14041874734779877,0.06837297256748942,nan
1740788795.2038052,-0.03278664448615269,0.03098656094448871,0.11768992391257017,0.047993255084154404,nan
1740788795.2077103,-0.05714508875024327,0.05906895584852983,0.09357013190690648,0.026055513718557098,nan
1740788795.211615,-0.08313996577046039,0.0862001337080002,0.0683203393082597,0.002770978029561688,nan
1740788795.21552,-0.11052812441950988,0.1120615924954276,0.042213338129521986,-0.021633648089601575,nan
1740788795.2194247,-0.13904920970962634,0.13634039849706037,0.015531016589714937,-0.04691844246893637,nan
1740788795.2233295,-0.16842818909716098,0.1587323155683955,-0.011438473851810588,-0.07283266576007393,nan
1740788795.2272346,-0.19837804454498328,0.17894490479050815,-0.038403628833348594,-0.0991172838170939,nan
1740788795.2311394,-0.22860260413186184,0.19670056375383027,-0.06507255009339316,-0.1255075862719541,nan
1740788795.2350442,-0.25879948544815634,0.21173947489400782,-0.09115592376590348,-0.15173587513383968,nan
1740788795.238949,-0.288663121736881,0.22382243280691358,-0.11636998821952747,-0.17753419641731547,nan
1740788795.2428539,-0.3178878407425485,0.23273352127486527,-0.1404394616078894,-0.2026370872475587,nan
1740788795.2467802,-0.3461709655286097,0.2382826118383528,-0.16310039950953234,-0.2267843106089655,nan
1740788795.250685,-0.37321590612622996,0.24030765713918317,-0.18410295354282252,-0.24972354990002835,nan
1740788795.2545898,-0.398735210788155,0.23867675393081078,-0.2032140026400077,-0.2712130357339564,nan
1740788795.2584946,-0.42245354584394534,0.2332899525859437,-0.22021962974966022,-0.29102407797941565,nan
1740788795.2623994,-0.4441105736863992,0.2240807921137864,-0.23492741809897708,-0.30894347686485135,nan
1740788795.2663045,-0.4634636992598212,0.21101754211027451,-0.24716854277524095,-0.3247757880660322,nan
1740788795.2702093,-0.4802906565621612,0.19410413568295412,-0.25679963526473254,-0.33834541804989837,nan
1740788795.2741141,-0.4943919081053088,0.17338078019390918,-0.26370440070071105,-0.3494985275463803,nan
1740788795.278019,-0.5055928319882163,0.14892423562369358,-0.2677949699003133,-0.3581047228485446,nan
1740788795.2819238,-0.5137456732105432,0.12084775344896798,-0.2690129707918072,-0.36405851668308703,nan
1740788795.2858286,-0.5187312380721212,0.08930067211759576,-0.2673303065250673,-0.3672805426285453,nan
1740788795.2897336,-0.5204603129448723,0.05446766846697887,-0.26274963039385446,-0.3677185094660267,nan
1740788795.2936578,-0.5188747913460369,0.016567667733305296,-0.25530451065156445,-0.3653478844037132,nan
1740788795.2975626,-0.5139484960594545,-0.024147581890689263,-0.2450592813442368,-0.36017229679695273,nan
1740788795.3014674,-0.5056876860183117,-0.06739526090606279,-0.23210857838634055,-0.35222365676429246,nan
1740788795.3053722,-0.4941312407495558,-0.11286354389317957,-0.21657656323610752,-0.3415619859490357,nan
1740788795.309277,-0.4793505183572329,-0.16021396301815233,-0.19861583965724344,-0.32827496056770883,nan
1740788795.3131819,-0.4614488862582807,-0.20908405102407945,-0.17840607215194496,-0.31247716979253537,nan
1740788795.317087,-0.4405609271481661,-0.2590902421988718,-0.1561523176855613,-0.29430909540572653,nan
1740788795.3209918,-0.4168513259329382,-0.3098310071183981,-0.13208308526563725,-0.27393582151007506,nan
1740788795.3248966,-0.39051344658655773,-0.3608901944772299,-0.10644814075790915,-0.25154548585440945,nan
1740788795.3288014,-0.36176761104560223,-0.4118405510652665,-0.07951607699049437,-0.2273474870058622,nan
1740788795.3327062,-0.33085909530606283,-0.4622473889509292,-0.05157167168773568,-0.20157046414628144,nan
1740788795.3366113,-0.29805586080813357,-0.5116723672116902,-0.022913058061224647,-0.17446006866158975,nan
1740788795.340534,-0.26364604195502206,-0.5596773541297267,0.006151265056490228,-0.14627654890557373,nan
1740788795.3444388,-0.22793521318258417,-0.605828334660495,0.03530555484192984,-0.1172921715305295,nan
1740788795.3483436,-0.1912434613515431,-0.6496993271985385,0.06423004764215988,-0.08778850456523762,nan
1740788795.3522487,-0.15390229134858893,-0.6908762732180659,0.09260425218324848,-0.0580535889667433,nan
1740788795.3561535,-0.1162513946344159,-0.7289608632630403,0.12011028038980386,-0.02837902665966597,nan
1740788795.3600583,-0.07863531204591002,-0.7635742630064398,0.1464361827405954,0.000942985909032236,nan
1740788795.3639631,-0.041400023429044204,-0.7943607036917079,0.17127925476697148,0.029622648942447476,nan
1740788795.367868,-0.00488949763409757,-0.8209909022082263,0.19434928130886728,0.05737554500015712,nan
1740788795.3717728,0.030557762965628954,-0.8431652773309753,0.21537168547985253,0.0839255889093546,nan
1740788795.3756778,0.06461214897471722,-0.8606169302627289,0.234090549957124,0.10900791171813849,nan
1740788795.3795826,0.09695630708238853,-0.8731143595426583,0.2502714792005151,0.13237164899803516,nan
1740788795.3834875,0.1272884057449804,-0.8804638826120659,0.26370427250921563,0.1537826045725846,nan
1740788795.3874102,0.15532527013656466,-0.8825117388373964,0.27420537943559325,0.17302576181279428,nan
1740788795.391315,0.18080535411669732,-0.8791458515609274,0.28162011097892303,0.18990761598973122,nan
1740788795.3952198,0.20349151834654974,-0.8702972297561703,0.28582458216147955,0.20425830279774304,nan
1740788795.3991246,0.22317358538120166,-0.8559409930813129,0.2867273640263116,0.21593350004437747,nan
1740788795.4030294,0.23967064456203038,-0.8360970075208438,0.28427082576816187,0.22481608162795927,nan
1740788795.4069345,0.2528330818112616,-0.8108301223519075,0.2784321505922948,0.23081750527131314,nan
1740788795.4108393,0.26254431197031725,-0.7802500028352612,0.26922401196390966,0.23387891802850044,nan
1740788795.4147441,0.26872219410145043,-0.7445105567769691,0.25669490013496093,0.23397196630657496,nan
1740788795.418649,0.2713201131626421,-0.703808956901102,0.2409290921854157,0.23109930002047008,nan
1740788795.4225538,0.27032771464084787,-0.6583842647799606,0.22204626226060914,0.22529476349850575,nan
1740788795.4264588,0.2657712820587202,-0.6085156658505795,0.20020073219275372,0.21662326884992367,nan
1740788795.4303637,0.2577137507231798,-0.5545203287683618,0.17558036622919126,0.20518035066413404,nan
1740788795.4342847,0.24625435462774523,-0.4967509059746747,0.14840511711855744,0.19109140410319014,nan
1740788795.4381895,0.23152790702034443,-0.43559269585008076,0.11892523429438973,0.17451061164304388,nan
1740788795.4420946,0.2137037187695275,-0.37146049015424787,0.08741914830975776,0.15561956688375972,nan
1740788795.4459994,0.19298416226939494,-0.30479513358468036,0.05419104898242189,0.13462560695254475,nan
1740788795.4499042,0.16960289218175661,-0.23605982518800925,0.019568177875113207,0.11175986803512533,nan
1740788795.453809,0.14382273778801985,-0.16573619400045983,-0.01610214127211319,0.08727508146026083,nan
1740788795.4577138,0.11593328507854568,-0.09432018365127803,-0.05245570775113353,0.061443130499600346,nan
1740788795.461619,0.08624816991011482,-0.022317782709813706,-0.08911485577259333,0.034552390602560615,nan
1740788795.4655237,0.05510210658051663,0.049759360727902206,-0.12569204176676405,0.006904878137012889,nan
1740788795.4694285,0.022847678972295914,0.12139840035271901,-0.16179357381786716,-0.021186765173496463,nan
1740788795.4733334,-0.010148076023404357,0.19208978799717794,-0.19702344823860304,-0.049402423058950255,nan
1740788795.4772382,-0.04350726080383263,0.26133176355230303,-0.230987256902206,-0.07741776010904021,nan
1740788795.4811573,-0.07684485108024022,0.32863479673346524,-0.26329612789927886,-0.10490754982599847,nan
1740788795.4850624,-0.1097725359631938,0.3935259391405146,-0.29357066138884336,-0.13154904237942186,nan
1740788795.4889672,-0.14190262709707932,0.45555304560857596,-0.3214448221771483,-0.1570253384426602,nan
1740788795.492872,-0.17285199884211752,0.5142888247876904,-0.3465697505899415,-0.18102873514209572,nan
1740788795.4967768,-0.2022460208738104,0.5693346802158834,-0.3686174536070703,-0.20326401013587547,nan
1740788795.5006816,-0.22972244431268285,0.620324304851343,-0.38728433900145603,-0.22345161016000137,nan
1740788795.5045867,-0.25493520261687214,0.66692699409181,-0.40229455636354733,-0.24133071103650616,nan
1740788795.5084915,-0.2775580889679619,0.7088506447160857,-0.4134031103893459,-0.2566621171268543,nan
1740788795.5123963,-0.29728827275467085,0.7458444099134608,-0.42039871365376935,-0.26923096952666437,nan
1740788795.5163012,-0.31384961900370506,0.7777009835983487,-0.42310634826667415,-0.2788492339248242,nan
1740788795.520206,-0.32699577621317333,0.8042584905128983,-0.4213895082984153,-0.28535794097775435,nan
1740788795.5241108,-0.3365129999985415,0.8254019621707407,-0.41515209764414973,-0.28862915426129776,nan
1740788795.5280395,-0.3422226822479118,0.841064382458319,-0.404339961047193,-0.28856764333922647,nan
1740788795.5319443,-0.34398355808295145,0.8512272906525695,-0.3889420292947411,-0.2851122422063775,nan
1740788795.535849,-0.3416935658113105,0.8559209336991175,-0.36899106310492613,-0.2782368763015603,nan
1740788795.539754,-0.3352913382102516,0.8552239637860728,-0.3445639839108253,-0.26795124441345414,nan
1740788795.543659,-0.32475730687106225,0.8492626815061863,-0.31578178358123427,-0.25430114509295854,nan
1740788795.5475638,-0.3101144049289014,0.8382098291849466,-0.28280900906449274,-0.23736844060699003,nan
1740788795.5514686,-0.2914283572699203,0.8222829432239304,-0.2458528219639563,-0.21727065498934675,nan
1740788795.5553734,-0.2688075512120748,0.8017422785270629,-0.20516163711426286,-0.19416020633050932,nan
1740788795.5592782,-0.2424024846614348,0.7768883222023389,-0.1610233482881663,-0.16822327706577261,nan
1740788795.5631833,-0.21240479281439806,0.7480589177234414,-0.11376315318597084,-0.1396783296349874,nan
1740788795.5670881,-0.17904585856954444,0.7156260245561832,-0.06374099380503455,-0.1087742784623567,nan
1740788795.570993,-0.14259501589182608,0.6799921418665784,-0.011348632117474451,-0.0757883327060955,nan
1740788795.57492,-0.10335735939724477,0.6415864282952591,0.04299361533712722,-0.0410235276208247,nan
1740788795.5788248,-0.061671177359189054,0.600860552873463,0.0988404568465744,-0.004805965626444198,nan
1740788795.5827296,-0.017905029139829713,0.558284314938043,0.15572548854297974,0.03251820874667908,nan
1740788795.5866344,0.02754550831587958,0.514341073348513,0.2131653076635542,0.0705860729963625,nan
1740788795.5905392,0.07426139685611563,0.46952302739276025,0.2706638399502567,0.10902140019682775,nan
1740788795.5944443,0.12180396510900643,0.4243263934676895,0.3277168426705307,0.14743830991085513,nan
1740788795.598349,0.16971897390066434,0.3792465229179539,0.38381654266803716,0.18544506233707234,nan
1740788795.602254,0.2175408823047783,0.3347730072952491,0.4384563671408583,0.22264795979125068,nan
1740788795.6061587,0.26479727523226126,0.29138481775106306,0.491135723514245,0.2586553181787421,nan
1740788795.6100636,0.3110134115300727,0.24954552529018098,0.541364783841451,0.29308147002085133,nan
1740788795.6139686,0.35571684999273656,0.20969864818738884,0.5886692286416597,0.3255507598645484,nan
1740788795.6178734,0.39844210951605286,0.17226317200657407,0.6325949049769604,0.35570149254276195,nan
1740788795.6218,0.4387353188543992,0.13762928636479677,0.6727123538853939,0.38318979476835646,nan
1740788795.6257048,0.47615881109133995,0.10615438086300875,0.708621163024928,0.4076933509419252,nan
1740788795.6296096,0.510295618004729,0.07815934047293716,0.7399541015406695,0.4289149748314472,nan
1740788795.6335146,0.5407538200048311,0.053925178143346075,0.766380995737508,0.4465859799365801,nan
1740788795.6374195,0.5671707082459752,0.033690039489159405,0.7876123061116149,0.4604693128742735,nan
1740788795.6413243,0.5892167168536123,0.01764661117828003,0.803402368651992,0.47036241600431256,nan
1740788795.645229,0.606599084960121,0.005939961061138456,0.813552266048931,0.47609978773861344,nan
1740788795.649134,0.6190652103911917,-0.0013341657718768994,0.8179122975177482,0.47755521152852337,nan
1740788795.6530387,0.6264056593730091,-0.004130574936047743,0.8163840193378965,0.47464362737879806,nan
1740788795.6569438,0.6284567995182176,-0.002455358967698903,0.808921831890958,0.46732262287087517,nan
1740788795.6608486,0.6251030265714261,0.003633869407371928,0.7955340929243997,0.4555935240644841,nan
1740788795.6647534,0.6162785589254315,0.014028253512357794,0.7762837409371747,0.4395020702556042,nan
1740788795.6686776,0.6019687777267045,0.0285684802701781,0.7512884169416453,0.4191386603683257,nan
1740788795.6725824,0.5822110944396484,0.04704607606297698,0.7207200773653054,0.39463816271393076,nan
1740788795.6764872,0.5570953319977818,0.0692052030779149,0.6848040954751079,0.36617928392670995,nan
1740788795.6803923,0.5267636100981856,0.0947449435324754,0.6438178533952809,0.333983497045194,nan
1740788795.684297,0.49140972975334285,0.12332205446740523,0.5980888315037545,0.29831353291127144,nan
1740788795.688202,0.45127805686042965,0.15455417121376094,0.5479922066896843,0.25947144326881216,nan
1740788795.6921067,0.4066619092395986,0.18802343322567852,0.49394797559173803,0.21779624811850617,nan
1740788795.6960115,0.3579014562865484,0.2232805017644428,0.4364176234708176,0.17366118398703032,nan
1740788795.6999166,0.3053811450370983,0.259848934962705,0.37590036375932023,0.12747057375730417,nan
1740788795.7038214,0.24952667100897613,0.2972298821286128,0.31292897753051496,0.07965634254400283,nan
1740788795.7077262,0.1908015166255606,0.3349070558041776,0.24806528610619533,0.030674207747414705,nan
1740788795.711631,0.12970308429574856,0.3723519371036352,0.1818952937302893,-0.01900042515671373,nan
1740788795.715554,0.06675845528244377,0.4090291672560116,0.11502404064452723,-0.06887682636754752,nan
1740788795.7194588,0.002519809300284602,0.44440207608839427,0.048070209976093216,-0.11845352745007313,nan
1740788795.7233639,-0.06244045669613043,0.47793829643564983,-0.018339465444310754,-0.1672230888107498,nan
1740788795.7272687,-0.1275348688738896,0.5091154121678735,-0.08357594790002461,-0.21467700659247085,nan
1740788795.7311735,-0.19216623152950585,0.5374265867038471,-0.14701374090917677,-0.2603107147838807,nan
1740788795.7350783,-0.2557331497782002,0.5623861185383103,-0.2080367848555184,-0.3036286368892745,nan
1740788795.7389832,-0.31763567090832695,0.5835348704594566,-0.2660443493300099,-0.344149240464066,nan
1740788795.7428882,-0.37728099376379653,0.6004455197730671,-0.32045686884484803,-0.3814100472006188,nan
1740788795.746793,-0.4340891943458922,0.6127275779786918,-0.37072166851844524,-0.41497255105958447,nan
1740788795.7506979,-0.48749891511807486,0.6200321299546323,-0.4163185267468592,-0.44442699718853906,nan
1740788795.7546027,-0.536972965263235,0.6220562447908619,-0.4567650227743466,-0.46939697505427824,nan
1740788795.7585075,-0.5820037793882964,0.6185470129469186,-0.4916216184486877,-0.4895437803353331,nan
1740788795.76243,-0.6221186828975243,0.6093051673853302,-0.5204964252871673,-0.5045705016707832,nan
1740788795.7663348,-0.6568849134605012,0.5941882497164123,-0.5430496102735247,-0.514225790329817,nan
1740788795.7702398,-0.6859143496761029,0.5731132861594154,-0.5589973965378056,-0.5183072732396037,nan
1740788795.7741446,-0.7088679001684363,0.5460589422465421,-0.5681156182186162,-0.5166645725686416,nan
1740788795.7780495,-0.7254595089285157,0.5130671296354301,-0.5702427923457967,-0.5092018981872045,nan
1740788795.7819543,-0.7354597357165527,0.47424404311422297,-0.5652826744822153,-0.4958801827904419,nan
1740788795.785859,-0.7386988737399621,0.42976061084072364,-0.5532062690941265,-0.4767187332445926,nan
1740788795.7897642,-0.7350695705938189,0.37985234601002055,-0.5340532701449672,-0.4517963757710336,nan
1740788795.793669,-0.7245289225621075,0.3248185934483264,-0.5079329121893668,-0.42125207688206273,nan
1740788795.7975738,-0.7071000167950652,0.2650211700376689,-0.47502421724186605,-0.3852850264895612,nan
1740788795.8014786,-0.682872900562602,0.20088240333850704,-0.4355756278653498,-0.34415417428397377,nan
1740788795.8053834,-0.6520049616958717,0.13288257824651964,-0.38990402222286613,-0.29817721528544433,nan
1740788795.809304,-0.6147207094259859,0.06155680694650205,-0.3383931122171554,-0.2477290253592479,nan
1740788795.8132088,-0.5713109500661006,-0.012508657238514027,-0.2814912312576911,-0.19323955242034205,nan
1740788795.8171136,-0.522131357314565,-0.08868063630966944,-0.21970852359764848,-0.13519117398295372,nan
1740788795.8210187,-0.4676004423353388,-0.1662837435654462,-0.1536135525250251,-0.0741155365961346,nan
1740788795.8249235,-0.4081969341496085,-0.24460556351100843,-0.08382934992556662,-0.01058989750095453,nan
1740788795.8288283,-0.3444565862012362,-0.3229022556333066,-0.01102893481319507,0.05476700649432868,nan
1740788795.8327332,-0.27696843019043854,-0.40040453779577223,0.06406966669942804,0.12129953344107791,nan
1740788795.836638,-0.2063705033574858,-0.47632400119004065,0.1407088628860991,0.18832012023373834,nan
1740788795.840543,-0.1333450802948767,-0.5498597053616046,0.2180973579002469,0.2551146383977201,nan
1740788795.8444479,-0.05861344502748113,-0.6202049988345743,0.2954163878124155,0.320948080218729,nan
1740788795.8483527,0.01706975651748412,-0.6865545083272281,0.3718262820776068,0.38507053037129296,nan
1740788795.8522575,0.09292253946586976,-0.7481112375001787,0.44647329806674524,0.44672337518924565,nan
1740788795.8561764,0.16814193048728734,-0.8040937146340599,0.5184966734755468,0.5051456990996358,nan
1740788795.8600812,0.24191059461835998,-0.8537431276104094,0.5870358390607777,0.5595808155403361,nan
1740788795.863986,0.3134036843277685,-0.8963303840803096,0.6512377322716209,0.6092828779231106,nan
1740788795.8678908,0.3817958542969607,-0.9311630347577968,0.7102641509619314,0.6535235149069715,nan
1740788795.8717957,0.4462683834321265,-0.9575919983720029,0.7632990855024341,0.6915984334260994,nan
1740788795.8757007,0.5060163441618896,-0.9750180279513229,0.8095559672709309,0.7228339325832042,nan
1740788795.8796055,0.5602557581271022,-0.9828978597878731,0.848284771689244,0.7465932716792698,nan
1740788795.8835104,0.6082306769453952,-0.9807499886293842,0.8787789146991017,0.7622828363063243,nan
1740788795.8874152,0.6492201268405805,-0.9681600153522092,0.9003818828221554,0.7693580475788068,nan
1740788795.89132,0.6825448565675545,-0.9447855165623902,0.9124935387236413,0.7673289612146056,nan
1740788795.895225,0.7075738292345208,-0.9103603892263983,0.9145760464822138,0.7557655052877673,nan
1740788795.8991299,0.7237304003185916,-0.8646986275197791,0.9061593635429371,0.734302308045992,nan
1740788795.9030583,0.7304981263762095,-0.8076974935670259,0.8868462495748214,0.7026430701977033,nan
1740788795.906963,0.7274261516497347,-0.7393400485924687,0.8563167461427708,0.6605644395023311,nan
1740788795.910868,0.7141341229448165,-0.6596970161693855,0.814332085206654,0.607919349316062,nan
1740788795.9147727,0.6903165867746405,-0.5689279546994194,0.7607379889439497,0.5446397869228907,nan
1740788795.9186778,0.6557468268072448,-0.46728172193071976,0.6954673282200455,0.47073896198304,nan
1740788795.9225826,0.6102801040778237,-0.3550962201826788,0.618542112161772,0.3863128502205768,nan
1740788795.9264874,0.5538562672023994,-0.23279741693766848,0.5300747866822079,0.2915410925092644,nan
1740788795.9303923,0.48650170491261474,-0.10089764153435747,0.43026882541297307,0.18668723475813218,nan
1740788795.934297,0.40833061858086295,0.04000683519938224,0.3194186022767329,0.07209829940154927,nan
1740788795.9382021,0.3195455979751917,0.1892389254559865,0.19790854082866496,-0.05179631518318575,nan
1740788795.942107,0.2204374892270876,0.3460445341784614,0.06621154146089313,-0.18448660542166473,nan
1740788795.9460118,0.1113845498632192,0.5095970292145624,-0.07511330645230482,-0.32538439593666163,nan
1740788795.94995,-0.007149108305762097,0.6790023414027623,-0.22542371443971815,-0.4738264224985222,nan
1740788795.9538548,-0.13461578168138608,0.8533046586323585,-0.3839978679527902,-0.6290780459385783,nan
1740788795.9577596,-0.2703871300641943,1.031492672732414,-0.5500387578904817,-0.7903375730563692,nan
1740788795.9616647,-0.4137578059806317,1.2125063331801167,-0.7226791404509187,-0.9567411553466697,nan
1740788795.9655695,-0.5639497338738897,1.3952440571218592,-0.9009870898135349,-1.1273682313845665,nan
1740788795.9694743,-0.7201170093377204,1.5785703411096506,-1.0839721031151974,-1.3012474739798423,nan
1740788795.9733791,-0.8813513832564287,1.7613237163081694,-1.2705917124650428,-1.4773631987875322,nan
1740788795.977284,-1.046688290673922,1.9423249857565166,-1.4597585543863383,-1.6546621869788487,nan
1740788795.981189,-1.2151133794941518,2.120385679602333,-1.6503478431178162,-1.8320608708721806,nan
1740788795.9850938,-1.385569489755963,2.2943166620888378,-1.841205190686058,-2.008452828130773,nan
1740788795.9889987,-1.5569640302658019,2.462936822487326,-2.031154713605707,-2.1827165272816176,nan
1740788795.9929035,-1.7281766958469231,2.6250817811440057,-2.2190073635023673,-2.353723264925207,nan
1740788795.9968112,-1.8980674654050738,2.77961254136089,-2.403569416906901,-2.5203452331099165,nan
1740788796.000716,-2.0654848184454244,2.9254240179611957,-2.5836510579576277,-2.681463653955906,nan
1740788796.004621,-2.2292741056268706,3.0614533741006373,-2.7580749867825465,-2.8359769177448833,nan
1740788796.0085258,-2.3882860074263754,3.1866880991722613,-2.9256849859260687,-2.9828086603529522,nan
1740788796.0124307,-2.541385014021787,3.3001737625045213,-3.085354377338175,-3.1209157160984073,nan
1740788796.0163355,-2.687457859095807,3.4010213799553153,-3.2359943031578444,-3.2492958828047094,nan
1740788796.0202403,-2.8254218404209097,3.488414333439306,-3.376561764791492,-3.3669954371358983,nan
1740788796.0241454,-2.954232960804556,3.5616147868680743,-3.506067356601078,-3.473116340038345,nan
1740788796.0280502,-3.0728938242507384,3.619969545903774,-3.623582632860313,-3.566823074404751,nan
1740788796.031955,-3.1804612240174035,3.66291531329463,-3.728247049491785,-3.6473490598456686,nan
1740788796.0358598,-3.2760533616048892,3.6899832963380153,-3.8192744254389632,-3.714002592687794,nan
1740788796.0397646,-3.3588566385784286,3.700803128164044,-3.8959588723267324,-3.76617226299046,nan
1740788796.043689,-3.4281319664841865,3.69510607000622,-3.9576801452906403,-3.803331804451595,nan
1740788796.0475938,-3.4832205439348516,3.67272746737948,-4.003908372472525,-3.82504433752805,nan
1740788796.0514987,-3.523549054185261,3.633608439071459,-4.034208125649793,-3.8309659708854222,nan
1740788796.0554035,-3.5486342411550447,3.577796784019205,-4.048241799745245,-3.82084873137905,nan
1740788796.0593083,-3.558086826844341,3.5054470974388923,-4.045772274509394,-3.7945427981081568,nan
1740788796.0632133,-3.551614738388017,3.416820093946797,-4.026664837430768,-3.7519980216340363,nan
1740788796.0671182,-3.5290256185582733,3.312281141802126,-3.990888352862929,-3.6932647151641183,nan
1740788796.071023,-3.4902285993079407,3.1922980187620422,-3.9385156684098415,-3.618493710328307,nan
1740788796.0749278,-3.4352353238976177,3.0574379063125,-3.869723255732465,-3.5279356760631657,nan
1740788796.0788326,-3.364160209218782,2.9083636451724004,-3.784790089077459,-3.421939705023457,nan
1740788796.0827377,-3.2772199460602573,2.745829280911092,-3.684095770931946,-3.3009511778093956,nan
1740788796.0866425,-3.174732241214859,2.57067493422034,-3.5681179202247892,-3.1655089210821212,nan
1740788796.0905652,-3.057113811434508,2.3838210357935146,-3.4374288443744936,-3.0162416812905892,nan
1740788796.09447,-2.9248776452636753,2.1862619708413757,-3.2926915221771087,-2.8538639412025733,nan
1740788796.098375,-2.7786295546617312,1.9790591829730066,-3.134654929986834,-2.6791711116747385,nan
1740788796.10228,-2.619064044014982,1.7633337914527594,-2.9641487488218794,-2.493034136067614,nan
1740788796.1061847,-2.4469595295907554,1.540258779674083,-2.7820774948854305,-2.296393549369195,nan
1740788796.1100895,-2.263172947653199,1.311050816036987,-2.589414120486118,-2.090253038396591,nan
1740788796.1139944,-2.068633794299995,1.076961771250305,-2.387193136437231,-1.875672553362982,nan
1740788796.1178994,-1.8643376445506863,0.8392699983798043,-2.176503310675535,-1.653761024594322,nan
1740788796.1218042,-1.651339202283659,0.5992714437101915,-1.9584800010393715,-1.4256687412281037,nan
1740788796.125709,-1.4307449362463667,0.35827065766962884,-1.7342971828559821,-1.1925794512998737,nan
1740788796.1296139,-1.203705360522635,0.11757177567084631,-1.5051592341885436,-0.955702244701415,nan
1740788796.1335187,-0.9714070205061094,-0.12153046125040413,-1.2722925432671695,-0.716263282060893,nan
1740788796.1374407,-0.7350642475791048,-0.3577595766696315,-1.0369370037629362,-0.4754974336377723,nan
1740788796.1413455,-0.4959107473144068,-0.589866051672759,-0.8003374641520463,-0.23463989283629177,nan
1740788796.1452503,-0.2551910870920948,-0.8166357738943882,-0.563735197455797,0.005082171082128009,nan
1740788796.1491554,-0.01415214954677656,-1.0368981783956377,-0.3283594571327168,0.24245785706352266,nan
1740788796.1530602,0.2259653817696441,-1.249534018831696,-0.09541918384877494,0.47630061016194364,nan
1740788796.156965,0.4639354387061864,-1.453482710607395,0.13390507372906554,0.7054560719336908,nan
1740788796.1608698,0.6985548221343555,-1.6477491914364097,0.35846896306559073,0.9288096440825316,nan
1740788796.1647747,0.9286512298537758,-1.8314102488729613,0.5771717983553392,1.14529370869416,nan
1740788796.1686797,1.153090997937083,-2.0036202689373126,0.7889636421842033,1.3538944514368516,nan
1740788796.1725845,1.3707864973391175,-2.1636163648675963,0.9928519463542259,1.553658237574398,nan
1740788796.1764894,1.5807031307356831,-2.310722850257687,1.1879077038824715,1.7436974945059112,nan
1740788796.1803942,1.7818658781388335,-2.444355026338041,1.373271068470846,1.9231960587805905,nan
1740788796.1843154,1.9733653438260081,-2.564022258875968,1.5481564023660928,2.09141395009666,nan
1740788796.1882203,2.1543632614834647,-2.6693303260640895,1.7118567184468205,2.247691539642306,nan
1740788796.192125,2.324097419160961,-2.7599830247799053,1.863747487543876,2.391453085230104,nan
1740788796.19603,2.4818859706228134,-2.835783028683725,2.003289787376226,2.522209610970797,nan
1740788796.1999347,2.6271311049159465,-2.896631997724845,2.130032775019846,2.639561114681327,nan
1740788796.2038398,2.7593220514121777,-2.9425299446944906,2.2436154704737463,2.743198091778715,nan
1740788796.2077446,2.8780374031721836,-2.973573870447549,2.34376784459645,2.8329023700278,nan
1740788796.2116494,2.9829467471732616,-2.989955685262886,2.4303112104088,2.908547255138966,nan
1740788796.2155542,3.0738115956930643,-2.991959439475061,2.5031579224460776,2.9700969928035796,nan
1740788796.219459,3.1504856188968926,-2.9799578919413605,2.562310394445533,3.017605558262689,nan
1740788796.223364,3.21291418438764,-2.9544084500623895,2.607859451127423,3.0512147898817874,nan
1740788796.227269,3.2611332150961974,-2.915848519909628,2.6399820351223733,3.071151888406149,nan
1740788796.2311983,3.295267382368352,-2.8648903094901663,2.6589382951713785,3.0777263085538986,nan
1740788796.2351031,3.315527656395679,-2.8022151322613147,2.665068086534976,3.0713260743261444,nan
1740788796.239008,3.3222082411984255,-2.728567261663573,2.6587869190558435,3.052413553836692,nan
1740788796.242913,3.315682926155781,-2.6447473906412924,2.6405813924876393,3.021520733551646,nan
1740788796.2468178,3.2964008905539597,-2.551605752841718,2.6110041624991918,2.979244035549053,nan
1740788796.2507226,3.264882001748719,-2.4500349644053045,2.5706684841572294,2.926238724730966,nan
1740788796.2546275,3.22171165128336,-2.3409626469675064,2.5202423826566904,2.863212955819077,nan
1740788796.2585323,3.167535176636213,-2.2253438936739878,2.4604425035830704,2.7909215124185174,nan
1740788796.2624373,3.103051919167608,-2.1041536406608894,2.392027697038139,2.7101592924243016,nan
1740788796.2663422,3.029008971273578,-1.9783790065681617,2.315792391524943,2.62175459555773,nan
1740788796.270247,2.9461946677146487,-1.8490116622399255,2.2325598145606893,2.526562269846036,nan
1740788796.2741518,2.855431877559807,-1.717040291829207,2.1431751175618317,2.425456774392596,nan
1740788796.27808,2.757571154159539,-1.5834432050774918,2.0484984626237117,2.319325215826229,nan
1740788796.2819848,2.6534838010332584,-1.4491811585989596,1.949398128401124,2.209060415369951,nan
1740788796.2858896,2.5440549115258686,-1.3151904415859048,1.8467436913941957,2.095554062539766,nan
1740788796.2897947,2.4301764395602548,-1.18237627849062,1.7413993375681622,1.9796900100846624,nan
1740788796.2936995,2.3127403577962196,-1.0516065979584621,1.634217357402399,1.8623377629258593,nan
1740788796.2976043,2.192631958015125,-0.9237062136191437,1.52603187519355,1.744346211566466,nan
1740788796.3015091,2.070723346600741,-0.7994514583237214,1.417652860753819,1.626537657745679,nan
1740788796.305414,1.9478671856018848,-0.6795653090813452,1.3098604685758444,1.5097021770313468,nan
1740788796.309319,1.8248907270665267,-0.5647130353432965,1.2033997461105683,1.3945923596116396,nan
1740788796.3132238,1.7025901851587002,-0.4554983984447187,1.0989757490579137,1.281918466793607,nan
1740788796.3171287,1.5817254870405757,-0.35246042499117725,0.9972490975376733,1.1723440366794315,nan
1740788796.3210335,1.4630154396570516,-0.2560707718134568,0.8988320027284257,1.0664819682081603,nan
1740788796.3249605,1.347133345436485,-0.16673169485625644,0.8042847890755728,0.964891108261502,nan
1740788796.3288653,1.2347030955579894,-0.08477462906180536,0.7141129325175304,0.8680733618783039,nan
1740788796.33277,1.1262957648743819,-0.010459381004738965,0.6287646304046071,0.7764713408461975,nan
1740788796.3366752,1.0224267278629908,0.056026069223394044,0.5486289139316186,0.6904665610838686,nan
1740788796.34058,0.9235533101477983,0.11456516554716545,0.47403430901687343,0.6103781943372115,nan
1740788796.3444848,0.8300729852400994,0.1651117865535575,0.40524804668052605,0.5364623748308871,nan
1740788796.3483896,0.7423221212256126,0.20768868779570926,0.3424758191478819,0.4689120566867261,nan
1740788796.3522947,0.6605752772280438,0.24238539892590444,0.28586207317052054,0.4078574131844642,nan
1740788796.3561995,0.5850450446463175,0.2693556031974924,0.2354908274613863,0.35336676433960945,nan
1740788796.3601043,0.5158824234378,0.28881403094780833,0.1913869967189125,0.30544801484751655,nan
1740788796.3640091,0.4531777191442781,0.30103290241792396,0.15351820050760193,0.2640505802297512,nan
1740788796.367914,0.39696194197093804,0.3063379586505326,0.12179703130366107,0.2290677750540357,nan
1740788796.37184,0.3472086850686467,0.305104122208188,0.09608375233723711,0.20033963341548988,nan
1740788796.3757448,0.3038364552717585,0.2977508320479118,0.07618939249749436,0.17765612849467546,nan
1740788796.3796496,0.2667114259398464,0.28473709905624484,0.06187920254016999,0.1607607549741888,nan
1740788796.3835545,0.23565057827172178,0.2665563304764381,0.05287643417292106,0.14935443542400692,nan
1740788796.3874595,0.21042519453008518,0.2437309727362226,0.048866401311813995,0.14309970947680226,nan
1740788796.3913643,0.19076466405791181,0.21680702300396745,0.0495007809191025,0.14162516272459474,nan
1740788796.3952692,0.17636056080240722,0.18634846016108225,0.054402109360647426,0.14453005079033526,nan
1740788796.399174,0.1668709493043672,0.1529316457810869,0.0631684291696289,0.1513890729712674,nan
1740788796.4030788,0.16192487477156678,0.11713974515718559,0.0753780404764891,0.16175724922032286,nan
1740788796.4069839,0.16112699194180718,0.07955721743053436,0.09059431116413379,0.17517485402850805,nan
1740788796.4108887,0.16406228695800334,0.04076442245493286,0.1083705000293342,0.1911723609924866,nan
1740788796.4147935,0.17030084642361085,0.00133239020811518,0.12825454786913637,0.20927535249074564,nan
1740788796.4187179,0.17940262817729488,-0.03818220365322114,0.149793792454224,0.22900934993845132,nan
1740788796.4226227,0.19092218911263967,-0.07724181507346398,0.17253956478544047,0.2499045215313619,nan
1740788796.4265275,0.2044133265596262,-0.11533252360294739,0.19605162583721003,0.2715002262054346,nan
1740788796.4304326,0.2194335913238609,-0.15196820423268975,0.21990240515160797,0.2933493547102599,nan
1740788796.4343374,0.23554863242766452,-0.18669434765076692,0.2436810051350571,0.31502243119726564,nan
1740788796.4382422,0.2523363358917147,-0.21909150123484486,0.26699693769951843,0.33611144153108863,nan
1740788796.442147,0.2693907225113186,-0.24877830701724155,0.2894835629519668,0.3562333576152926,nan
1740788796.4460518,0.2863255724892567,-0.2754141169413371,0.3108012029385876,0.37503333035018693,nan
1740788796.449957,0.30277774795679185,-0.2987011699316206,0.3306399069597499,0.3921875273773754,nan
1740788796.4538617,0.318410187812744,-0.3183863195839211,0.3487218486535316,0.4074055954776637,nan
1740788796.4577665,0.33291455290296257,-0.33426230560684833,0.36480333886287836,0.42043273133966585,nan
1740788796.4616714,0.3460135033126092,-0.34616856646963867,0.37867644221723795,0.43105134836849407,nan
1740788796.4655945,0.35746259341414877,-0.35399159499539806,0.39017018933588965,0.4390823312192723,nan
1740788796.4694996,0.36705177426666197,-0.3576648428428978,0.39915138055922567,0.4443858737807776,nan
1740788796.4734044,0.37460649695838083,-0.35716818390652605,0.405524981098089,0.4468619003620706,nan
1740788796.4773092,0.37998841448581977,-0.35252695059607175,0.4092341114227229,0.44645007381209373,nan
1740788796.481214,0.3830956837310327,-0.34381056070111193,0.41025964055542896,0.443129398191974,nan
1740788796.4851189,0.38386287299605815,-0.33113075606613246,0.40861939364948596,0.43691742738670875,nan
1740788796.489024,0.38226048434374144,-0.3146394775720916,0.4043669887975557,0.4278690946528201,nan
1740788796.4929287,0.3782941036419631,-0.29452640391042895,0.39759032138375816,0.41607518151920986,nan
1740788796.4968336,0.37200319468020343,-0.2710161843219968,0.3884097174451432,0.401660447659597,nan
1740788796.5007384,0.36345955699204946,-0.24436539783462188,0.3769757804129063,0.38478144630864825,nan
1740788796.5046432,0.3527654700454954,-0.21485927355094434,0.36346695823671826,0.36562405247509144,nan
1740788796.5085483,0.3400515492281483,-0.18280820819812724,0.3480868602348269,0.34440073359110285,nan
1740788796.5124803,0.32547434153289273,-0.14854411844188264,0.3310613550393035,0.32134759430881893,nan
1740788796.516385,0.30921369102043444,-0.11241666638156682,0.31263548270402103,0.2967212288954912,nan
1740788796.52029,0.2914699059806968,-0.0747893971770029,0.29307021540013445,0.2707954160757156,nan
1740788796.5241947,0.272460761221036,-0.03603582791102627,0.27263910213081277,0.24385769221263015,nan
1740788796.5280998,0.2524183700646514,0.0034644734319808274,0.25162483354794973,0.21620583940385904,nan
1740788796.5320046,0.23158596144004903,0.04332978058513086,0.23031576324626338,0.18814432538963163,nan
1740788796.5359094,0.21021459787799762,0.08318003588262192,0.20900242184569323,0.15998073213065406,nan
1740788796.5398142,0.18855987030578286,0.12264057537404788,0.18797405975583012,0.1320222095162608,nan
1740788796.5437193,0.16687860524290843,0.1613457177636238,0.16751525375412168,0.10457198991670216,nan
1740788796.547624,0.14542561936427534,0.1989421847054035,0.14790261141388455,0.07792599820800618,nan
1740788796.551529,0.12445055541639144,0.23509232220867204,0.1294016060028296,0.05236959048774095,nan
1740788796.5554338,0.10419483216247173,0.26947709539175924,0.11226357275499665,0.028174452982172013,nan
1740788796.559354,0.08488873940981308,0.30179883154015846,0.09672289541854132,0.005595690639578596,nan
1740788796.563259,0.06674870725676604,0.33178368934662306,0.08299440972101066,-0.015130867366736587,nan
1740788796.5671637,0.049974776508956355,0.3591838353058245,0.07127104789732387,-0.03379112051424702,nan
1740788796.5710688,0.03474829477955158,0.38377931147174427,0.061721745720229336,-0.05019488620027017,nan
1740788796.5749736,0.02122986013293228,0.4053795821289354,0.054489630587048525,-0.06417780633002415,nan
1740788796.5788784,0.009557531283711219,0.42382475034493927,0.049690506179918964,-0.07560295521579707,nan
1740788796.5827832,-0.00015467964615391232,0.4389864388260742,0.04741164606062453,-0.08436213596941435,nan
1740788796.586688,-0.007818018948912119,0.4507683329581567,0.04771090531738854,-0.09037685585169754,nan
1740788796.590593,-0.013369898105112627,0.4591063873432495,0.0506161560822221,-0.09359897438251547,nan
1740788796.594498,-0.016774489185758676,0.4639687005098424,0.05612504941630368,-0.09401102138024978,nan
1740788796.5984027,-0.018023005890480684,0.46535506574454527,0.06420510275004168,-0.09162618545680033,nan
1740788796.6023076,-0.01713367055934153,0.4632962091370195,0.07479410879625462,-0.08648797681087615,nan
1740788796.6062267,-0.014151370789431888,0.4578527289171232,0.08780085866076064,-0.07866957140617302,nan
1740788796.6101315,-0.0091470125120789,0.4491137529660447,0.10310616878519695,-0.06827284676096507,nan
1740788796.6140363,-0.002216579510581907,0.4371953339761027,0.12056419840132786,-0.055427122581802324,nan
1740788796.6179414,0.0065200876486778995,0.4222386040934139,0.1400040413821025,-0.04028762231813854,nan
1740788796.6218462,0.016920777466077407,0.40440771298307276,0.16123157376817174,-0.023033674370329722,nan
1740788796.625751,0.028822639688339247,0.3838875750896982,0.1840315358532959,-0.003866674126111189,nan
1740788796.6296558,0.04204414293352272,0.3608814534121245,0.2081698255495256,0.016992169791698975,nan
1740788796.633561,0.056387234679163026,0.33560840835731276,0.2333959778424335,0.03930427973056586,nan
1740788796.6374657,0.0716396785888551,0.30830064117632966,0.2594458035042634,0.06281631664972633,nan
1740788796.6413705,0.08757754248326166,0.27920076210841566,0.2860441588725524,0.08726292278543482,nan
1740788796.6452754,0.10396780888008406,0.2485590136651068,0.31290781743419493,0.11236956982937102,nan
1740788796.6491802,0.12057107894569255,0.21663047947556985,0.33974841318801646,0.1378554823167602,nan
1740788796.6531093,0.1371443399276748,0.1836723087903125,0.3662754252974965,0.1634366054385207,nan
1740788796.6570141,0.15344376567800325,0.14994098611007234,0.3921991733911731,0.18882858632225705,nan
1740788796.660919,0.16922751973333117,0.11568967447961216,0.41723379302020486,0.213749737969159,nan
1740788796.6648238,0.18425853059122985,0.08116565977509113,0.44110016123642054,0.23792395548379525,nan
1740788796.6687288,0.19830720930511656,0.04660792183390315,0.4635287430027161,0.2610835549844221,nan
1740788796.6726336,0.21115408030915886,0.012244856545379186,0.48426233018101433,0.28297200662275146,nan
1740788796.6765385,0.22259229746752063,-0.021707828940221687,0.5030586461484031,0.303346534461483,nan
1740788796.6804433,0.2324300187070352,-0.05504902789596435,0.5196927906542915,0.32198055753981586,nan
1740788796.6843483,0.24049261422315235,-0.08759393495993596,0.5339595013328238,0.3386659482839029,nan
1740788796.6882532,0.2466246851275219,-0.11917552120894886,0.5456752103055282,0.35321508647051236,nan
1740788796.692158,0.2506918715112578,-0.14964577087950978,0.554679876527339,0.3654626892059197,nan
1740788796.6960628,0.2525824312080908,-0.17887666999391647,0.5608385769211237,0.3752673998141434,nan
1740788796.6999612,0.25220857303153255,-0.2067609399646109,0.564042841886549,0.38251312111350294,nan
1740788796.703866,0.24950753090353492,-0.23321251210812177,0.5642117234320909,0.38711008127104124,nan
1740788796.707771,0.24444236806120706,-0.2581667418710964,0.5612925869368055,0.38899562323273235,nan
1740788796.711676,0.23700250339419388,-0.2815803644253044,0.5552616203731018,0.38813471160470076,nan
1740788796.7155807,0.22720395489858225,-0.30343119609658215,0.5461240576845314,0.38452015377770227,nan
1740788796.7194855,0.21508929820361986,-0.3237175888258532,0.5339141158849157,0.3781725350143657,nan
1740788796.7233906,0.2007273411047205,-0.3424576474907522,0.518694648298314,0.36913987012687344,nan
1740788796.7272954,0.18421251798991178,-0.35968822241765674,0.500556519165338,0.3574969772328246,nan
1740788796.7312002,0.16566401094721958,-0.375463691760968,0.47961770757256694,0.34334458186079597,nan
1740788796.735105,0.14522460715822386,-0.3898545505962138,0.45602215129187007,0.3268081623571522,nan
1740788796.7390099,0.12305930489008282,-0.40294582554458763,0.4299383436199408,0.3080365500959276,nan
1740788796.742915,0.09935368296758222,-0.4148353354999628,0.4015576986614765,0.2872003003893921,nan
1740788796.746812,0.0743120510129973,-0.42563182054845794,0.37109270268000655,0.2644898522153277,nan
1740788796.750717,0.048155399960882944,-0.43545296244109744,0.33877487112801546,0.24011349689697525,nan
1740788796.7546217,0.021119174365813467,-0.44442332099046167,0.3048525327446214,0.21429517767420694,nan
1740788796.7585266,-0.0065491101959973185,-0.45267221150371123,0.2695884636585353,0.18727214367305695,nan
1740788796.7624316,-0.03459237979239843,-0.46033154883093147,0.23325739574280988,0.15929248310117924,nan
1740788796.7663364,-0.06274661875128582,-0.4675336837962512,0.1961434245248091,0.1306125615573363,nan
1740788796.7702413,-0.09074356310308886,-0.47440925768949144,0.15853734275140902,0.10149439213487778,nan
1740788796.774146,-0.1183134429997752,-0.481085100130662,0.12073392623975343,0.07220296451597309,nan
1740788796.778051,-0.14518774582104574,-0.487682194983992,0.08302919890478123,0.043003560491753426,nan
1740788796.781956,-0.1711019715291675,-0.49431373810043294,0.04571770384571317,0.014159083302856772,nan
1740788796.7858608,-0.19579835197513956,-0.5010833095186503,0.009089807096966511,-0.014072572122664967,nan
1740788796.7897656,-0.21902850628815607,-0.5080831813676476,-0.026570939890576517,-0.041441081546655364,nan
1740788796.7936895,-0.24055600519208725,-0.5153927811052526,-0.06099035376694348,-0.06770616077979787,nan
1740788796.7975945,-0.26015881807880165,-0.5230773279134624,-0.09390606456846257,-0.09263991749663189,nan
1740788796.8014994,-0.27763161791750707,-0.5311866580743196,-0.12506982981399892,-0.11602906233051036,nan
1740788796.8054042,-0.29278792057840725,-0.5397542529901195,-0.15424969594688923,-0.13767695764814472,nan
1740788796.809309,-0.30546203688173995,-0.548796481212811,-0.18123198735137178,-0.1574054841883752,nan
1740788796.813214,-0.3155108176314152,-0.5583120634340394,-0.2058231050496252,-0.17505670772464962,nan
1740788796.817119,-0.3228151740354716,-0.5682817668852247,-0.22785111922601112,-0.19049433005447702,nan
1740788796.8210237,-0.327281358231207,-0.5786683330328316,-0.2471671419069881,-0.20360491090911284,nan
1740788796.8249285,-0.32884199109705237,-0.5894166398547374,-0.2636464684255432,-0.21429884978914396,nan
1740788796.8288333,-0.3274568271207279,-0.6004540973765958,-0.2771894786937901,-0.2225111192412415,nan
1740788796.8327384,-0.32311324877730424,-0.6116912725598287,-0.2877222917718515,-0.22820174367239876,nan
1740788796.8366432,-0.31582648562424587,-0.623022737092081,-0.2951971697300298,-0.23135602042387196,nan
1740788796.840566,-0.30563955611511656,-0.6343281291634432,-0.29959266932901113,-0.23198448247116432,nan
1740788796.8444707,-0.2926229329412058,-0.6454734179427839,-0.30091354256378333,-0.23012260475172466,nan
1740788796.8483756,-0.27687393550238293,-0.6563123572228847,-0.2991903896059302,-0.22583025872213927,nan
1740788796.8522806,-0.25851585585699743,-0.6666881126037192,-0.2944790701110476,-0.21919092228528372,nan
1740788796.8561854,-0.23769682717791568,-0.6764350446518802,-0.28685988120924216,-0.21031065467985688,nan
1740788796.8600903,-0.21458844632106294,-0.6853806287306304,-0.27643651274385067,-0.19931684826551105,nan
1740788796.863995,-0.1893841645684436,-0.6933474906570135,-0.26333479244493546,-0.18635677134345377,nan
1740788796.8679,-0.1622974629150478,-0.7001555360258203,-0.24770123569918645,-0.17159591820309555,nan
1740788796.871805,-0.13355983040558483,-0.705624149958088,-0.22970141638786584,-0.1552161844602497,nan
1740788796.8757098,-0.1034185659714839,-0.7095744431952178,-0.2095181768923232,-0.1374138874333225,nan
1740788796.8796146,-0.07213442595207173,-0.7118315198771398,-0.1873496967973358,-0.11839765277489318,nan
1740788796.8835194,-0.03997914098936006,-0.7122267420199161,-0.16340744104311866,-0.09838618982315643,nan
1740788796.8874419,-0.007232827248941757,-0.7105999656478189,-0.13791400927655875,-0.07760597914935902,nan
1740788796.8913467,0.025818682071940068,-0.7068017237376927,-0.11110090892269411,-0.056288896544509553,nan
1740788796.8952518,0.05888655824355146,-0.7006953315969486,-0.08320627503251163,-0.034669798204620884,nan
1740788796.8991566,0.09168172433065035,-0.692158891015852,-0.054472560259287976,-0.012984092134594828,nan
1740788796.9030614,0.12391760096889128,-0.6810871705023166,-0.02514421837171737,0.008534679204913641,nan
1740788796.9069662,0.155312823289361,-0.667393340113014,0.004534595470751438,0.02965722023453551,nan
1740788796.9108713,0.18559390204164092,-0.6510105408258899,0.03432228487290339,0.05016080330697095,nan
1740788796.914776,0.21449780258773565,-0.6318932700411004,0.06398201062858189,0.06983150594971466,nan
1740788796.918681,0.24177441632455496,-0.6100185666332133,0.09328380612254783,0.08846634176301511,nan
1740788796.9225857,0.26718890023172065,-0.5853869809883486,0.12200658949437955,0.10587526364717077,nan
1740788796.9264908,0.29052386162214033,-0.5580233176249466,0.1499400536246901,0.12188301945629322,nan
1740788796.9303956,0.311581366780621,-0.5279771402941192,0.17688641646211956,0.1363308417956896,nan
1740788796.9343166,0.3301847539939445,-0.4953230318613675,0.20266201583432467,0.14907795547959052,nan
1740788796.9382215,0.3461802334855293,-0.46016060376132184,0.22709873465953423,0.16000288812599522,nan
1740788796.9421263,0.3594382589482469,-0.4226142523657061,0.2500452443778589,0.16900457146529815,nan
1740788796.9460313,0.369854657697946,-0.3828326621859046,0.2713680564328847,0.1760032231570976,nan
1740788796.9499362,0.3773515089237275,-0.3409880584191152,0.29095237373255056,0.18094100122208653,nan
1740788796.953841,0.38187776206423135,-0.29727521391470096,0.3087027361816811,0.183782425579241,nan
1740788796.9577458,0.3834095899660439,-0.2519102181590158,0.32454345658394185,0.1845145636080133,nan
1740788796.9616506,0.3819504741542249,-0.20512901832698657,0.3384188454352938,0.18314697910599317,nan
1740788796.9655557,0.3775310222389286,-0.15718574480227882,0.35029322535109925,0.1797114464593592,nan
1740788796.9694605,0.370208520168863,-0.10835083580107652,0.360150738061834,0.17426143426150112,nan
1740788796.9733653,0.36006622469500654,-0.05890897782478762,0.36799494905541363,0.16687136497983396,nan
1740788796.9772701,0.34721240399977327,-0.009156880593085908,0.37384825701537555,0.1576356595580381,nan
1740788796.9811893,0.33177913695196537,0.04059909314875661,0.37775111718270105,0.1466675780277799,nan
1740788796.985094,0.31392088384111494,0.09004542101301936,0.3797610896347841,0.1340978692682797,nan
1740788796.988999,0.29381284370254074,0.13886401428346049,0.37995172520936255,0.12007324497324283,nan
1740788796.9929037,0.2716491154440893,0.18673488680611275,0.3784113033868794,0.10475469464361045,nan
1740788796.9968088,0.2476406819063808,0.2333388742500508,0.37524143786612246,0.08831566000369165,nan
