timestamps,TP9,AF7,AF8,TP10,Right AUX
1740788757.3220358,0.05904993033612302,-0.03328815851356371,-0.6046398603256363,-0.006231916806313441,nan
1740788757.3259404,0.06178068549933903,-0.001017294595615748,-0.5948642248848255,0.0021066291980716334,nan
1740788757.3298447,0.06313713137211834,0.03225551171540668,-0.5858201668036976,0.009320386420557183,nan
1740788757.3337493,0.06310582478817683,0.06629299026397177,-0.5775327087605824,0.015370062509403707,nan
1740788757.3376539,0.06168903433578806,0.10084314735682794,-0.5700147955493711,0.020230651459148,nan
1740788757.3415582,0.058904582951022286,0.1356414673759796,-0.5632672927463791,0.023891443662597874,nan
1740788757.3454628,0.054785526007142496,0.17041327043427015,-0.5572791301041183,0.026355880447532704,nan
1740788757.3493671,0.04937966953592585,0.20487620352450212,-0.5520275873450742,0.027641256647418982,nan
1740788757.3532717,0.04274893485594702,0.23874284111828584,-0.547478718444125,0.027778276344316767,nan
1740788757.357176,0.034968577446891344,0.2717233699156822,-0.5435879089502015,0.026810468442093675,nan
1740788757.3610806,0.026126269382131206,0.30352833144440805,-0.5403005594225639,0.024793470163608847,nan
1740788757.364985,0.016321055999448775,0.33387139546868855,-0.5375528866602589,0.021794187902252373,nan
1740788757.3689172,0.005662198738308261,0.36247213670083656,-0.535272833099963,0.01788984608274717,nan
1740788757.3728216,-0.005732082810629874,0.38905878711865244,-0.5333810735610153,0.013166935786392678,nan
1740788757.3767262,-0.01773595562292593,0.413370936281322,-0.5317921074401145,0.007720075861272905,nan
1740788757.3806305,-0.030217389880178674,0.4351621524053388,-0.5304154235128777,0.0016508000590661277,nan
1740788757.384535,-0.043039632023161155,0.45420249760699966,-0.5291567236956659,-0.004933715590548183,nan
1740788757.3884394,-0.056062718209830116,0.4702809116333,-0.5279191914669623,-0.0119219704454027,nan
1740788757.392344,-0.06914501183992879,0.48320743957996287,-0.5266047901503741,-0.01919948688442884,nan
1740788757.3962483,-0.08214474865020918,0.4928152805225965,-0.5251155759260904,-0.026650172652881172,nan
1740788757.400153,-0.09492157289935951,0.4989626356507055,-0.5233550102681345,-0.034157682643679625,nan
1740788757.4040573,-0.10733804834883058,0.5015343363783795,-0.5212292565026859,-0.04160676498504743,nan
1740788757.4079618,-0.11926112810182227,0.5004432349913132,-0.5186484453483333,-0.04888457661227168,nan
1740788757.4118662,-0.13056356788353582,0.4956313426570683,-0.5155278946305362,-0.055881953966878534,nan
1740788757.4157977,-0.1411252680250478,0.48707070205162467,-0.5117892688565184,-0.06249462508368342,nan
1740788757.4197023,-0.15083453024315702,0.4747639844163993,-0.5073616649879451,-0.06862435008766665,nan
1740788757.4236066,-0.15958921628004677,0.4587448035306816,-0.5021826115505623,-0.07417997801930207,nan
1740788757.4275112,-0.16729779656874602,0.43907774183827203,-0.49619896916363065,-0.07907840892855081,nan
1740788757.4314158,-0.17388027831137573,0.41585808677668595,-0.4893677216481171,-0.0832454513125028,nan
1740788757.4353201,-0.17926900368366197,0.3892112781947037,-0.4816566480693751,-0.08661656620686642,nan
1740788757.4392247,-0.18340931029709007,0.35929207058091195,-0.47304486737528284,-0.08913749056332672,nan
1740788757.443129,-0.18626004754420428,0.3262834166339988,-0.4635232486904824,-0.09076473393865983,nan
1740788757.4470336,-0.1877939440071695,0.290395081456894,-0.4530946818068728,-0.09146594397198048,nan
1740788757.450938,-0.187997822708273,0.25186199932376707,-0.4417742039541323,-0.09122013761782023,nan
1740788757.4548426,-0.18687266260695068,0.2109423875248685,-0.4295889805255173,-0.0900177966186218,nan
1740788757.458747,-0.18443350638400996,0.16791563421347694,-0.41657813905659447,-0.08786082722431213,nan
1740788757.4626772,-0.18070921618297994,0.1230799794375969,-0.40279245739069003,-0.08476238568236609,nan
1740788757.4665816,-0.17574208058410473,0.07675001061377577,-0.3882939085973294,-0.08074657251307624,nan
1740788757.4704862,-0.169587277651621,0.029253995570599198,-0.3731550668212957,-0.07584800003543586,nan
1740788757.4743905,-0.16231220040361136,-0.019068922063761547,-0.3574583798129857,-0.07011123900385575,nan
1740788757.478295,-0.15399565249035535,-0.06787163894890738,-0.3412953154086403,-0.06359015153995962,nan
1740788757.4821994,-0.14472692321686245,-0.11680209226115444,-0.3247653906752702,-0.05634711878291026,nan
1740788757.486104,-0.1346047522946413,-0.16550631584458345,-0.30797509379433896,-0.04845217282317426,nan
1740788757.4900084,-0.12373619584369439,-0.213631523454007,-0.291036710015321,-0.03998204351620415,nan
1740788757.493913,-0.11223540617708451,-0.2608291899306146,-0.27406706415182447,-0.031019131683620124,nan
1740788757.4978173,-0.10022233877674666,-0.30675810110743684,-0.2571861931060413,-0.021650420990478775,nan
1740788757.5017219,-0.08782140060193823,-0.35108734348431936,-0.24051596278086326,-0.011966341430267396,nan
1740788757.5056264,-0.07516005445354741,-0.3934992052387977,-0.2241786444630644,-0.0020595978476724364,nan
1740788757.5095186,-0.06236739454271691,-0.43369196094516055,-0.20829546632714158,0.007976022721921943,nan
1740788757.5134232,-0.04957270867697385,-0.47138251345160626,-0.19298515611108352,0.018046850921317737,nan
1740788757.5173275,-0.036904042578811476,-0.506308867704157,-0.17836249124728865,0.028060528132576396,nan
1740788757.5212321,-0.024486781789889216,-0.5382324128931858,-0.1645368727909485,0.03792717882754837,nan
1740788757.5251365,-0.012442266389730321,-0.5669399911183927,-0.1516109393727456,0.04756054857172893,nan
1740788757.529041,-0.0008864533736405525,-0.5922457328033036,-0.13967923711315056,0.05687909446193297,nan
1740788757.5329456,0.01007135900492069,-0.6139926413207825,-0.12882696097382895,0.0658070153399984,nan
1740788757.53685,0.020329731311337897,-0.6320539116949491,-0.1191287823917801,0.07427520982534559,nan
1740788757.5407546,0.02979619464093575,-0.64633397079866,-0.11064777724927331,0.08222215104082709,nan
1740788757.544659,0.038388262142857864,-0.6567692291442417,-0.10343446728491436,0.08959466785972804,nan
1740788757.5485635,0.04603432962199613,-0.6633285371422328,-0.09752598695721278,0.09634862356654947,nan
1740788757.5524678,0.05267445568190135,-0.6660133415510856,-0.09294538654228786,0.10244948398867534,nan
1740788757.556372,0.05826101316764532,-0.6648575407321822,-0.08970108089406645,0.10787276840739674,nan
1740788757.5602763,0.06275920504831134,-0.6599270402305527,-0.08778645183148918,0.11260437788155801,nan
1740788757.5641809,0.06614743932958703,-0.6513190130938717,-0.08717961055776197,0.11664079700073096,nan
1740788757.5680852,0.06841755909257626,-0.6391608721919636,-0.08784332487681148,0.11998916651243068,nan
1740788757.5719898,0.06957492529964554,-0.6236089645783056,-0.0897251142686134,0.12266722572392588,nan
1740788757.575894,0.06963835157558247,-0.6048470006162787,-0.09275751413497979,0.1247031250478486,nan
1740788757.5797987,0.06863989174635926,-0.583084233149874,-0.09685850874869942,0.12613511052628457,nan
1740788757.583703,0.06662448248166716,-0.5585534044059748,-0.1019321306497019,0.12701108361432406,nan
1740788757.5876076,0.06364944492501846,-0.5315084805494013,-0.10786922245063207,0.12738804091560046,nan
1740788757.591512,0.05978385069043166,-0.5022221958507219,-0.11454835525928908,0.12733139992384376,nan
1740788757.5954165,0.055107759041977226,-0.470983430250148,-0.12183689621507059,0.12691421812109138,nan
1740788757.5993211,0.04971133343687539,-0.43809444569084244,-0.129592215988754,0.12621631400098013,nan
1740788757.6032448,0.043693846890101834,-0.40386800793586014,-0.13766302552707105,0.12532329971113632,nan
1740788757.6071494,0.03716258679541556,-0.3686244216616247,-0.14589082985215157,0.12432553602988766,nan
1740788757.611054,0.030231670902127212,-0.33268850742672196,-0.1541114853669771,0.12331702129819704,nan
1740788757.6149583,0.023020787087653587,-0.29638654963983474,-0.16215684588597448,0.12239422670785803,nan
1740788757.6188629,0.015653870373392168,-0.2600432448899718,-0.16985648151857677,0.12165489099308645,nan
1740788757.6227672,0.00825773129713299,-0.22397867995323276,-0.17703945359497328,0.12119678807741517,nan
1740788757.6266718,0.0009606502723847941,-0.1885053684539466,-0.18353612804814262,0.12111648158563354,nan
1740788757.6305761,-0.006109047071783573,-0.15392537453745225,-0.18918000906375962,0.12150808033721376,nan
1740788757.6344807,-0.012824418371224455,-0.12052755101339643,-0.19380957438701538,0.12246200899076994,nan
1740788757.638385,-0.0190613215825365,-0.08858491826104216,-0.19727009343855137,0.12406380790763458,nan
1740788757.6422896,-0.024699805483645216,-0.058352208763576885,-0.19941540934433394,0.12639297604739674,nan
1740788757.646194,-0.029625458761878307,-0.03006360047084492,-0.2001096661283236,0.129521870301603,nan
1740788757.6501167,-0.03373070326177477,-0.003930660295965226,-0.19922896265227463,0.13351467411772786,nan
1740788757.6540213,-0.03691601754586979,0.019859483050096497,-0.19666291541196312,0.1384264475696066,nan
1740788757.6579256,-0.03909107764838966,0.04114571997003829,-0.19231611300985102,0.14430227019977537,nan
1740788757.6618302,-0.040175802766327456,0.05979428017361268,-0.18610944601484558,0.15117648700219788,nan
1740788757.6657345,-0.04010129462597842,0.07569978027999659,-0.17798129698290033,0.15907206684051867,nan
1740788757.669639,-0.03881066037523267,0.0887859896610594,-0.1678885766384722,0.16800008141835407,nan
1740788757.6735435,-0.03625971007117374,0.09900630814903975,-0.15580759359508056,0.17795931164663267,nan
1740788757.677448,-0.032417521146250454,0.1063439520826843,-0.14173474651110968,0.18893598690171345,nan
1740788757.6813524,-0.02726686363059078,0.11081184804698803,-0.12568702922013011,0.20090366125138376,nan
1740788757.685257,-0.020804481368716425,0.11245223654485713,-0.10770234112831473,0.21382322925843433,nan
1740788757.6891613,-0.013041225980410668,0.11133599069533899,-0.0878395970180646,0.22764308246919457,nan
1740788757.693066,-0.004002041862474545,0.10756165785449734,-0.06617863231938709,0.24229940617266643,nan
1740788757.697,0.0062741979059317415,0.10125423477340101,-0.042819901890102124,0.2577166144912488,nan
1740788757.7009046,0.017735003322692098,0.09256368951630436,-0.017883972363593424,0.2738079203524034,nan
1740788757.7048092,0.03031472389984366,0.08166324583485543,0.008489189841203126,0.29047603540833883,nan
1740788757.7087135,0.043935145265626994,0.06874744800668522,0.03614113071862971,0.30761399353358954,nan
1740788757.712618,0.05850621993870113,0.0540300262759672,0.06489601494251401,0.32510609015385894,nan
1740788757.7165225,0.07392692486276861,0.03774158495847396,0.09456191808763044,0.3428289283583614,nan
1740788757.720427,0.09008623694690905,0.020127136975268408,0.12493229478524877,0.36065256153643244,nan
1740788757.7243314,0.10686421660394908,0.001443510040529732,0.15578761096333996,0.37844172117050034,nan
1740788757.728236,0.12413318812939526,-0.0180433490640858,0.1868971265932235,0.3960571174238336,nan
1740788757.7321403,0.14175900472898545,-0.03806114475577497,0.2180208137528577,0.41335679929391,nan
1740788757.736045,0.1596023850945278,-0.05833404941998061,0.2489113933391947,0.43019756037038165,nan
1740788757.7399492,0.17752030765520388,-0.07858553826245816,0.27931647243372454,0.44643637564901406,nan
1740788757.7438827,0.19536744800294162,-0.09854121372646554,0.30898076316041095,0.46193185441628637,nan
1740788757.7477872,0.21299764451274086,-0.1179315911467352,0.3376483628864854,0.4765456939391434,nan
1740788757.7516916,0.230265376856945,-0.13649481778533923,0.36506507481486206,0.4901441185741089,nan
1740788757.7555962,0.24702724195018907,-0.1539792981472666,0.39098074741149424,0.5025992889519597,nan
1740788757.7595005,0.2631434118608128,-0.17014619949766974,0.4151516107091933,0.5137906660984719,nan
1740788757.763405,0.27847905838540477,-0.18477181278790109,0.43734258733663844,0.5236063157172998,nan
1740788757.7673094,0.2929057293041836,-0.1976497457303818,0.45732955614087734,0.5319441383846235,nan
1740788757.771214,0.3063026618133264,-0.20859292652752906,0.47490154650506955,0.5387130120822621,nan
1740788757.7751184,0.31855801926103533,-0.21743539873939705,0.4898628419095486,0.5438338343199769,nan
1740788757.779023,0.3295700380912934,-0.2240338899482754,0.5020349719409752,0.5472404520611075,nan
1740788757.7829275,0.3392480728144986,-0.2282691392241607,0.5112585728163466,0.5488804687587598,nan
1740788757.7868319,0.34751352786881196,-0.23004697088903533,0.5173950975491117,0.548715919022097,nan
1740788757.7907622,0.35430066639891483,-0.22929910469485953,0.5203283581347707,0.5467238027515484,nan
1740788757.7946668,0.3595572872485984,-0.22598369524369533,0.5199658835623326,0.5428964719949002,nan
1740788757.798571,0.3632452628267657,-0.22008559626082946,0.5162400790533593,0.537241865268937,nan
1740788757.8024757,0.365340931949392,-0.21161634815501812,0.5091091736777631,0.5297835856484222,nan
1740788757.80638,0.3658353432676064,-0.20061389013532097,0.49855794537933307,0.5205608205298647,nan
1740788757.8102846,0.364734346449071,-0.18714200097276212,0.48459821444687373,0.5096281026152395,nan
1740788757.814189,0.36205852986991227,-0.17128947526861305,0.4672690985705061,0.49705491331374113,nan
1740788757.8180935,0.3578430051813127,-0.15316904479122126,0.44663702480742834,0.4829251314105833,nan
1740788757.821998,0.3521370407217373,-0.13291605704275392,0.4227954960270811,0.4673363314837,nan
1740788757.8259025,0.3450035473359675,-0.11068692568935477,0.3958646116908128,0.4503989381448233,nan
1740788757.8298068,0.3365184217190437,-0.08665736980811,0.3659903451244437,0.4322352437240385,nan
1740788757.8337114,0.3267697539106367,-0.061020461048060845,0.3333435817414608,0.41297829849025,nan
1740788757.83764,0.3158569070074408,-0.03398449974864492,0.29811892494808095,0.39277068388829767,nan
1740788757.8415446,0.30388947852275255,-0.005770742787370487,0.26053327868714915,0.3717631805619145,nan
1740788757.845449,0.29098615408908113,0.02338899257832068,0.22082421773428157,0.3501133441063163,nan
1740788757.8493536,0.2772734653580509,0.05325482336748967,0.17924815892585577,0.32798400254216653,nan
1740788757.853258,0.2628844649895428,0.08358136754373642,0.13607834845411976,0.3055416904123746,nan
1740788757.8571625,0.24795733252798727,0.11412035550237963,0.09160268219055663,0.282955035164383,nan
1740788757.861067,0.2326339257280315,0.144623258759349,0.04612137767664668,0.26039311208463867,nan
1740788757.8649714,0.2170582925061748,0.1748439080846482,-5.548206569668753e-05,0.23802378449146125,nan
1740788757.868876,0.20137515915251414,0.2045410734703468,-0.04661051141859184,0.2160120461622402,nan
1740788757.8727803,0.18572841073221882,0.23348097875575358,-0.09322166912283392,0.19451838306671093,nan
1740788757.876685,0.17025957973622677,0.26143972444629276,-0.13956496574437618,0.1736971713982683,nan
1740788757.8805892,0.15510635900290484,0.28820559325080813,-0.18531720737643761,0.15369512863925797,nan
1740788757.884517,0.1404011547271151,0.31358121411433315,-0.23015875080679585,0.13464983396591926,nan
1740788757.8884215,0.12626969500149465,0.3373855620275861,-0.2737762451153506,0.11668833369704365,nan
1740788757.8923259,0.11282970880055293,0.3594557726349117,-0.3158653346358213,0.09992584672310194,nan
1740788757.8962305,0.10018968962579884,0.3796487526220123,-0.35613329841927044,0.08446458392590289,nan
1740788757.9001348,0.08844775718685775,0.3978425690231664,-0.394301601775124,0.07039269452187792,nan
1740788757.9040394,0.0776906295068982,0.41393760292329407,-0.43010833613478344,0.05778335104445586,nan
1740788757.907944,0.06799271672106759,0.4278574555189463,-0.4633105243784568,0.04669398333474981,nan
1740788757.9118483,0.05941534659460171,0.43954959711910707,-0.49368626988038156,0.03716567044762856,nan
1740788757.915753,0.052006130435634616,0.4489857523844495,-0.5210367288515741,0.029222697816670692,nan
1740788757.9196572,0.04579847662988814,0.456162017894902,-0.5451878870813419,0.0228722853717625,nan
1740788757.9235618,0.040811257495102206,0.461098710971152,-0.5659921238854682,0.01810449058366568,nan
1740788757.9274662,0.03704863355779176,0.4638399515270475,-0.583329547945269,0.014892288637839523,nan
1740788757.931406,0.03450003770998934,0.4644529815672974,-0.5971090917504888,0.013191830133015513,nan
1740788757.9353106,0.03314032002589371,0.4630272297390837,-0.6072693535221227,0.012942874876806865,nan
1740788757.939215,0.032930052325077376,0.45967313106836977,-0.613779177768801,0.01406939852938095,nan
1740788757.9431195,0.03381598987761412,0.45452071463331356,-0.6166379680015082,0.016480367045846475,nan
1740788757.947024,0.03573168597467876,0.4477179744212427,-0.6158757275742875,0.02007067210669257,nan
1740788757.9509284,0.0385982534533699,0.439429040955703,-0.6115528271104563,0.024722219022032112,nan
1740788757.954833,0.04232526568365763,0.4298321734418516,-0.6037594994916156,0.03030515696691278,nan
1740788757.9587374,0.04681178801531765,0.41911759413886546,-0.592615065906736,0.03667923986904051,nan
1740788757.962642,0.051947529259265046,0.4074851884063397,-0.5782668989572408,0.04369530484297477,nan
1740788757.9665463,0.05761410145607601,0.39514209536920847,-0.5608891312677003,0.051196853761551066,nan
1740788757.9704509,0.06368637497899267,0.3823002153861466,-0.5406811204372196,0.05902172239017477,nan
1740788757.9743552,0.07003391494208054,0.3691736614763257,-0.5178656834612875,0.06700382049529291,nan
1740788757.9782796,0.07652248394863888,0.3559761825474345,-0.4926871159356756,0.07497492548642762,nan
1740788757.982184,0.08301559543048896,0.3429185866663846,-0.4654090134021981,0.08276651147111465,nan
1740788757.9860885,0.08937610120450488,0.3302061927174792,-0.43631191409084236,0.09021159510229516,nan
1740788757.9899929,0.09546779641587229,0.31803633859925007,-0.4056907840357169,0.09714657928425635,nan
1740788757.9938974,0.1011570247537255,0.30659597362116875,-0.37385236707655456,0.10341307568069456,nan
1740788757.9978018,0.10631426671784498,0.2960593619791189,-0.3411124235880369,0.10885968703945324,nan
1740788758.0017064,0.11081569378705537,0.2865859231206621,-0.30779288289284445,0.11334373061338787,nan
1740788758.0056107,0.11454467159110202,0.27831823346752976,-0.274218935199644,0.1167328844146328,nan
1740788758.0095153,0.11739319561648132,0.2713802123562038,-0.24071608955533988,0.11890673868657743,nan
1740788758.0134199,0.11926324357948709,0.2658755132032029,-0.20760722470466314,0.11975823580919917,nan
1740788758.0173242,0.12006802937148911,0.2618861388178919,-0.17520965990507362,0.11919498286168584,nan
1740788758.0212288,0.11973314441501175,0.25947129749262193,-0.14383227264861614,0.11714042224264916,nan
1740788758.0251513,0.11819757335598778,0.2586665140204802,-0.11377268989486838,0.11353484708188562,nan
1740788758.0290558,0.11541457224727956,0.25948300714957134,-0.08531457882279467,0.10833624965623886,nan
1740788758.0329602,0.11135239873927093,0.26190734220590345,-0.05872506226902152,0.10152099263166586,nan
1740788758.0368648,0.10599488527192749,0.2659013647326687,-0.034252282942763265,0.09308429467878294,nan
1740788758.040769,0.09934184784463995,0.2714024180310239,-0.012123139202638394,0.08304052383338051,nan
1740788758.0446737,0.09140932460966043,0.278323844476611,0.007458786340451879,0.07142329387879222,nan
1740788758.048578,0.08222964027558631,0.2865557674576431,0.024315085853986843,0.05828536099509226,nan
1740788758.0524826,0.0718512941014278,0.29596614776563,0.03829415531850739,0.04369831993126772,nan
1740788758.0563872,0.06033867109137421,0.30640210529970435,0.04927257801748203,0.02775210099089788,nan
1740788758.0602915,0.047771577846888215,0.3176914940509068,0.05715624916513025,0.010554271159061872,nan
1740788758.064196,0.03424460637712452,0.3296447155439706,0.06188123071701968,-0.007770855282370489,nan
1740788758.0681005,0.019866330992257878,0.3420567532602535,0.06341432787907662,-0.027083289322666092,nan
1740788758.0720346,0.004758345187979758,0.35470940807475604,0.06175338138747026,-0.04722861372223355,nan
1740788758.0759392,-0.010945852845254364,0.3673737124391424,0.05692727225093367,-0.06803939234910626,nan
1740788758.0798435,-0.02710211580572264,0.37981249895617214,0.048995638304285265,-0.08933672950927153,nan
1740788758.083748,-0.0435570321192094,0.3917830971417562,0.03804830459233554,-0.11093196479695834,nan
1740788758.0876527,-0.06014942675101154,0.40304013057952187,0.024204432262241136,-0.1326284874927783,nan
1740788758.091557,-0.0767119633905998,0.41333838535726075,0.007611393264732341,-0.15422365318848985,nan
1740788758.0954616,-0.09307283223017113,0.4224357196503138,-0.011556619274078713,-0.17551078413184135,nan
1740788758.099366,-0.10905750653359517,0.4300959835963868,-0.03310023267243922,-0.1962812337765914,nan
1740788758.1032705,-0.12449055033248516,0.43609191819881826,-0.056796773598752195,-0.21632649520285535,nan
1740788758.1071749,-0.13919745890128274,0.44020800190748893,-0.0824023673211126,-0.2354403324510472,nan
1740788758.1110795,-0.15300651316163857,0.4422432137614818,-0.10965423827360182,-0.2534209133967375,nan
1740788758.114984,-0.16575062885438058,0.4420136825352692,-0.1382731909995118,-0.27007292258927884,nan
1740788758.1189294,-0.17726918119959456,0.4393551922072909,-0.16796624880906189,-0.28520963248797415,nan
1740788758.1228337,-0.18740978584443518,0.4341255152598687,-0.19842942597316937,-0.2986549117572517,nan
1740788758.1267383,-0.19603001717485644,0.42620654681255965,-0.22935060798018345,-0.3102451497262971,nan
1740788758.1306427,-0.2029990455401935,0.41550621437467905,-0.2604125133217054,-0.3198310767759723,nan
1740788758.1345472,-0.20819917560508786,0.4019601400607777,-0.2912957094570844,-0.32727946128192154,nan
1740788758.1384516,-0.21152726889631313,0.3855330344266787,-0.3216816550421081,-0.33247466481024457,nan
1740788758.1423562,-0.21289603464536566,0.3662198036319675,-0.3512557402015078,-0.3353200385221378,nan
1740788758.1462605,-0.2122351742321944,0.34404635439343834,-0.3797102965806791,-0.3357391451852779,nan
1740788758.150165,-0.20949236590007347,0.31907008413697807,-0.40674754913021516,-0.33367679279946527,nan
1740788758.1540697,-0.2046340779240055,0.2913800468543615,-0.4320824820562138,-0.3290998676075782,nan
1740788758.157974,-0.1976462000607301,0.2610967883964264,-0.4554455921056098,-0.32199795616357996,nan
1740788758.1618786,-0.188534484871951,0.22837184825377463,-0.47658550334284666,-0.312383748149583,nan
1740788758.1658087,-0.17732479237680993,0.1933869282577549,-0.4952714188031313,-0.3002932137544525,nan
1740788758.1697133,-0.16406313343671391,0.15635273204451497,-0.5112953858673817,-0.28578555162678587,nan
1740788758.1736176,-0.14881550928652548,0.11750748252950803,-0.5244743538815342,-0.2689429056742111,nan
1740788758.1775222,-0.13166754668087188,0.07711512800463453,-0.5346520044228998,-0.2498698512766574,nan
1740788758.1814268,-0.11272393020248402,0.035463250761134275,-0.541700336681461,-0.22869265379099796,nan
1740788758.185331,-0.09210763536039296,-0.00713930467501998,-0.5455209926555944,-0.2055583045255645,nan
1740788758.1892357,-0.06995896816828899,-0.05036506356506914,-0.5460463092389727,-0.18063334163229383,nan
1740788758.19314,-0.046434418916537115,-0.09387079023502413,-0.5432400867765602,-0.15410246557907437,nan
1740788758.1970446,-0.02170533981451765,-0.13730056893735956,-0.5370980662694393,-0.12616696100266328,nan
1740788758.200949,0.004043541937269735,-0.18028906818608245,-0.527648110086677,-0.09704293878152785,nan
1740788758.2048535,0.030615762303090342,-0.22246495827168059,-0.5149500837725997,-0.06695941408700684,nan
1740788758.208758,0.0578048947895736,-0.2634544497603927,-0.4990954392944876,-0.0361562379503936,nan
1740788758.2126873,0.08539644451128282,-0.3028849191821491,-0.48020650283298244,-0.004881901503958551,nan
1740788758.2165916,0.11316984403611177,-0.3403885868320237,-0.4584354729499006,0.026608766501756385,nan
1740788758.2204962,0.14090053189613697,-0.37560621066661953,-0.43396313765008626,0.058056987049565016,nan
1740788758.2244005,0.16836209362509832,-0.40819075968185103,-0.4069973214604215,0.08920248017487087,nan
1740788758.228305,0.19532844435284033,-0.4378110299210766,-0.37777107615574074,0.11978595252262628,nan
1740788758.2322094,0.2215760313598299,-0.46415516638802307,-0.3465406311447488,0.1495515988116236,nan
1740788758.236114,0.24688603457931962,-0.48693405462949435,-0.31358312176679143,0.17824959251110759,nan
1740788758.2400186,0.2710465428369402,-0.505884546606837,-0.27919411582147935,0.20563854091158318,nan
1740788758.243923,0.29385468364130096,-0.5207724866875401,-0.2436849605382871,0.23148787989340275,nan
1740788758.2478275,0.3151186845862863,-0.5313955051503344,-0.20737997387461563,0.2555801840640294,nan
1740788758.2517319,0.33465984489571227,-0.5375855484966678,-0.1706135054926784,0.2777133685464489,nan
1740788758.2556365,0.35231439633113265,-0.5392111180827891,-0.1337268939939902,0.29770275955294906,nan
1740788758.259565,0.3679352335888428,-0.536179191111068,-0.0970653479738314,0.31538301196417107,nan
1740788758.2634697,0.3813934954255823,-0.52843680082452,-0.06097477918734854,0.3306098534442738,nan
1740788758.267374,0.39257997906468456,-0.5159722558100523,-0.02579861658708371,0.3432616361482889,nan
1740788758.2712786,0.4014063719343145,-0.4988159816059162,0.008125369805834946,0.35324067880413856,nan
1740788758.275183,0.40780628646363704,-0.4770409712972807,0.04046820629981927,0.36047438386406805,nan
1740788758.2790875,0.41173608549626434,-0.45076283543849976,0.07091278563563536,0.3649161165013889,nan
1740788758.282992,0.4131754878562765,-0.4201394454273217,0.099156841825807,0.36654583445922156,nan
1740788758.2868965,0.41212794570220646,-0.385370168339434,0.1249158026177103,0.3653704601180288,nan
1740788758.290801,0.4086207875089191,-0.3466946951743374,0.14792549357340906,0.3614239886159806,nan
1740788758.2947054,0.40270512280523846,-0.3043914684278569,0.1679446691056779,0.3547673284072947,nan
1740788758.29861,0.3944555071446977,-0.25877571885436484,0.18475734738396168,0.34548787325451463,nan
1740788758.3025143,0.38396936817508875,-0.21019712517447986,0.19817492781165222,0.3336988072960417,nan
1740788758.3064399,0.3713661960761927,-0.1590371142834668,0.2080380717601239,0.31953814748453463,nan
1740788758.3103442,0.3567865040306219,-0.10570582318412067,0.21421832940718435,0.3031675303291874,nan
1740788758.3142488,0.3403905667561881,-0.05063874736887659,0.216619497847548,0.28477075246931133,nan
1740788758.3181531,0.3223569474359528,0.00570689632602069,0.21517869809904644,0.26455207713241136,nan
1740788758.3220577,0.302880825610758,0.0628560613100361,0.20986716119753968,0.2427343209616615,nan
1740788758.3259623,0.282172140725735,0.12031998339413129,0.20069071623182708,0.2195567380107405,nan
1740788758.3298666,0.2604535680251084,0.17760047713987318,0.18768997589249126,0.1952727198747464,nan
1740788758.3337712,0.23795834534748744,0.23419437785770306,0.17094021786991823,0.1701473329317804,nan
1740788758.3376756,0.214927971067044,0.28959808888724176,0.1505509632110246,0.14445471548974304,nan
1740788758.3415802,0.19160979493622013,0.3433121923382824,0.12666525550544322,0.11847535924742349,nan
1740788758.3454845,0.1682545248961381,0.39484608040304586,0.09945864749429063,0.09249330087041557,nan
1740788758.349389,0.14511367401684613,0.44372256368205665,0.06913790435268945,0.06679325063512243,nan
1740788758.353313,0.12243697259798926,0.4894824127076027,0.0359394354660753,0.041657685994696936,nan
1740788758.3572173,0.10046977109057903,0.5316887890063133,0.0001274689760942753,0.01736393855796456,nan
1740788758.361122,0.07945045988372719,0.5699315226182452,-0.03800801430848456,-0.005818696662414329,nan
1740788758.3650265,0.05960793213013629,0.603831193982109,-0.07815356887840524,-0.02763180078924551,nan
1740788758.3689308,0.041159115657050625,0.6330429794992961,-0.11997477362653255,-0.04783059065889596,nan
1740788758.3728354,0.024306599623785813,0.657260221893316,-0.1631188995569156,-0.06618657016664323,nan
1740788758.3767397,0.009236380944061515,0.6762176886726179,-0.2072177319957017,-0.08249004586542273,nan
1740788758.3806443,-0.0038842454052717534,0.6896944845660755,-0.2518905218515175,-0.09655248033780026,nan
1740788758.3845487,-0.014908629211711199,0.6975165867105941,-0.2967470393649484,-0.10820865816327371,nan
1740788758.3884532,-0.023712519396576304,0.6995589746047106,-0.34139070292857476,-0.11731864086395463,nan
1740788758.3923578,-0.030195609943425954,0.6957473303729934,-0.385421754958461,-0.12376948901873419,nan
1740788758.3962622,-0.034282859228241765,0.6860592886824631,-0.4284404564602787,-0.12747673177411228,nan
1740788758.4001853,-0.035925566619184814,0.6705252196805868,-0.47005027186122744,-0.128385566231653,nan
1740788758.40409,-0.03510219242030561,0.6492285325484762,-0.5098610158727958,-0.1264717716378146,nan
1740788758.4079945,-0.031818909602199776,0.6223054916445435,-0.5474919346069721,-0.12174232592015623,nan
1740788758.4118989,-0.026109878271921606,0.5899445417128397,-0.5825746938849784,-0.11423571488104355,nan
1740788758.4158034,-0.018037236461788748,0.5523851432053456,-0.6147562486457625,-0.10402192725092299,nan
1740788758.4197078,-0.007690803537633986,0.5099161233758326,-0.6437015685716928,-0.091202131791377,nan
1740788758.4236124,0.00481250468357003,0.4628735534015889,-0.6690961964892913,-0.07590803569584591,nan
1740788758.4275167,0.019329547185348933,0.4116381663347577,-0.6906486177592939,-0.05830092663442985,nan
1740788758.4314213,0.03569211060461035,0.356632335134023,-0.7080924207266984,-0.03857040389927596,nan
1740788758.4353259,0.053708336083238765,0.2983166343372561,-0.7211882303397321,-0.016932807199042516,nan
1740788758.4392302,0.07316440972093283,0.23718601306473158,-0.7297253992470547,0.0063706453049818665,nan
1740788758.4431348,0.09382650350387478,0.17376561095032414,-0.7335234430237588,0.031075995161918557,nan
1740788758.4470694,0.11544295094983589,0.10860625224612498,-0.7324332086361581,0.05689894057435445,nan
1740788758.450974,0.13774663919669014,0.04227965669778668,-0.7263377678092771,0.08353747197731203,nan
1740788758.4548783,0.16045759689346484,-0.024626591190400466,-0.7151530295847608,0.11067472354650024,nan
1740788758.458783,0.1832857550554113,-0.0915142702211551,-0.6988280690252637,0.13798201555513162,nan
1740788758.4626875,0.2059338560400252,-0.15777990134966335,-0.6773451717086904,0.16512206033759674,nan
1740788758.4665918,0.2281004840108676,-0.2228202289002422,-0.650719596336005,0.1917523026930416,nan
1740788758.4704964,0.24948318869995087,-0.28603775432235873,-0.6189990604240346,0.21752836389321245,nan
1740788758.4744008,0.26978167297485406,-0.34684627168232507,-0.5822629566442551,0.2421075570652594,nan
1740788758.4783053,0.28870101367889506,-0.40467635357942733,-0.5406213098752469,0.26515244061769355,nan
1740788758.4822097,0.3059548844544958,-0.45898073614045065,-0.4942134874361908,0.2863343755797577,nan
1740788758.4861143,0.3212687487917618,-0.5092395521888645,-0.44320667723858,0.3053370522419142,nan
1740788758.4900188,0.3343829913739328,-0.5549653626041264,-0.3877941507114662,0.3218599513258324,nan
1740788758.4939506,0.34505595592381605,-0.5957079372780365,-0.32819332930185147,0.33562170508106576,nan
1740788758.497855,0.35306685819272027,-0.6310587389297476,-0.2646436751077343,0.34636332420440596,nan
1740788758.5017595,0.3582185434751339,-0.6606550653455565,-0.19740442775006625,0.35385125730551564,nan
1740788758.5056639,0.36034005907492345,-0.6841838083461773,-0.1267522109168761,0.35788025079451397,nan
1740788758.5095685,0.35928901348570375,-0.701384790931065,-0.05297853310540474,0.3582759785363827,nan
1740788758.513473,0.35495369567006624,-0.7120536475806271,0.02361279206380879,0.35489741239287875,nan
1740788758.5173774,0.3472549297175185,-0.7160442165832982,0.10270827999141101,0.34763890684178644,nan
1740788758.521282,0.3361476423146161,-0.7132704174623906,0.1839874373951043,0.33643197320945234,nan
1740788758.5251863,0.32162212285558345,-0.7037075910710725,0.26712542637283043,0.3212467216567174,nan
1740788758.529091,0.30370495863805114,-0.6873932846635151,0.3517957040335245,0.30209295189896773,nan
1740788758.5329952,0.2824596304044284,-0.6644274691945448,0.43767261193898055,0.27902087669406767,nan
1740788758.5368998,0.2579867564808536,-0.63497218120494,0.5244338902980678,0.2521214653713034,nan
1740788758.5408301,0.2304239769067019,-0.5992505868692493,0.6117630927993396,0.22152639807192645,nan
1740788758.5447345,0.19994547221074085,-0.5575454710703773,0.6993518791504972,0.18740762489757934,nan
1740788758.548639,0.1667611148461876,-0.5101971596722531,0.7869021638013058,0.1499765277854753,nan
1740788758.5525434,0.13111525471609597,-0.4576008884399303,0.8741281009462318,0.10948268661612606,nan
1740788758.556448,0.0932851436716014,-0.4002036372568866,0.9607578877182072,0.06621225477718079,nan
1740788758.5603526,0.05357900731700144,-0.33850045336370677,1.0465353694773494,0.02048595312166127,nan
1740788758.564257,0.012333775875561068,-0.2730302922433268,1.1312214332483521,-0.027343305063973665,nan
1740788758.5681615,-0.030087510773736437,-0.20437140945929327,1.2145951776462771,-0.07689314186105568,nan
1740788758.5720658,-0.07329860551707534,-0.1331363411705958,1.2964548500297584,-0.12775477556861045,nan
1740788758.5759704,-0.11689324237809715,-0.05996651515710894,1.376618544109443,-0.17949639152063476,nan
1740788758.579875,-0.16044858635701578,0.014473462046383938,1.4549246537929659,-0.23166679660001935,nan
1740788758.5837793,-0.20352891745937804,0.08950179292909767,1.5312320816404863,-0.28379932819137166,nan
1740788758.5877085,-0.2456895190580021,0.1644256997544161,1.6054202029109899,-0.3354159855597744,nan
1740788758.591613,-0.2864807383916603,0.23854780382376783,1.6773885887731306,-0.38603174914676974,nan
1740788758.5955174,-0.3254521849275716,0.3111726167544668,1.74705649480942,-0.4351590510640137,nan
1740788758.599422,-0.362157030523492,0.38161308572531955,1.8143621234335836,-0.482312358162293,nan
1740788758.6033266,-0.3961563738386928,0.44919713361088776,1.8792616712427415,-0.5270128274793972,nan
1740788758.607231,-0.4270236302783022,0.5132741344190278,1.9417281746147592,-0.5687929926424101,nan
1740788758.6111355,-0.45434890792638005,0.5732212644752741,2.001750169013392,-0.6072014389330675,nan
1740788758.6150398,-0.4777433294410408,0.6284496703653794,2.059330179458068,-0.6418074242304654,nan
1740788758.6189444,-0.49684325975792304,0.6784103957527094,2.1144830614309216,-0.6722054029318378,nan
1740788758.6228487,-0.5113143996814926,0.7226000108241027,2.1672342131125095,-0.6980194102243694,nan
1740788758.6267533,-0.5208557060387368,0.7605658902752721,2.2176176812427593,-0.7189072647403583,nan
1740788758.630658,-0.5252031000253281,0.7919110884091208,2.2656741840805843,-0.7345645486725947,nan
1740788758.634598,-0.5241329266856065,0.8162987630670673,2.3114490758717445,-0.7447283258510033,nan
1740788758.6385026,-0.5174651301267089,0.8334561037196294,2.3549902779199194,-0.7491805600762877,nan
1740788758.6424072,-0.5050661110626852,0.8431777230789628,2.3963462017829227,-0.7477511981593089,nan
1740788758.6463115,-0.4868512356021909,0.8453284760293936,2.4355636902793827,-0.740320884610232,nan
1740788758.650216,-0.46278696681592607,0.8398456744652214,2.472686001888541,-0.7268232777402887,nan
1740788758.6541204,-0.4328925935272401,0.8267406717375517,2.5077508637570256,-0.7072469400592197,nan
1740788758.658025,-0.3972415339382019,0.8060997958000653,2.5407886178943233,-0.6816367792481535,nan
1740788758.6619296,-0.3559621951085061,0.778084615760943,2.5718204842483976,-0.6500950196333042,nan
1740788758.665834,-0.30923837291794487,0.7429315323459379,2.6008569632122094,-0.6127816879503301,nan
1740788758.6697385,-0.25730918093496596,0.700950688705147,2.6278963987312856,-0.5699146012401871,nan
1740788758.6736429,-0.20046850055217638,0.6525242040012641,2.6529237215743926,-0.521768848920817,nan
1740788758.6775475,-0.13906394880130343,0.5981037382468809,2.6759093905089277,-0.4686757653990044,nan
1740788758.6814735,-0.07349536439035013,0.5382074028591282,2.6968085471068655,-0.4110213939862584,nan
1740788758.6853778,-0.0042128166789233345,0.47341603731793974,2.7155603977150924,-0.3492444473234072,nan
1740788758.6892824,0.0682858535123338,0.40436887809621597,2.7320878337765633,-0.2838337739619581,nan
1740788758.6931868,0.1434579482122647,0.3317586516239448,2.7462972992085075,-0.2153253451570511,nan
1740788758.6970913,0.22071926460034677,0.25632612840291236,2.7580789109546524,-0.14429878025798443,nan
1740788758.7009957,0.2994478641886757,0.17885418045503512,2.7673068361552766,-0.0713734332989788,nan
1740788758.7049003,0.37898823393332953,0.10016138901880645,2.7738399266478746,0.002795932542763319,nan
1740788758.7088048,0.4586558106554182,0.021095253760952115,2.7775226087487828,0.07752385207959603,nan
1740788758.7127092,0.5377418366910066,-0.057474941296791586,2.7781860234997926,0.15209921264423082,nan
1740788758.7166138,0.6155185114669444,-0.13466554646001533,2.775649409820358,0.22579061843484294,nan
1740788758.720518,0.691244400746595,-0.2095861879919486,2.7697217203132096,0.2978520239892843,nan
1740788758.7244227,0.764170062633476,-0.28134756856488946,2.760203456855425,0.3675285933217822,nan
1740788758.728347,0.8335438470874567,-0.34906936048458703,2.7468887105949418,0.4340627388207305,nan
1740788758.7322514,0.8986178237203016,-0.41188812428256355,2.7295673885891567,0.49670029194193527,nan
1740788758.736156,0.958653791015049,-0.4689651844940914,2.708027607092249,0.5546967560590222,nan
1740788758.7400603,1.0129293188739976,-0.5194943942518961,2.68205822944392,0.6073235905690073,nan
1740788758.743965,1.0607437755566145,-0.5627097207325352,2.6514515246559,0.6538744745105978,nan
1740788758.7478693,1.1014242896320166,-0.5978925844934523,2.6160059211532967,0.6936714975460305,nan
1740788758.7517738,1.1343315975475727,-0.6243788873282802,2.5755288287234133,0.7260712261909859,nan
1740788758.7556784,1.1588657278091687,-0.6415656654352935,2.5298395005704606,0.7504705936543722,nan
1740788758.7595828,1.174471473579371,-0.648917307422905,2.478771906483813,0.7663125625696858,nan
1740788758.7634873,1.1806436067234418,-0.6459712799458918,2.4221775875108533,0.7730915112574657,nan
1740788758.7673917,1.17693178796228,-0.6323433075506198,2.3599284621912244,0.7703582959456435,nan
1740788758.7712963,1.162945129814959,-0.6077319575765127,2.2919195543629645,0.757724943578873,nan
1740788758.775219,1.1383563714171265,-0.5719225856794438,2.2180716127953866,0.7348689324533363,nan
1740788758.7791235,1.1029056270671722,-0.5247906026716715,2.138333593438788,0.7015370209003343,nan
1740788758.783028,1.0564036734587203,-0.466304028869604,2.052684975904419,0.6575485875873329,nan
1740788758.7869325,0.9987347439815393,-0.3965253079590425,1.961137886894222,0.6027984506826608,nan
1740788758.790837,0.9298588021862408,-0.31561235847836816,1.863739004680575,0.5372591371106612,nan
1740788758.7947414,0.8498132704816495,-0.22381884733186944,1.7605712203807393,0.4609825773756243,nan
1740788758.798646,0.7587141943352846,-0.12149367622412867,1.65175503366576,0.3741012059208845,nan
1740788758.8025503,0.6567568266429311,-0.009079678496786219,1.5374496626733434,0.27682845167722864,nan
1740788758.806455,0.5442156214866612,0.11288846950561456,1.4178538502406395,0.16945860830365372,nan
1740788758.8103595,0.4214436311744965,0.2437871117708481,1.2932063511157594,0.05236607859331897,nan
1740788758.8142638,0.2888713052102834,0.3829072333018983,1.1637860875240398,-0.07399600743316856,nan
1740788758.8181684,0.14700469463977558,0.5294588143273468,1.0299119633325327,-0.2090977961385471,nan
1740788758.822103,-0.0035769299818433973,0.6825758879251704,0.8919423300485894,-0.35233532589430766,nan
1740788758.8260074,-0.1622240339950343,0.8413222648797758,0.7502741009787097,-0.50303373999901,nan
1740788758.829912,-0.3282203297255613,1.00469788380679,0.6053415130343822,-0.6604510772267721,nan
1740788758.8338165,-0.500786821007082,1.1716457391263115,0.4576145388735239,-0.8237826155356073,nan
1740788758.8377209,-0.6790863544784818,1.3410593343910269,0.3075969552802322,-0.9921657398321155,nan
1740788758.8416255,-0.862228646786122,1.5117906038254836,0.15582407688224167,-1.1646853002702449,nan
1740788758.8455298,-1.0492757528403367,1.682658240748101,0.0028601674552226047,-1.3403794233953328,nan
1740788758.8494344,-1.2392479365598787,1.8524563678654682,-0.15070445586349754,-1.5182457345666802,nan
1740788758.853339,-1.431129902119595,2.019963481281927,-0.30425660716075237,-1.6972479465361048,nan
1740788758.8572433,-1.6238773406251028,2.183951597484869,-0.45716368400645196,-1.8763227658574544,nan
1740788758.8611479,-1.8164237444006548,2.3431955305709606,-0.6087773635836322,-2.0543870659810732,nan
1740788758.8650522,-2.0076874387167454,2.4964822255891757,-0.7584375163976903,-2.230345273472749,nan
1740788758.8689842,-2.1965787788232007,2.6426200731062903,-0.9054763089923797,-2.40309691181038,nan
1740788758.8728886,-2.3820074586091784,2.780448129957205,-1.049222465051477,-2.5715442456714883,nan
1740788758.8767931,-2.562889876097644,2.908845171628646,-1.189005652468393,-2.7345999675450994,nan
1740788758.8806975,-2.7381565003090182,3.0267385028374107,-1.3241609624394635,-2.8911948678928643,nan
1740788758.884602,-2.9067591838035747,3.133112454595026,-1.4540334453959334,-3.0402854299529607,nan
1740788758.8885067,-3.0676783654376347,3.227016498385611,-1.577982667647832,-3.180861290628816,nan
1740788758.892411,-3.219930108543984,3.3075729110040606,-1.6953872519807007,-3.311952509731238,nan
1740788758.8963156,-3.362572920867416,3.373983927083058,-1.8056493651310972,-3.4326365911415295,nan
1740788758.90022,-3.4947143041434847,3.425538320351223,-1.9081991150739812,-3.5420452012247083,nan
1740788758.9041245,-3.6155169831903167,3.4616173591771076,-2.0024988213865327,-3.639370532032546,nan
1740788758.908029,-3.724204766773843,3.481700086927055,-2.088047122607752,-3.7238712594780727,nan
1740788758.9119334,-3.8200679952869123,3.485367883057145,-2.1643828854875338,-3.7948780497154786,nan
1740788758.915864,-3.9024685334297824,3.4723082666251326,-2.231088882306186,-3.851798570397068,nan
1740788758.9197686,-3.970844269567875,3.4423179099986783,-2.2877952040359073,-3.8941219672743443,nan
1740788758.9236732,-4.024713087243811,3.3953048368997862,-2.334182378997356,-3.921422770732099,nan
1740788758.9275775,-4.063676278403247,3.33128978550819,-2.3699841688220618,-3.9333642012590553,nan
1740788758.931482,-4.087421372224556,3.250406724092915,-2.394990015947636,-3.929700847529436,nan
1740788758.9353864,-4.095724357984828,3.1529025134940114,-2.409047119527528,-3.9102806956586837,nan
1740788758.939291,-4.088451285111861,3.03913571767759,-2.412062119508431,-3.875046493262728,nan
1740788758.9431956,-4.065559228424336,2.909574570478341,-2.4040023716921564,-3.8240364371519684,nan
1740788758.9471,-4.027096611510576,2.764794113466305,-2.384896799829039,-3.757384178785448,nan
1740788758.9510045,-3.9732028861986075,2.6054725265712237,-2.3548363141590185,-3.6753181469536136,nan
1740788758.9549088,-3.9041075710859885,2.4323866796117164,-2.31397378929587,-3.578160192505426,nan
1740788758.9588134,-3.8201286570849047,2.24640693915289,-2.262523597909453,-3.466323565243142,nan
1740788758.9627426,-3.721670392855674,2.048491271102088,-2.20076070026982,-3.340310238331887,nan
1740788758.9666471,-3.6092204678091337,1.8396786850979856,-2.129019293344092,-3.2007076006679056,nan
1740788758.9705515,-3.4833466150159875,1.6210820720059536,-2.0476910267509045,-3.048184542577297,nan
1740788758.974456,-3.344692660830706,1.3938804906587512,-1.9572227964462625,-2.8834869649351544,nan
1740788758.9783607,-3.193974052282317,1.159310964336053,-1.8581141305077413,-2.7074327462647543,nan
1740788758.982265,-3.031972897269793,0.9186598513232042,-1.7509141847706562,-2.520906206561024,nan
1740788758.9861696,-2.8595325562931784,0.6732538571974882,-1.6362183693201577,-2.3248521104477566,nan
1740788758.990074,-2.677551827823245,0.4244507592321876,-1.514664629928926,-2.1202692557923757,nan
1740788758.9939785,-2.486978772435149,0.17362991546310041,-1.3869294114238393,-1.9082036970372078,nan
1740788758.997883,-2.2888042234811428,-0.07781736748791057,-1.2537233326412471,-1.6897416552366995,nan
1740788759.0017874,-2.0840550343329123,-0.3284975328037683,-1.1157866050656968,-1.46600216909436,nan
1740788759.005692,-1.873787114068109,-0.5770244627370164,-0.9738842294194305,-1.2381295431530623,nan
1740788759.0096195,-1.6590783048939037,-0.8220290837193193,-0.828801006360548,-1.0072856506935202,nan
1740788759.013524,-1.4410211555827879,-1.0621688132158265,-0.6813363990395337,-0.774642149827797,nan
1740788759.0174284,-1.2207156457354533,-1.296136775762677,-0.5322992865426123,-0.5413726717311987,nan
1740788759.021333,-0.9992619157796717,-1.5226707177575167,-0.3825026482047547,-0.3086450399344404,nan
1740788759.0252376,-0.777753057263518,-1.7405615532779235,-0.23275821939634986,-0.07761357910024304,nan
1740788759.029142,-0.5572680172106045,-1.9486614764560861,-0.08387115966996492,0.15058842925983992,nan
1740788759.0330465,-0.338864669082696,-2.1458915797103435,0.06336522590556835,0.3748560881018776,nan
1740788759.0369508,-0.12357310125309212,-2.331248921391354,0.2081746717970013,0.5941199690495709,nan
1740788759.0408554,0.08761082815199603,-2.5038129911046765,0.3498030037562485,0.8073528876350392,nan
1740788759.04476,0.2937316236182714,-2.6627515260806396,0.48752301864991776,1.0135763204539283,nan
1740788759.0486643,0.493879928183187,-2.8073256374316378,0.6206391551441183,1.211866418209782,nan
1740788759.052569,0.6871979024523338,-2.9368942109184055,0.7484919197237192,1.4013595720817549,nan
1740788759.0564954,0.8728841696369015,-3.0509175528898678,0.8704620345251864,1.5812574946362312,nan
1740788759.0604,1.0501982932796279,-3.1489602583135543,0.985974275740816,1.7508317805837623,nan
1740788759.0643044,1.2184647583067978,-3.230693284221123,1.0945009738899931,1.9094279170226025,nan
1740788759.068209,1.3770764302267462,-3.2958952184011454,1.1955651500279905,2.056468717371583,nan
1740788759.0721135,1.525497471654667,-3.3444527397233754,1.2887432649507975,2.1914571579389954,nan
1740788759.0760179,1.6632656998418698,-3.3763602730192392,1.3736675616296132,2.3139786009600143,nan
1740788759.0799224,1.7899943734863326,-3.3917188479169758,1.450027984443525,2.4237023929215575,nan
1740788759.0838268,1.9053734017613753,-3.3907341773820687,1.5175736622445768,2.520382832038015,nan
1740788759.0877314,2.009169973180866,-3.3737139778910907,1.5761139458560136,2.6038595038016097,nan
1740788759.091636,2.101228606583278,-3.34106455911847,1.625518994241148,2.6740569885649053,nan
1740788759.0955403,2.181470631123834,-3.2932867166918416,1.66571990725563,2.7309839500780786,nan
1740788759.0994449,2.2498931066756453,-3.2309709669258613,1.696708406578285,2.7747316187589686,nan
1740788759.103369,2.306567200419733,-3.154792167433464,1.7185360700734713,2.8054716881796358,nan
1740788759.1072736,2.3516360396141787,-3.0655035720973602,1.7313131284396868,2.8234536477705805,nan
1740788759.1111782,2.38531206453998,-2.963930373026842,1.7352068365141284,2.829001579036379,nan
1740788759.1150825,2.407873909393168,-2.8509627857935897,1.7304394350011065,2.8225104466096362,nan
1740788759.118987,2.41966284239923,-2.727548737407297,1.7172857216447266,2.8044419192117975,nan
1740788759.1228914,2.4210787996391776,-2.5946862191340885,1.6960702539455463,2.775319759010012,nan
1740788759.126796,2.4125760499717925,-2.4534153683595554,1.6671642084011218,2.735724820932481,nan
1740788759.1307006,2.3946585309915926,-2.3048103452398063,1.6309819239072132,2.686289706207136,nan
1740788759.134605,2.367874898157967,-2.1499710708596034,1.5879771593680638,2.627693116700092,nan
1740788759.1385095,2.332813331052017,-1.9900148940226354,1.538639097710517,2.560653958534622,nan
1740788759.1424139,2.290096142151472,-1.8260682536364063,1.4834881303605107,2.4859252449553515,nan
1740788759.1463184,2.240374234551846,-1.6592584029294046,1.423071457806695,2.4042878494569124,nan
1740788759.150241,2.1843214556982113,-1.4907052604621598,1.357958543132319,2.316544160815889,nan
1740788759.1541455,2.1226288944247322,-1.3215134510822653,1.2887364563336763,2.2235116918478086,nan
1740788759.15805,2.0559991684301058,-1.1527645976469296,1.2160051478546732,2.126016693459437,nan
1740788759.1619544,1.9851407487513697,-0.9855099215197487,1.1403726900487308,2.0248878248864157,nan
1740788759.165859,1.9107623668446019,-0.8207632065700463,1.0624505252304952,1.9209499299069333,nan
1740788759.1697636,1.8335675485508975,-0.6594941776960379,0.9828487586027833,1.8150179673166729,nan
1740788759.173668,1.7542493175344682,-0.5026223407933079,0.902171533643868,1.7078911420551859,nan
1740788759.1775725,1.6734851087450333,-0.35101132663707757,0.8210125265244388,1.600347281108915,nan
1740788759.1814768,1.5919319300996573,-0.20546377638257002,0.7399505948029507,1.4931374957039554,nan
1740788759.1853814,1.5102218079234992,-0.06671680135691761,0.6595456140358232,1.3869811683681093,nan
1740788759.189286,1.4289575487605353,0.06456195543491758,0.5803345340508465,1.2825613002148792,nan
1740788759.1931903,1.3487088469923978,0.1877776340909108,0.5028276844862941,1.1805202503124643,nan
1740788759.1971245,1.2700087643161566,0.3024108324263001,0.4275053568149646,1.0814558952809492,nan
1740788759.201029,1.1933506035617947,0.40801962958776555,0.3548146874739641,0.9859182333452111,nan
1740788759.2049334,1.1191851956104975,0.504240953476479,0.28516686393164475,0.8944064529951983,nan
1740788759.208838,1.047918614339626,0.5907912924053005,0.21893467256834437,0.8073664822060289,nan
1740788759.2127426,0.9799103306043037,0.6674667569562047,0.156450404154502,0.7251890298854545,nan
1740788759.216647,0.9154718123040586,0.7341425034214852,0.09800412950638716,0.6482081268835228,nan
1740788759.2205515,0.8548655736113073,0.7907715354600389,0.04384235461497803,0.5767001695570115,nan
1740788759.2244558,0.7983046724915934,0.8373829056337463,-0.005832938793056586,0.5108834645670931,nan
1740788759.2283604,0.7459526517581163,0.8740793432665555,-0.050864864662023265,0.4509182693400398,nan
1740788759.232265,0.6979239151086928,0.901034339551099,-0.09114181673239902,0.39690731847398597,nan
1740788759.2361693,0.6542845259246083,0.9184887249781291,-0.12659726944937805,0.34889682236482034,nan
1740788759.240074,0.6150534130988248,0.9267467779499131,-0.1572092029674218,0.3068779204848825,nan
1740788759.2440064,0.58020396483523,0.9261719068305906,-0.18299916271691913,0.2707885681109839,nan
1740788759.247911,0.5496659882484962,0.9171819506588526,-0.20403096703096385,0.24051583189304457,nan
1740788759.2518156,0.5233280097209463,0.9002441462798157,-0.22040907921464395,0.21589856650869377,nan
1740788759.25572,0.5010398883615994,0.8758698117262307,-0.23227666315173712,0.1967304417872897,nan
1740788759.2596245,0.48261571258354563,0.8446087972814644,-0.2398133440614987,0.18276328713098686,nan
1740788759.2635288,0.46783694778667295,0.8070437567793147,-0.2432326983206119,0.1737107178298085,nan
1740788759.2674334,0.4564558014182425,0.7637842923347531,-0.24277949833348283,0.16925200597818915,nan
1740788759.271338,0.44819877029564864,0.715461025855411,-0.23872674025153912,0.169036157164891,nan
1740788759.2752423,0.4427703340226217,0.6627196503607664,-0.23137248389477397,0.17268615293616935,nan
1740788759.279147,0.43985675761769005,0.6062150133437624,-0.2210365355049957,0.17980331822965617,nan
1740788759.2830515,0.4391299661043989,0.546605283161017,-0.2080570049509399,0.18997177254652053,nan
1740788759.2869558,0.44025145378585157,0.4845462477503665,-0.1927867697042247,0.2027629235714867,nan
1740788759.290886,0.4428761912378164,0.42068579286918556,-0.17558987830843492,0.217739962260288,nan
1740788759.2947903,0.4466564936981396,0.3556586045484588,-0.15683792617032394,0.23446231908507892,nan
1740788759.2986948,0.45124581549561915,0.2900811375940508,-0.1369064363140334,0.25249004214976717,nan
1740788759.3025994,0.4563024364363798,0.22454688876899687,-0.11617127726066612,0.27138805924586196,nan
1740788759.3065038,0.4614930076346315,0.15962200979281682,-0.09500514943351718,0.2907302875989929,nan
1740788759.3104084,0.4664959261198212,0.0958412915319294,-0.0737741704533264,0.31010355703764103,nan
1740788759.3143127,0.47100450965325663,0.03370454676751598,-0.052834588389930846,0.3291113145774554,nan
1740788759.3182173,0.47472994552207703,-0.026326585246548257,-0.03252965049102727,0.34737708093279446,nan
1740788759.3221219,0.4774039896226188,-0.08383139354168723,-0.013186653131655793,0.36454763221603664,nan
1740788759.3260262,0.47878139487292043,-0.13843239503597066,0.004885803261982478,0.3802958830369564,nan
1740788759.3299308,0.478642050877935,-0.18979716898811774,0.021400332743595114,0.39432345033978355,nan
1740788759.3338354,0.4767928197824842,-0.2376397208132084,0.03609303661575811,0.4063628805838907,nan
1740788759.3377638,0.4730690563567116,-0.281721374244575,0.048725513721401735,0.4161795262539164,nan
1740788759.3416684,0.4673358035367697,-0.3218511952359981,0.05908659416750743,0.42357306114423476,nan
1740788759.3455727,0.4594886578593989,-0.35788595530186357,0.06699378511394886,0.42837862736854115,nan
1740788759.3494773,0.4494543024525756,-0.3897296461514146,0.07229442005581208,0.43046761056521865,nan
1740788759.3533816,0.43719070844541585,-0.4173325614496584,0.07486650586873463,0.42974804327068356,nan
1740788759.3572862,0.4226870088094599,-0.44068996529696675,0.07461926474710978,0.42616463988418424,nan
1740788759.3611908,0.4059630517114816,-0.45984037052942994,0.07149337101785769,0.41969847001742977,nan
1740788759.3650951,0.38706864341740926,-0.47486345317305073,0.06546088563163681,0.4103662802809732,nan
1740788759.3689997,0.3660824936113019,-0.485877632310062,0.05652489389301396,0.3982194776778133,nan
1740788759.3729043,0.3431108786577574,-0.4930373472116922,0.0447188546663722,0.38334279072616445,nan
1740788759.3768086,0.31828604081743406,-0.4965300658384857,0.030105671861164127,0.36585262719261596,nan
1740788759.3807132,0.29176434370242393,-0.4965730606903333,0.012776501435810798,0.3458951498607447,nan
1740788759.3846407,0.26372420631189486,-0.4934099894909523,-0.007150690557222512,0.32364409406786954,nan
1740788759.3885453,0.23436383980203845,-0.4873073193066468,-0.029532801251627813,0.29929835279548256,nan
1740788759.3924496,0.20389881270351556,-0.47855063342155985,-0.054203476018226476,0.27307935688114077,nan
1740788759.3963542,0.17255947159258084,-0.4674408606200573,-0.08097518401743473,0.2452282794179967,nan
1740788759.4002588,0.14058824523963545,-0.45429046646369753,-0.10964146148908994,0.21600309461231476,nan
1740788759.4041631,0.10823686099475434,-0.4394196457017487,-0.13997929875252357,0.1856755222716794,nan
1740788759.4080677,0.07576350261992375,-0.42315255413022024,-0.1717516458678557,0.15452788969252015,nan
1740788759.411972,0.04342993894138588,-0.40581361702825486,-0.2047100111359833,0.12284994300331782,nan
1740788759.4158766,0.011498652574311064,-0.38772394976922225,-0.2385971260941259,0.09093564000056498,nan
1740788759.4197812,-0.01977000242957059,-0.36919792434682,-0.27314965039847855,0.05907995619229334,nan
1740788759.4236856,-0.0501205858357299,-0.35053991339673096,-0.3081008899752715,0.027575735145563638,nan
1740788759.4275901,-0.07930527214514263,-0.3320412408574359,-0.3431835020637843,-0.0032893866707504466,nan
1740788759.431516,-0.10708644113096444,-0.3139773657274575,-0.3781321612646591,-0.033235951536063686,nan
1740788759.4354205,-0.13323913337571092,-0.29660532247069743,-0.4126861614369971,-0.06199552104873961,nan
1740788759.439325,-0.15755334784061634,-0.28016143852839254,-0.44659192924864943,-0.08931335972750391,nan
1740788759.4432294,-0.1798361603513503,-0.26485934614879764,-0.47960542636439846,-0.11495093766041609,nan
1740788759.447134,-0.1999136439196465,-0.2508883023785019,-0.5114944186426671,-0.1386882303280838,nan
1740788759.4510384,-0.21763257401702515,-0.23841182760736754,-0.5420405922877506,-0.16032579601827832,nan
1740788759.454943,-0.23286190425175124,-0.22756666955817345,-0.5710414986541362,-0.17968661369626265,nan
1740788759.4588475,-0.24549400034939525,-0.21846209609775954,-0.59831231130385,-0.19661766677366277,nan
1740788759.4627519,-0.2554456228759673,-0.2111795167542907,-0.6236873809569292,-0.21099126090241566,nan
1740788759.4666564,-0.2626586517450687,-0.205772429389932,-0.6470215761282252,-0.22270606668227963,nan
1740788759.470561,-0.2671005481909583,-0.20226668513363738,-0.6681913994887536,-0.23168788098322668,nan
1740788759.4744654,-0.26876455254189474,-0.20066106145746085,-0.6870958723043694,-0.2378901034202385,nan
1740788759.4783897,-0.26766961876673245,-0.2009281302127287,-0.7036571816654186,-0.241293927350046,nan
1740788759.482294,-0.26386008936703953,-0.2030154045587289,-0.7178210876050762,-0.24190824756016804,nan
1740788759.4861987,-0.25740511672216815,-0.206846746043138,-0.7295570895880416,-0.2397692895635762,nan
1740788759.490103,-0.24839783944172064,-0.21232401065483728,-0.7388583542119772,-0.23493996807186932,nan
1740788759.4940076,-0.23695432461584615,-0.21932891048787653,-0.745741408279053,-0.22750898477126769,nan
1740788759.4979122,-0.22321228905717172,-0.22772506574935872,-0.7502456036420871,-0.2175896779458126,nan
1740788759.5018165,-0.2073296146787503,-0.23736022022994632,-0.7524323623880158,-0.2053186387590716,nan
1740788759.505721,-0.18948267503186375,-0.24806859204660217,-0.7523842129707009,-0.19085411109932765,nan
1740788759.5096257,-0.16986449171909923,-0.25967333047284363,-0.7502036298265056,-0.17437419379548078,nan
1740788759.51353,-0.1486827408873234,-0.27198904899873655,-0.7460116907822918,-0.15607486570558154,nan
1740788759.5174346,-0.12615763127937074,-0.2848244044142112,-0.7399465681806205,-0.13616785565305004,nan
1740788759.5213392,-0.10251967637222587,-0.29798469168499697,-0.732161871086817,-0.11487838042555877,nan
1740788759.5252619,-0.07800738394508848,-0.3112744246870166,-0.7228248571949417,-0.0924427750489293,nan
1740788759.5291665,-0.05286488699734674,-0.3244998734758326,-0.7121145341041745,-0.06910604029640434,nan
1740788759.533071,-0.02733954027079696,-0.3374715296828899,-0.7002196704853442,-0.04511933288788346,nan
1740788759.5369754,-0.0016795067215475182,-0.35000647283702435,-0.6873367382930735,-0.020737424072299577,nan
1740788759.54088,0.02386864186358914,-0.3619306118922826,-0.6736678075981687,0.003783847730045939,nan
1740788759.5447843,0.04906228629998246,-0.373080777983229,-0.6594184158154811,0.028190104816691795,nan
1740788759.548689,0.07366506030150369,-0.38330664640570894,-0.6447954330847173,0.05223091372990391,nan
1740788759.5525935,0.09744906729830494,-0.39247246801144814,-0.6300049453279676,0.07566220028059208,nan
1740788759.5564978,0.12019699249103871,-0.4004585925837908,-0.6152501760624862,0.09824857291021527,nan
1740788759.5604024,0.14170409011401214,-0.40716276930257667,-0.6007294673969982,0.11976553242948083,nan
1740788759.564307,0.16178002732372118,-0.4125012120803139,-0.5866343397930018,0.14000154757250663,nan
1740788759.5682113,0.18025056774339684,-0.41640942033013173,-0.573147649139554,0.15875997739099582,nan
1740788759.5721462,0.19695907946129065,-0.41884274857824527,-0.5604418584828874,0.1758608232672003,nan
1740788759.5760508,0.21176785418141883,-0.41977672122906795,-0.5486774403846932,0.19114229522787457,nan
1740788759.579955,0.22455922624042132,-0.4192070916988195,-0.5380014243701465,0.20446217927366808,nan
1740788759.5838597,0.23523648231208535,-0.4171496480225737,-0.5285461022852954,0.21569899457806171,nan
1740788759.5877643,0.24372455480019978,-0.4136397698798513,-0.5204279026308186,0.22475293163465374,nan
1740788759.5916686,0.24997049414856287,-0.4087317447453494,-0.513746443094141,0.23154656471859733,nan
1740788759.5955732,0.2539437175516024,-0.4024978535256232,-0.5085837685835912,0.2360253343538698,nan
1740788759.5994775,0.2556360338076261,-0.3950272385621361,-0.5050037800968895,0.23815779781957735,nan
1740788759.603382,0.2550614462967507,-0.3864245692403548,-0.5030518577518145,0.23793564806220913,nan
1740788759.6072867,0.25225573826495334,-0.37680852261953585,-0.5027546792900347,0.2353735036837049,nan
1740788759.611191,0.24727584673306582,-0.36631009846677065,-0.5041202333561327,0.23050847492498175,nan
1740788759.6150956,0.24019903340406382,-0.355070789822122,-0.5071380248729694,0.22339951273930828,nan
1740788759.6190279,0.23112186289411882,-0.34324063172224056,-0.5117794679015001,0.21412655012906612,nan
1740788759.6229324,0.2201590004439255,-0.33097615195324287,-0.5179984595069818,0.20278944688316625,nan
1740788759.626837,0.20744184295974258,-0.31843824867818554,-0.5257321263725349,0.18950675068264622,nan
1740788759.6307414,0.19311699877261335,-0.30579002048138826,-0.5349017342224418,0.1744142892218354,nan
1740788759.634646,0.1773446328754024,-0.2931945747852337,-0.5454137485575165,0.15766360950692962,nan
1740788759.6385505,0.1602966955883552,-0.2808128407220533,-0.5571610337781406,0.13942028182948188,nan
1740788759.6424549,0.14215505360447298,-0.2688014123844361,-0.5700241764904339,0.11986208705784142,nan
1740788759.6463594,0.12310954316776301,-0.2573104479348473,-0.5838729176692466,0.0991771068355217,nan
1740788759.650264,0.10335596573400423,-0.2464816493359028,-0.5985676773983409,0.07756173701449257,nan
1740788759.6541684,0.08309404685079784,-0.2364463464749238,-0.6139611551314386,0.05521864517831984,nan
1740788759.658073,0.06252537916930137,-0.22732370821216427,-0.6298999878242696,0.03235469342183876,nan
1740788759.6619775,0.0418513704640629,-0.21921910139572176,-0.6462264478818179,0.00917884764982135,nan
1740788759.6659074,0.02127121729193655,-0.21222261717430407,-0.6627801626492582,-0.01409990546190734,nan
1740788759.669812,0.000979924470390594,-0.20640778202088814,-0.6793998371502062,-0.03727461302965577,nan
1740788759.6737163,-0.018833610094330024,-0.2018304687769925,-0.6959249619405454,-0.06014236177216715,nan
1740788759.677621,-0.037988426539469655,-0.19852802076175355,-0.7121974882970921,-0.08250621552514226,nan
1740788759.6815255,-0.05631323247053372,-0.19651859958694778,-0.7280634534925124,-0.10417706584021762,nan
1740788759.6854298,-0.07364801420167004,-0.19580076480445566,-0.7433745396143472,-0.12497537814939792,nan
1740788759.6893344,-0.0898455146818348,-0.19635329091348278,-0.7579895502580754,-0.14473281724137654,nan
1740788759.693239,-0.10477256446512553,-0.19813522459899924,-0.7717757904516137,-0.16329373721194484,nan
1740788759.6971433,-0.11831125369702504,-0.20108618238871578,-0.7846103363395787,-0.18051652260083267,nan
1740788759.701048,-0.13035993480957725,-0.20512688623199613,-0.7963811824570007,-0.1962747690949922,nan
1740788759.7049525,-0.14083404742955485,-0.21015993184899065,-0.80698825583945,-0.21045829394539864,nan
1740788759.7088568,-0.1496667588854494,-0.21607078210006087,-0.8163442877340988,-0.22297396809198655,nan
1740788759.7127852,-0.15680941563228004,-0.22272897511168308,-0.8243755352778377,-0.23374636390001102,nan
1740788759.7166898,-0.16223180287776778,-0.22998953449208706,-0.8310223471767063,-0.24271821436078334,nan
1740788759.7205942,-0.1659222116692644,-0.2376945667031198,-0.8362395691380294,-0.24985068158037788,nan
1740788759.7244987,-0.16788731466809728,-0.24567502854817524,-0.8399967865542927,-0.2551234343511668,nan
1740788759.7284033,-0.16815185377671144,-0.25375264581153606,-0.8422784036978428,-0.2585345365530452,nan
1740788759.7323077,-0.16675814467488043,-0.2617419623624405,-0.843083560439234,-0.26010015004417186,nan
1740788759.7362123,-0.16376540514553806,-0.26945249753560785,-0.8424258892314114,-0.2598540575559448,nan
1740788759.7401168,-0.15924891581045397,-0.27669098833462213,-0.8403331167888851,-0.2578470128854412,nan
1740788759.7440212,-0.15329902353411953,-0.28326369198873064,-0.836846516518363,-0.25414592736325453,nan
1740788759.7479258,-0.14601999927490814,-0.2889787236379765,-0.8320202193081621,-0.24883290314928586,nan
1740788759.7518303,-0.13752876355129523,-0.2936484034340593,-0.8259203917425028,-0.24200412535858654,nan
1740788759.7557347,-0.12795349393456343,-0.29709158713007555,-0.8186242921585982,-0.23376862633015488,nan
1740788759.7596617,-0.11743213006635905,-0.29913595429371254,-0.810219216195912,-0.2242469365116198,nan
1740788759.763566,-0.10611079261982558,-0.2996202286149586,-0.8008013445856306,-0.21356963743148724,nan
1740788759.7674706,-0.09414213336859086,-0.2983963053875904,-0.7904745068836565,-0.2018758330594236,nan
1740788759.7713752,-0.08168363409238258,-0.295331262117478,-0.7793488756529191,-0.18931155650698447,nan
1740788759.7752795,-0.06889587242689844,-0.29030922934105824,-0.7675396062429349,-0.1760281294912111,nan
1740788759.779184,-0.05594077295624156,-0.2832331001127034,-0.7551654377903807,-0.1621804922684872,nan
1740788759.7830887,-0.042979861848159155,-0.27402605822601905,-0.7423472713698426,-0.14792552184477106,nan
1740788759.786993,-0.030172543146624382,-0.2626329070547639,-0.7292067413564625,-0.1334203561814684,nan
1740788759.7908976,-0.01767441446630303,-0.24902118291555375,-0.7158647960214324,-0.11882074184642366,nan
1740788759.7948022,-0.005635639283998475,-0.23318203904596585,-0.7024403031683136,-0.10427942211118567,nan
1740788759.7987065,0.005800607699791512,-0.21513088863559668,-0.6890486962362165,-0.08994458187515082,nan
1740788759.802611,0.01649960654211852,-0.1949077978199871,-0.6758006757495622,-0.07595836501236658,nan
1740788759.806537,0.02633645483452639,-0.17257762212270106,-0.6628009802901679,-0.062455478797247485,nan
1740788759.8104415,0.035197313910868354,-0.1482298824826728,-0.6501472403136719,-0.04956189898236932,nan
1740788759.8143458,0.0429805264327657,-0.12197837970506359,-0.637928927138741,-0.03739368788739636,nan
1740788759.8182504,0.049597594726104366,-0.09396054889636461,-0.6262264083149506,-0.026055936526736056,nan
1740788759.822155,0.0549740107683287,-0.06433655816044162,-0.6151101193363151,-0.01564184036968118,nan
