timestamps,TP9,AF7,AF8,TP10,Right AUX
1740446810.9097338,0.22577836195235917,-0.2091463627613823,1.5216969827185194,0.39399815908029334,nan
1740446810.9136398,0.22811459931284228,-0.21296919878436638,1.53148885693608,0.3982671223642179,nan
1740446810.9175458,0.2285352312270944,-0.21675918781670994,1.5378453900209097,0.40013871377529314,nan
1740446810.9214516,0.22707106743931713,-0.22056416131074383,1.5407694763528437,0.3996503281426507,nan
1740446810.9253576,0.22377141994483396,-0.22443547760355317,1.5402823666381207,0.3968607928568385,nan
1740446810.9292636,0.21870353349352967,-0.22842713055718206,1.5364232053553257,0.39184961456300643,nan
1740446810.9331696,0.2119518420956936,-0.23259480454918735,1.529248441348901,0.38471603254608694,nan
1740446810.9370754,0.20361706001716726,-0.23699488695045998,1.51883111779578,0.3755778896147292,nan
1740446810.9409814,0.193815117356647,-0.24168344981869233,1.5052600487487269,0.36457033301685304,nan
1740446810.9448874,0.18267595179285878,-0.24671521300109958,1.488638890368762,0.35184435950964377,nan
1740446810.9487934,0.1703421694584865,-0.25214250117307685,1.4690851157907732,0.3375652201454669,nan
1740446810.9526992,0.1569675891282618,-0.2580142075363459,1.4467289033138868,0.32191070160913426,nan
1740446810.956606,0.14271568498868914,-0.2643747769577842,1.421711948265015,0.3050693020393622,nan
1740446810.960512,0.1277579441765252,-0.2712632212471855,1.3941862094447917,0.2872383201782385,nan
1740446810.964418,0.112272156023881,-0.2787121790487474,1.364312601525134,0.26862187740903753,nan
1740446810.9683237,0.09644065052301087,-0.28674703245866967,1.3322596451233355,0.24942889275872956,nan
1740446810.9722297,0.08044850391868653,-0.2953850919829007,1.298202086526235,0.22987103125309866,nan
1740446810.9761357,0.06448172954741851,-0.3046348608192323,1.2623194991777476,0.21016064611752946,nan
1740446810.9800417,0.048725472069679386,-0.314495388692595,1.224794879073468,0.19050873521551084,nan
1740446810.9839475,0.03336222308427137,-0.3249557245985842,1.185813246127138,0.17112293181186095,nan
1740446810.9878535,0.018570075775856898,-0.33599447682673134,1.1455602633871644,0.15220554924305693,nan
1740446810.9917595,0.004521035731621603,-0.3475794875512019,1.1042208856890359,0.13395169837889326,nan
1740446810.9956656,-0.00862059562247879,-0.3596676281035809,1.0619780489350021,0.1165474958764735,nan
1740446810.9995713,-0.020699749363810555,-0.372204719791712,1.019011410699695,0.1001683801689953,nan
1740446811.0034807,-0.031572014592875244,-0.3851255838130792,0.9754961522746602,0.0849775509098639,nan
1740446811.0073867,-0.0411049476739563,-0.3983542224442292,0.9316018515919765,0.07112454622055898,nan
1740446811.0112925,-0.04917925301314893,-0.41180413228332774,0.8874914357138897,0.05874397058324224,nan
1740446811.0151985,-0.05568982457989287,-0.4253787488956434,0.8433202207490921,0.047954384592309086,nan
1740446811.0191045,-0.060546638868939656,-0.43897202077630326,0.7992350461650805,0.0388573660502639,nan
1740446811.0230105,-0.0636754915760751,-0.4524691091161568,0.7553735095183512,0.031536750080454215,nan
1740446811.0269163,-0.06501857190619742,-0.46574720844997586,0.7118633066293455,0.02605805405135214,nan
1740446811.0308223,-0.06453487012948016,-0.478676481896376,0.6688216811963619,0.0224680911836113,nan
1740446811.0347283,-0.0622004157325056,-0.4911211033804402,0.6263549867819924,0.020794774761939392,nan
1740446811.0386343,-0.05800834525870391,-0.5029403979770802,0.5845583630269954,0.021047112918895237,nan
1740446811.04254,-0.05196880067802025,-0.5139900703393698,0.5435155268600121,0.023215392017021594,nan
1740446811.046446,-0.044108660851645845,-0.5241235100941911,0.5032986783873185,0.027271544748966894,nan
1740446811.050355,-0.034471110346253636,-0.5331931621094945,0.4639685200749769,0.03316969722173155,nan
1740446811.054261,-0.023115051486230647,-0.5410519486743743,0.4255743867861892,0.04084688750957071,nan
1740446811.058167,-0.010114367095510918,-0.5475547298946803,0.38815448321902957,0.05022394646812554,nan
1740446811.0620728,0.0044429571431411664,-0.552559788001928,0.35173622431338886,0.061206530017063256,nan
1740446811.0659788,0.020455840408728426,-0.5559303208088875,0.31633667326967896,0.07368629063526855,nan
1740446811.0698848,0.03781123298035817,-0.5575359292276884,0.2819630709541229,0.08754217448612404,nan
1740446811.0737908,0.056385348299205086,-0.5572540835997524,0.24861344966389368,0.10264182941315494,nan
1740446811.0776966,0.07604498716687762,-0.5549715535746564,0.21627732349725734,0.11884310802996119,nan
1740446811.0816026,0.09664893954802661,-0.5505857864182838,0.18493644692542574,0.13599564928216132,nan
1740446811.0855086,0.1180494487565365,-0.5440062189294345,0.15456563259979625,0.15394252119110796,nan
1740446811.0894146,0.14009372227879288,-0.5351555085965518,0.12513361895527883,0.17252190700515496,nan
1740446811.0933204,0.1626254731290678,-0.5239706702292174,0.09660397779149914,0.1915688166883984,nan
1740446811.097229,0.1854864754439817,-0.5104041050476483,0.06893605173173005,0.21091680557105835,nan
1740446811.101135,0.2085181180062884,-0.49442451010130317,0.04208591127654855,0.23039968207020362,nan
1740446811.1050408,0.2315629395424789,-0.47601765690711734,0.016007321086544648,0.2498531866624056,nan
1740446811.1089468,0.254466129961297,-0.4551870293395716,-0.0093472948539063,0.26911662474740217,nan
1740446811.1128528,0.27707698218723126,-0.43195431205843526,-0.03402589942256158,0.2880344366782378,nan
1740446811.1167588,0.2992502798884879,-0.40635972211383087,-0.0580759099105347,0.3064576890411274,nan
1740446811.1206646,0.3208476071954343,-0.37846217780961167,-0.08154329664418541,0.32424547223818356,nan
1740446811.1245706,0.34173856744400494,-0.34833930042116334,-0.10447172198097744,0.34126619054729007,nan
1740446811.1284766,0.36180189904869414,-0.3160872459381364,-0.1269017284933296,0.3573987320933205,nan
1740446811.1323826,0.3809264777996368,-0.28182036562105606,-0.14886998458302778,0.37253350754977493,nan
1740446811.1362884,0.39901219617503336,-0.24567069580752582,-0.17040859512111672,0.38657334788474923,nan
1740446811.1401944,0.41597071164958493,-0.2077872790626112,-0.19154448399097024,0.39943425305360647,nan
1740446811.1441026,0.43172605744680603,-0.16833532042273536,-0.21229885463269965,0.4110459852059586,nan
1740446811.1480086,0.44621511071218417,-0.12749518411642463,-0.23268673385300478,0.42135250169850985,nan
1740446811.1519146,0.45938791465889584,-0.0854612377423938,-0.252716603284274,0.4303122249697952,nan
1740446811.1558206,0.47120785284122774,-0.04244055242945733,-0.27239012195892964,0.4378981481189514,nan
1740446811.1597264,0.48165167532604825,0.0013485310217813539,-0.29170194251863024,0.44409777681958096,nan
1740446811.1636324,0.49070937814235505,0.04567795862392568,-0.3106396226122639,0.44891290997254857,nan
1740446811.1675384,0.49838393897616257,0.09031162962926223,-0.3291836320610001,0.45235926323958536,nan
1740446811.1714444,0.504690913625844,0.13500715903042643,-0.34730745539249785,0.45446594128449613,nan
1740446811.1753502,0.5096578992253674,0.1795177212097398,-0.3649777883789853,0.45527476616305046,nan
1740446811.1792562,0.513323871663761,0.22359395888866415,-0.38215482626464586,0.45483947082931603,nan
1740446811.1831622,0.5157384059638018,0.2669859407509788,-0.39879264044552365,0.4532247681493754,nan
1740446811.187068,0.5169607896172965,0.3094451504892174,-0.4148396394787669,0.45050530711829134,nan
1740446811.190976,0.5170590399954704,0.35072648956086055,-0.4302391094558029,0.44676452914926684,nan
1740446811.194882,0.5161088379492416,0.39059027564428356,-0.44492982798377795,0.4420934383331583,nan
1740446811.198788,0.5141923905750948,0.4288042186586419,-0.4588467452887742,0.43658930044114075,nan
1740446811.2026937,0.5113972368390346,0.4651453562589589,-0.4719217252895392,0.4303542861546449,nan
1740446811.2065997,0.5078150103161553,0.4994019309384952,-0.48408433889790864,0.4234940745472376,nan
1740446811.2105057,0.5035401737111072,0.5313751912638556,-0.4952627012870637,0.4161164332077909,nan
1740446811.2144117,0.49866874007084466,0.560881100331623,-0.5053843444358768,0.4083297915792721,nan
1740446811.2183175,0.4932969956832518,0.5877519352640881,-0.5143771159106153,0.40024182409137,nan
1740446811.2222235,0.48752023957282326,0.6118377624499207,-0.5221700945871793,0.3919580594880931,nan
1740446811.2261295,0.481431554258553,0.6330077742756869,-0.528694513849892,0.3835805323956399,nan
1740446811.2300355,0.47512062203248673,0.6511514742767797,-0.533884682727879,0.37520649264539774,nan
1740446811.2339413,0.468672600454321,0.6661796989510907,-0.5376788954475925,0.366927187167616,nan
1740446811.2378488,0.4621670700443988,0.6780254659134788,-0.5400203199894562,0.3588267284110041,nan
1740446811.2417548,0.45567706630193194,0.6866446396107786,-0.5408578564365535,0.35098106223141046,nan
1740446811.2456608,0.4492682071867832,0.6920164074512555,-0.5401469561914014,0.34345704703999597,nan
1740446811.2495668,0.44299792609216293,0.6941435609139641,-0.537850393510093,0.33631165472024593,nan
1740446811.2534726,0.4369148191142027,0.6930525779760903,-0.5339389812574344,0.329591302427698,nan
1740446811.2573786,0.43105811410571404,0.6887935050134827,-0.5283922233176134,0.3233313228913553,nan
1740446811.2612846,0.4254572675996951,0.6814396381737242,-0.5211988966968906,0.31755557925753064,nan
1740446811.2651906,0.42013169421842994,0.6710870060747519,-0.5123575570218789,0.3122762288722782,nan
1740446811.2690964,0.41509063166217924,0.6578536575273107,-0.5018769618624879,0.3074936387052945,nan
1740446811.2730024,0.4103331428138566,0.641878759798659,-0.489776407085456,0.30319645339442863,nan
1740446811.2769084,0.4058482549195866,0.6233215147102035,-0.47608597226492133,0.2993618151542919,nan
1740446811.2808144,0.4016152342265991,0.6023599015760039,-0.4608466720327781,0.29595573306346895,nan
1740446811.2847214,0.3976039928967597,0.5791892576253024,-0.4441105111352861,0.2929335975413727,nan
1740446811.2886274,0.39377562348287737,0.5540207080946629,-0.4259404418651266,0.29024083416592433,nan
1740446811.2925334,0.3900830547727404,0.5270794596083247,-0.40641022345110067,0.2878136893852343,nan
1740446811.2964392,0.38647182138841535,0.49860297177507146,-0.3856041839023563,0.2855801391573752,nan
1740446811.3003452,0.3828809381914969,0.46883902310294695,-0.3636168857116917,0.28346091012882396,nan
1740446811.3042512,0.37924386930325554,0.43804368835779306,-0.3405526977145705,0.281370601649723,nan
1740446811.308157,0.37548958041568226,0.40647924535741603,-0.3165252762687215,0.2792188957370059,nan
1740446811.312063,0.3715436620580681,0.3744120298911554,-0.29165695975536954,0.27691184104798144,nan
1740446811.315969,0.3673295106049988,0.34211025797759786,-0.2660780811997341,0.274353196028498,nan
1740446811.319875,0.36276955307583175,0.3098418350152308,-0.2399262045578624,0.27144581566169795,nan
1740446811.3237808,0.3577865011909773,0.2778721715382998,-0.21334529091263826,0.268093065673765,nan
1740446811.3276868,0.352304619723822,0.24646202526066782,-0.18648480145732893,0.26420024765878847,nan
1740446811.3315935,0.3462509939239629,0.2158653888738439,-0.1594987447149484,0.2596760183706344,nan
1740446811.3354995,0.3395567806911872,0.18632744266305667,-0.13254467594079392,0.25443378639842135,nan
1740446811.3394055,0.3321584282521453,0.15808259042045456,-0.10578265707960097,0.2483930695949356,nan
1740446811.3433113,0.32399884933281264,0.13135259637251154,-0.0793741859942446,0.24148079696300298,nan
1740446811.3472173,0.3150285332279397,0.10634483990612294,-0.053481103947042856,0.23363253922066193,nan
1740446811.3511233,0.30520658274016793,0.08325070378332655,-0.028264490495431813,0.22479365295716627,nan
1740446811.3550293,0.29450166269093153,0.06224411028818839,-0.003883555060010324,0.21492032415156434,nan
1740446811.358935,0.28289284758585004,0.04348021836269058,0.019505465565813385,0.20398049784563665,nan
1740446811.3628411,0.27037035704030266,0.027094293274596983,0.041750394568580866,0.19195468193287932,nan
1740446811.3667471,0.25693616872599667,0.013200758733504256,0.06270417829041436,0.178836614333298,nan
1740446811.3706532,0.24260449987531346,0.0018924396470436351,0.08222591642576782,0.16463378425678013,nan
1740446811.374559,0.22740214976364304,-0.006759998095941585,0.10018185075370638,0.14936779980085044,nan
1740446811.3784683,0.21136869706702993,-0.012708406297276242,0.11644630431127836,0.13307459576597697,nan
1740446811.3823743,0.19455654754786492,-0.015927308972971857,0.1309025633754922,0.115804477286219,nan
1740446811.3862803,0.17703082913894028,-0.01641385206663871,0.14344369514919475,0.09762199664701184,nan
1740446811.390186,0.15886913315922568,-0.01418754964121814,0.1539732946345621,0.07860566247676938,nan
1740446811.394092,0.14016110208562427,-0.00928982977697941,0.1624061548207275,0.058847482335623036,nan
1740446811.397998,0.1210078660060896,-0.0017833853138587976,0.16866885500313167,0.038452341563649434,nan
1740446811.401904,0.10152133157263644,0.008248663561834981,0.17270026278437686,0.01753722307275388,nan
1740446811.4058099,0.08182332894008079,0.020703786090714126,0.17445194607274678,-0.003769725448314266,nan
1740446811.409716,0.06204462379979818,0.035461226566455915,0.17388849218754363,-0.025330268716800716,nan
1740446811.413622,0.04232380317988153,0.052383346697058596,0.17098773199235368,-0.04699729557258749,nan
1740446811.4175277,0.02280604516692191,0.07131711108978238,0.16574086780067343,-0.0686161538117623,nan
1740446811.4214337,0.0036417840937805848,0.09209570088643311,0.1581525046250115,-0.09002609526714293,nan
1740446811.4253428,-0.015014715983113235,0.11454023935910455,0.14824058516306338,-0.11106181693815084,nan
1740446811.4292488,-0.033006865538551144,0.13846161221754394,0.1360362297251183,-0.13155508278525685,nan
1740446811.4331548,-0.05017731656977706,0.16366236448867824,0.12158348309802197,-0.1513364097710166,nan
1740446811.4370608,-0.0663695764604686,0.189938655115639,0.10493897110567973,-0.17023680086228632,nan
1740446811.4409666,-0.08142965214540569,0.2170822498951811,0.08617147035730409,-0.18808950701694524,nan
1740446811.4448726,-0.09520770746375694,0.24488253303438956,0.06536139536595523,-0.20473179967185293,nan
1740446811.4487786,-0.10755971622427121,0.2731285174636099,0.04260020786535379,-0.220006734933397,nan
1740446811.4526846,-0.11834909332175883,0.30161083409460204,0.017989753746951265,-0.23376489055262978,nan
1740446811.4565904,-0.12744828624441176,0.33012368046075774,-0.008358466423082904,-0.2458660568462998,nan
1740446811.4604964,-0.13474030949737945,0.3584667096179761,-0.03632408687046606,-0.25618086300363563,nan
1740446811.4644024,-0.1401202048392037,0.3864468408163877,-0.06577871921397101,-0.2645923206952407,nan
1740446811.4683082,-0.14349641078191286,0.4138799742688118,-0.09658684100723423,-0.2709972675712995,nan
1740446811.4722168,-0.14479202553869866,0.4405925933339692,-0.12860672275216115,-0.2753076940960369,nan
1740446811.4761229,-0.14394594850895231,0.4664232385915582,-0.16169138571125496,-0.2774519382064739,nan
1740446811.4800289,-0.1409138864612779,0.49122383960133403,-0.19568958271503673,-0.27737573349655653,nan
1740446811.4839346,-0.13566921180117922,0.5148608915965804,-0.23044679410212934,-0.275043098001462,nan
1740446811.4878407,-0.12820366168018119,0.5372164659496047,-0.26580623094310935,-0.27043705217818975,nan
1740446811.4917467,-0.11852786820430818,0.5581890449479149,-0.30160983778363576,-0.263560156332999,nan
1740446811.4956524,-0.10667171161776033,0.577694173217567,-0.3376992872957384,-0.254434859517542,nan
1740446811.4995584,-0.09268449005668039,0.5956649200074211,-0.37391695944590647,-0.24310365378643667,nan
1740446811.5034645,-0.07663490127137267,0.6120521484861218,-0.4101068980716106,-0.22962902966090173,nan
1740446811.5073705,-0.05861083358526249,0.6268245901832641,-0.44611573810023397,-0.21409323065637703,nan
1740446811.5112762,-0.03871896527691338,0.6399687247079051,-0.48179359704190067,-0.1965978067866051,nan
1740446811.5151823,-0.017084173518086995,0.6514884668812919,-0.516994924835369,-0.17726296903147437,nan
1740446811.5190904,0.00615124404338785,0.6614046654063782,-0.5515793066188969,-0.15622674882989854,nan
1740446811.5229964,0.030828530022294336,0.669754419144472,-0.5854122135300196,-0.13364396871073173,nan
1740446811.5269024,0.05677360340858575,0.676590218959535,-0.6183656972036109,-0.10968503218290586,nan
1740446811.5308084,0.08379836224278404,0.6819789249040896,-0.6503190242301677,-0.08453454294963177,nan
1740446811.5347142,0.11170214224997864,0.6860005902389644,-0.6811592474495632,-0.0583897653701622,nan
1740446811.5386202,0.14027331912403437,0.6887471453845448,-0.7107817115830153,-0.03145893984642865,nan
1740446811.5425262,0.16929104055665853,0.6903209563773766,-0.7390904913411587,-0.003959468442048774,nan
1740446811.546432,0.1985270726334934,0.6908332737374046,-0.7659987607822624,0.02388401247004948,nan
1740446811.550338,0.22774774388740301,0.6904025888240617,-0.791429093325429,0.05184165440417227,nan
1740446811.554244,0.2567159691224857,0.6891529157612353,-0.8153136924425995,0.07968049451724775,nan
1740446811.55815,0.2851933341144292,0.6872120178311274,-0.8375945536543358,0.10716660866566073,nan
1740446811.5620558,0.31294222146527373,0.6847095978661921,-0.8582235590318927,0.1340672987316924,nan
1740446811.5659637,0.33972795725368893,0.6817754725994383,-0.8771625059563742,0.16015329262048147,nan
1740446811.5698698,0.3653209576835351,0.6785377511612041,-0.8943830723998774,0.18520093497601786,nan
1740446811.5737755,0.38949885470003703,0.6751210379319008,-0.9098667214687575,0.20899434653239235,nan
1740446811.5776815,0.41204857951875384,0.6716446797738487,-0.9236045483812912,0.23132753010786158,nan
1740446811.5815876,0.4327683831996026,0.6682210772721736,-0.9355970734375696,0.2520064015650362,nan
1740446811.5854936,0.45146977379679043,0.664954079017748,-0.945853984875253,0.270850724599567,nan
1740446811.5893993,0.4679793502233839,0.6619374771691606,-0.9543938357884898,0.2876959289785409,nan
1740446811.5933053,0.4821405137823556,0.6592536215429169,-0.9612436995169045,0.30239479282259135,nan
1740446811.5972114,0.49381503932790644,0.6569721683102808,-0.9664387880859996,0.31481897070459314,nan
1740446811.6011174,0.5028844892234275,0.6551489780362179,-0.9700220383988553,0.3248603507125633,nan
1740446811.6050231,0.5092514546452879,0.6538251762933902,-0.9720436709418192,0.3324322251829236,nan
1740446811.6089292,0.5128406103325235,0.6530263884364016,-0.9725607257746189,0.3374702615383704,nan
1740446811.6128366,0.5135995705874892,0.6527621583440997,-0.9716365805291972,0.33993326154644443,nan
1740446811.6167426,0.5114995361759805,0.6530255590480758,-0.9693404550436278,0.3398036993327139,nan
1740446811.6206486,0.5065357237400191,0.6537930011818212,-0.9657469071100498,0.3370880306172452,nan
1740446811.6245544,0.4987275714040177,0.6550242431267318,-0.9609353236217051,0.331816767874246,nan
1740446811.6284604,0.48811871640558757,0.6566626046186717,-0.9549894111674077,0.324044318420764,nan
1740446811.6323664,0.47477674279517124,0.65863538343298,-0.9479966898460643,0.3138485847986,nan
1740446811.6362724,0.4587926995025138,0.6608544726081191,-0.9400479937635446,0.30133032920092323,nan
1740446811.6401782,0.4402803913405748,0.663217173520237,-0.931236981334058,0.2866123060876452,nan
1740446811.6440842,0.41937544778640246,0.6656071980045257,-0.9216596581431881,0.26983816950745587,nan
1740446811.6479902,0.39623417662112886,0.6678958506559678,-0.9114139147452378,0.25117116397553785,nan
1740446811.6518962,0.3710322117049947,0.6699433804529086,-0.9005990813688368,0.2307926100205587,nan
1740446811.655802,0.34396296628599954,0.6716004889526678,-0.8893155010976558,0.20890019768925383,nan
1740446811.6597092,0.31523590527052864,0.672709980528708,-0.8776641226828982,0.18570610335913532,nan
1740446811.6636152,0.28507465180020447,0.673108538472555,-0.8657461137368703,0.16143494713787265,nan
1740446811.667521,0.2537149452611631,0.6726286092883437,-0.8536624946576291,0.13632160990117095,nan
1740446811.671427,0.2214024694809609,0.6711003761796955,-0.8415137932491036,0.1106089306202864,nan
1740446811.675333,0.18839057132693787,0.6683538015823536,-0.8293997196340522,0.08454530603807946,nan
1740446811.679239,0.1549378911919363,0.6642207176445769,-0.8174188607139586,0.05838221595283735,nan
1740446811.6831448,0.12130592792452206,0.6585369428119182,-0.8056683931147716,0.032371698348013025,nan
1740446811.6870508,0.08775656161880811,0.6511444021428321,-0.7942438132746711,0.006763799351746635,nan
1740446811.6909568,0.05454955831313129,0.6418932286737853,-0.7832386830833485,-0.018195976487189038,nan
1740446811.6948626,0.02194008104881489,0.6306438230721937,-0.7727443892751423,-0.042269189867836995,nan
1740446811.6987686,-0.00982376809604782,0.6172688489653066,-0.7628499146132636,-0.06522693861327493,nan
1740446811.7026746,-0.040503350461327796,0.6016551417137915,-0.753641618781766,-0.08685225227816594,nan
1740446811.7065842,-0.06987181353378231,0.5837055090084059,-0.7452030268273088,-0.10694238452882757,nan
1740446811.7104902,-0.09771631030073254,0.5633404025029044,-0.7376146229652822,-0.12531097910940855,nan
1740446811.7143962,-0.12384009238347965,0.5404994407499094,-0.7309536475849086,-0.14179008622984374,nan
1740446811.718302,-0.1480644551436482,0.5151427649705161,-0.7252938953553212,-0.1562320074751741,nan
1740446811.722208,-0.17023051421972385,0.4872522106523048,-0.7207055124485416,-0.16851094883146675,nan
1740446811.726114,-0.1902007944305968,0.45683227962159145,-0.7172547910543214,-0.17852446313841633,nan
1740446811.73002,-0.20786061366548195,0.4239108990596235,-0.715003959563919,-0.1861946651978276,nan
1740446811.7339258,-0.22311924625055365,0.3885399559126426,-0.7140109670425164,-0.1914692048736888,nan
1740446811.7378318,-0.23591085232533002,0.3507955972642426,-0.7143292608898679,-0.19432198579437585,nan
1740446811.7417378,-0.24619516195798696,0.3107782894757426,-0.7160075569023567,-0.19475361968993557,nan
1740446811.7456439,-0.2539579050580781,0.2686126312354452,-0.7190896012926231,-0.19279160894482902,nan
1740446811.7495496,-0.2592109805861756,0.22444691806866812,-0.7236139245908123,-0.18849025259512095,nan
1740446811.753459,-0.2619923610897811,0.1784524583244331,-0.7296135877392084,-0.18193027372380338,nan
1740446811.757365,-0.26236573118944845,0.13082264314786596,-0.7371159210942676,-0.17321816898247375,nan
1740446811.761271,-0.2604198612737817,0.08177177544573169,-0.7461422574612472,-0.16248528376531976,nan
1740446811.7651768,-0.2562677203111851,0.03153366533148678,-0.7567076607008922,-0.14988661935477288,nan
1740446811.7690828,-0.2500453343243178,-0.019639998028537175,-0.7688206518590763,-0.13559938111989067,nan
1740446811.7729888,-0.24191039967406583,-0.07148148587904726,-0.7824829351728193,-0.11982127955092184,nan
1740446811.7768948,-0.23204066283775068,-0.12370906608571723,-0.7976891266936926,-0.10276859852945638,nan
1740446811.7808006,-0.2206320808157469,-0.17602921936675822,-0.8144264886362896,-0.08467404773647383,nan
1740446811.7847066,-0.20789677863687323,-0.22813901679872886,-0.8326746728993171,-0.06578441846471264,nan
1740446811.7886126,-0.19406082263188637,-0.27972863798456293,-0.8524054775143386,-0.04635806430243364,nan
1740446811.7925184,-0.17936183018324753,-0.33048400758532465,-0.8735826200468538,-0.02666223016959929,nan
1740446811.7964244,-0.16404643851657594,-0.38008952642726956,-0.8961615322012189,-0.00697025499294286,nan
1740446811.8003333,-0.14836765675483354,-0.4282308721188303,-0.9200891800602661,0.012441325116449126,nan
1740446811.8042393,-0.1325821268921229,-0.47459784306286085,-0.9453039145181776,0.031295744988458774,nan
1740446811.8081453,-0.11694732054374694,-0.518887218940504,-0.9717353565375321,0.049319020558528485,nan
1740446811.8120513,-0.10171869927875409,-0.5608056101847968,-0.9993043218754649,0.06624297101392543,nan
1740446811.815957,-0.08714686702871154,-0.6000722686627012,-1.0279227898769443,0.08180822235599754,nan
1740446811.819863,-0.07347474348252295,-0.6364218317493915,-1.0574939208236018,0.09576716159861386,nan
1740446811.823769,-0.060934787514736355,-0.6696069722116517,-1.087912126153077,0.10788681090810265,nan
1740446811.827675,-0.049746299549769765,-0.6994009268187443,-1.119063195626142,0.11795159137689352,nan
1740446811.8315809,-0.040112831335157736,-0.7255998773674153,-1.15082448521714,0.12576594681126158,nan
1740446811.835487,-0.03221973088438026,-0.7480251588383247,-1.1830651691386562,0.13115679889983983,nan
1740446811.839393,-0.02623184935795702,-0.7665252706872809,-1.2156465589855199,0.13397580640761195,nan
1740446811.843299,-0.022291435386782472,-0.7809776688067739,-1.2484224924988134,0.13410140260089234,nan
1740446811.8472073,-0.020516240813415642,-0.7912903174596213,-1.2812397939107383,0.13144058694041957,nan
1740446811.8511133,-0.0209978600470441,-0.7974029824728931,-1.3139388072399274,0.12593044916756135,nan
1740446811.8550193,-0.02380032321051977,-0.7992882491703212,-1.346354003268735,0.11753940623549028,nan
1740446811.8589253,-0.028958961019978677,-0.7969522508965868,-1.3783146602544398,0.10626813508342167,nan
1740446811.862831,-0.03647955689820921,-0.7904350965269048,-1.409645617711064,0.09215018699556891,nan
1740446811.8667371,-0.04633779920325618,-0.7798109880379681,-1.4401681018540056,0.07525227220337112,nan
1740446811.8706431,-0.058479043676899316,-0.7651880220179653,-1.4697006205329302,0.05567420645368903,nan
1740446811.874549,-0.07281839330840453,-0.7467076718888758,-1.4980599246965334,0.033548514449539185,nan
1740446811.878455,-0.0892410997936976,-0.7245439505775474,-1.5250620326438245,0.009039688344349402,nan
1740446811.882361,-0.10760328767647379,-0.698902256375955,-1.5505233125282374,-0.017656897194500695,nan
1740446811.886267,-0.12773299911430636,-0.6700179077479732,-1.5742616178015556,-0.046316408473012785,nan
1740446811.8901727,-0.14943155404902655,-0.6381543758417407,-1.596097469522589,-0.07668630656735544,nan
1740446811.894081,-0.17247521740633817,-0.6036012264251305,-1.6158552787191711,-0.10848841986149725,nan
1740446811.897987,-0.19661716183491618,-0.5666717858488154,-1.6333646012897443,-0.14142132049637698,nan
1740446811.901893,-0.2215897114501531,-0.5277005484292354,-1.6484614172707843,-0.17516298673873246,nan
1740446811.905799,-0.24710684910190078,-0.48704034530542845,-1.6609894256866355,-0.2093737302443839,nan
1740446811.909705,-0.27286696686804734,-0.44505929733300653,-1.6708013456466755,-0.24369936431687655,nan
1740446811.9136107,-0.2985558368146709,-0.4021375769106008,-1.677760213868565,-0.27777458657692283,nan
1740446811.9175167,-0.3238497765857922,-0.35866400576527646,-1.6817406683924618,-0.31122654698860713,nan
1740446811.9214227,-0.34841898211677463,-0.3150325176318447,-1.6826302079159419,-0.3436785699605225,nan
1740446811.9253285,-0.3719309977290923,-0.27163851642651754,-1.6803304159287007,-0.37475399727775033,nan
1740446811.9292345,-0.3940542920822215,-0.22887516192002538,-1.6747581386649943,-0.4040801169453186,nan
1740446811.9331405,-0.41446190695052354,-0.18712961604325654,-1.6658466058245667,-0.431292141654569,nan
1740446811.9370465,-0.4328351445764796,-0.14677928379638153,-1.6535464830430038,-0.45603719953709587,nan
1740446811.9409542,-0.4488672584412311,-0.10818808326932006,-1.6378268452228617,-0.47797829916014645,nan
1740446811.9448602,-0.4622671117011448,-0.07170277950924282,-1.6186760600690862,-0.49679823035305526,nan
1740446811.9487662,-0.4727627672742485,-0.03764941688397913,-1.5961025715073605,-0.5122033624439789,nan
1740446811.9526722,-0.4801049736291217,-0.006329884186252252,-1.5701355731017157,-0.5239273018339516,nan
1740446811.956578,-0.4840705107343698,0.02198135399722119,-1.540825562127076,-0.5317343715421063,nan
1740446811.960484,-0.4844653613693118,0.04704032716236953,-1.5082447655913676,-0.5354228764193925,nan
1740446811.96439,-0.4811276740729174,0.0686363988630587,-1.4724874302372415,-0.5348281191424481,nan
1740446811.968296,-0.4739304854122607,0.08659484727905631,-1.4336699693814914,-0.5298251338555392,nan
1740446811.9722018,-0.46278417097454905,0.10077915879882314,-1.3919309603657992,-0.5203311064142718,nan
1740446811.9761078,-0.44763859651595134,0.11109300924009378,-1.3474309873896984,-0.506307452584725,nan
1740446811.9800138,-0.4284849430207049,0.11748190978752711,-1.3003523255688683,-0.48776152824719027,nan
1740446811.9839199,-0.40535718201742044,0.11993449741921657,-1.2508984632013507,-0.4647479486235346,nan
1740446811.9878273,-0.3783331803453029,0.11848345250053148,-1.1992934604227468,-0.4373694967670901,nan
1740446811.991733,-0.3475354166380086,0.11320602932082428,-1.1457811436797014,-0.4057776049973281,nan
1740446811.995639,-0.31313129507149995,0.1042241886100445,-1.0906241367393115,-0.37017239659944456,nan
1740446811.999545,-0.27533304537682557,0.091704324470642,-1.0341027302701609,-0.33080227891028036,nan
1740446812.003451,-0.23439720171975595,0.07585658166632037,-0.9765135933676768,-0.2879630828439922,nan
1740446812.007357,-0.1906236567654863,0.056933762792909036,-0.918168331741211,-0.24199674793921772,nan
1740446812.011263,-0.1443542910455686,0.035229828486578116,-0.8593918986212116,-0.19328955609861478,nan
1740446812.015169,-0.09597118159245174,0.011077997469038165,-0.8005208657703246,-0.1422699213052439,nan
1740446812.019075,-0.0458943976699797,-0.015151543144253323,-0.7419015632804787,-0.08940574670128097,nan
1740446812.0229807,0.005420604728726665,-0.043054303270745574,-0.6838880980972353,-0.03520136446584226,nan
1740446812.0268867,0.05748597415643147,-0.0721945135267387,-0.6268402624211684,0.019805922106844717,nan
1740446812.0307927,0.10978482160187698,-0.1021084862579617,-0.5711213442824494,0.07504967108668949,nan
1740446812.0346997,0.1617749222621273,-0.13230828982644105,-0.5170958536580385,0.12993848202049596,nan
1740446812.0386057,0.21289273504721784,-0.16228570898702518,-0.46512717849017166,0.18386049326672066,nan
1740446812.0425117,0.2625577104396861,-0.1915164613326239,-0.4155751858602391,0.23618816288044878,nan
1740446812.0464177,0.3101768543246853,-0.21946463716403977,-0.36879378436404747,0.2862832963754681,nan
1740446812.0503235,0.35514951264936484,-0.2455873277734176,-0.32512846441421417,0.3335022819773363,nan
1740446812.0542295,0.39687233929030524,-0.26933940504295334,-0.2849138337550531,0.37720149158394756,nan
1740446812.0581355,0.43474440732991065,-0.2901784134735154,-0.2484711659078899,0.41674280359276306,nan
1740446812.0620415,0.4681724220893688,-0.30756953428953293,-0.216105979564127,0.4514992020583997,nan
1740446812.0659473,0.49657599275679776,-0.32099058013266374,-0.18810566710470641,0.4808604053292421,nan
1740446812.0698533,0.5193929183014148,-0.32993697807020933,-0.1647371904439633,0.5042384763926385,nan
1740446812.0737593,0.5360844425917317,-0.3339266982148678,-0.14624486227052363,0.5210733666470087,nan
1740446812.0776653,0.5461404332485018,-0.33250508518711924,-0.13284823048639824,0.5308383447243461,nan
1740446812.0815718,0.5490844387685501,-0.3252495499539098,-0.12474008322743312,0.5330452623129059,nan
1740446812.0854778,0.5444785788575827,-0.3117740802479242,-0.12208459128478368,0.5272496096785053,nan
1740446812.0893838,0.5319282237087448,-0.29173352880778386,-0.12501560404031825,0.5130553147511059,nan
1740446812.0932899,0.5110864191559438,-0.26482764007508774,-0.133635114182245,0.4901192412249145,nan
1740446812.0971956,0.4816580162099399,-0.23080477773013042,-0.1480119054855718,0.45815534310491784,nan
1740446812.1011016,0.44340346544074744,-0.1894653175321858,-0.16818039683108627,0.416938435506889,nan
1740446812.1050076,0.39614223898827283,-0.14066467233702531,-0.1941396944035585,0.3663075442641483,nan
1740446812.1089137,0.33975584564745925,-0.08431591887579512,-0.22585286266297105,0.30616879999193225,nan
1740446812.1128194,0.2741904074642848,-0.020391998874348775,-0.2632464232310988,0.23649784568527019,nan
1740446812.1167254,0.19945876957168354,0.051072529652820955,-0.30621008928999355,0.15734173065159332,nan
1740446812.1206315,0.11564211856377538,0.12998021161085513,-0.3545967414600463,0.06882026757516534,nan
1740446812.1245375,0.022891088524078732,0.2161699015169175,-0.408222649425398,-0.02887316625580498,nan
1740446812.1284466,-0.07857366214231119,0.30941647078798273,-0.46686794181635516,-0.13547139809149195,nan
1740446812.1323526,-0.18846141570448124,0.4094310247208339,-0.5302773250555277,-0.2506338091610202,nan
1740446812.1362586,-0.3064119101942967,0.5158616341360084,-0.5981610500406593,-0.3739472696089095,nan
1740446812.1401646,-0.4319964083733572,0.628294582456145,-0.6701961236869755,-0.5049276593059839,nan
1740446812.1440704,-0.5647193198098922,0.7462561247470119,-0.7460277604999414,-0.6430219700473417,nan
1740446812.1479764,-0.70402037070723,0.8692147510022318,-0.8252710675106061,-0.7876109797786336,nan
1740446812.1518824,-0.8492773115388272,0.9965839417363649,-0.9075129540949667,-0.9380124846572147,nan
1740446812.1557882,-0.9998091480008666,1.1277253998016448,-0.9923142564310381,-1.0934850699984588,nan
1740446812.1596942,-1.1548798763315098,1.2619527382967763,-1.0792120646370802,-1.2532323965212662,nan
1740446812.1636002,-1.3137026997047767,1.39853560052675,-1.1677222389960893,-1.4164079738310367,nan
1740446812.1675062,-1.4754446982248846,1.5367041842344484,-1.2573421001190754,-1.5821203888027549,nan
1740446812.171412,-1.6392319210604227,1.6756541387905124,-1.3475532764460951,-1.7494389524892233,nan
1740446812.175321,-1.8041548655025275,1.8145518007284889,-1.4378246911420915,-1.917399725416045,nan
1740446812.179227,-1.969274304240709,1.952539729976735,-1.5276156692261398,-2.0850118776696385,nan
1740446812.183133,-2.133627418955753,2.0887425063940404,-1.6163791446885265,-2.2512643370687813,nan
1740446812.187039,-2.296234195460191,2.2222727437868697,-1.7035649464101712,-2.415132675962661,nan
1740446812.190945,-2.4561040330996566,2.3522372764947272,-1.7886231409118947,-2.5755861848446475,nan
1740446812.194851,-2.6122425189866325,2.4777434718955025,-1.8710074093346438,-2.7315950790335584,nan
1740446812.1987567,-2.7636583158918797,2.5979056208211015,-1.9501784355922476,-2.882137783171626,nan
1740446812.2026627,-2.909370111285481,2.711851356898363,-2.0256072823506917,-3.026208237236146,nan
1740446812.2065687,-3.048413574112531,2.8187280552510345,-2.096778731375792,-3.1628231671710743,nan
1740446812.2104747,-3.179848265417856,2.9177091608221013,-2.1631945648569215,-3.2910292631230558,nan
1740446812.2143805,-3.3027644489064496,3.008000396805181,-2.224376764558692,-3.4099102086171302,nan
1740446812.2182865,-3.4162897479436283,3.088845804308674,-2.279870606074755,-3.518593504829651,nan
1740446812.2221951,-3.5195955963602477,3.159533565413299,-2.329247626055855,-3.616257035405431,nan
1740446812.226101,-3.61190343172849,3.2194015632153667,-2.3721084410545585,-3.702135319013737,nan
1740446812.230007,-3.692490581503685,3.267842634264099,-2.408085397566537,-3.77552539903092,nan
1740446812.233913,-3.7606957945748696,3.3043094709878584,-2.4368450339466587,-3.8357923223594166,nan
1740446812.237819,-3.8159243733150907,3.3283191342441496,-2.4580903361295707,-3.882374162423422,nan
1740446812.2417247,-3.857652864151766,3.3394571390019436,-2.471562770480068,-3.914786544796444,nan
1740446812.2456307,-3.8854332679650954,3.3373810793491323,-2.4770440786279178,-3.93262663768821,nan
1740446812.2495368,-3.898896735241827,3.3218237624875004,-2.4743578207937484,-3.935576573617197,nan
1740446812.2534428,-3.897756714833854,3.2925958251042506,-2.4633706558745376,-3.9234062729871906,nan
1740446812.2573485,-3.881811529364094,3.2495878094627892,-2.443993348415849,-3.8959756449356724,nan
1740446812.2612545,-3.850946354751567,3.1927716807038915,-2.41618149453899,-3.8532361456900763,nan
1740446812.2651606,-3.805134585957466,3.1222017711577044,-2.379935960899828,-3.7952316797149575,nan
1740446812.2690687,-3.7444385758456593,3.038015141901911,-2.3353030328164137,-3.7220988341166166,nan
1740446812.2729747,-3.6690097389652814,2.9404313563255116,-2.282374269798933,-3.634066442048884,nan
1740446812.2768807,-3.5790880170586137,2.829751665033725,-2.2212860688313314,-3.531454476190053,nan
1740446812.2807865,-3.4750007081331216,2.7063576060199606,-2.1522189378727883,-3.414672278692246,nan
1740446812.2846925,-3.3571606659699365,2.570709028597669,-2.0753964841521597,-3.2842161392953937,nan
1740446812.2885985,-3.226063881930344,2.423341554090628,-1.9910841239032906,-3.1406662385047146,nan
1740446812.2925045,-3.0822864658251707,2.2648634906875684,-1.899587522217029,-2.984682977808603,nan
1740446812.2964103,-2.92648104738807,2.0959522241397277,-1.8012507736509733,-2.8170027238207895,nan
1740446812.3003163,-2.759372624502635,1.9173501100825883,-1.6964543361248539,-2.6384329979248373,nan
1740446812.3042223,-2.581753888736159,1.7298598976620037,-1.585612732423031,-2.449847147440965,nan
1740446812.3081284,-2.3944800628927423,1.534339717807919,-1.4691720353115871,-2.252178538487169,nan
1740446812.3120341,-2.1984632891802014,1.3316976728958763,-1.3476071538426821,-2.0464143145336444,nan
1740446812.315942,-1.9946666101563346,1.1228860676395853,-1.2214189398506372,-1.833588768119124,nan
1740446812.319848,-1.784097587850261,0.9088953238415501,-1.0911311349314468,-1.6147763762806322,nan
1740446812.3237538,-1.5678016093168312,0.6907476240704504,-0.9572871793298111,-1.391084552918308,nan
1740446812.3276598,-1.3468549293522212,0.46949033141377344,-0.8204469051264749,-1.1636461735516967,nan
1740446812.3315659,-1.122357503156162,0.2461892341553348,-0.6811831369160434,-0.933611929704597,nan
1740446812.3354719,-0.895425663353544,0.021921665536221515,-0.5400782237853887,-0.7021425714670343,nan
1740446812.3393776,-0.6671846969717927,-0.20223045033594272,-0.39772052684036324,-0.47040109761442506,nan
1740446812.3432837,-0.43876137870065357,-0.42518757486755054,-0.2547008867808027,-0.23954495300856135,nan
1740446812.3471897,-0.21127651703190084,-0.6458795020034553,-0.11160909608863595,-0.010718292860051838,nan
1740446812.3510957,0.014162430313987392,-0.8632522245781152,0.03096959972854705,0.2149556272012406,nan
1740446812.3550014,0.23646861591712184,-1.076274669414368,0.17245794770487968,0.4363818774166484,nan
1740446812.3589075,0.454582882489963,-1.2839452517313117,0.3122900561529796,0.652501040306978,nan
1740446812.362815,0.667480609905624,-1.4852982009555047,0.44991466359963644,0.8622961030023445,nan
1740446812.366721,0.8741782782948159,-1.6794096119410165,0.584798285794313,1.0647990037850328,nan
1740446812.370627,1.073739698474943,-1.8654031778771931,0.7164282196748124,1.2590967840441125,nan
1740446812.374533,1.2652818637590366,-2.042455563778506,0.8443153843425328,1.4443373001421647,nan
1740446812.3784387,1.4479803803451528,-2.209801382386201,0.9679969804155636,1.6197344533620752,nan
1740446812.3823447,1.6210744369815653,-2.3667377375413583,1.0870389505806184,1.7845729001038932,nan
1740446812.3862507,1.7838712784095592,-2.512628303586094,1.2010382257422685,1.9382122088039155,nan
1740446812.3901567,1.9357501511713415,-2.646906913084044,1.3096247428571932,2.080090434613506,nan
1740446812.3940625,2.0761656947006473,-2.769080629091711,1.4124632223282283,2.209727087664755,nan
1740446812.3979685,2.2046507551511425,-2.8787322823251817,1.509254694703196,2.3267254757229177,nan
1740446812.4018745,2.320818604124017,-2.9755224578179322,1.5997377683615592,2.430774407139253,nan
1740446812.4057803,2.424364549291418,-3.059190920019109,1.6836896318620054,2.5216492452289994,nan
1740446812.4096875,2.515066928835401,-3.1295574697016972,1.7609267866499905,2.5992123104633404,nan
1740446812.4135935,2.592787486591422,-3.186522230499538,1.8313055078696354,2.6634126321368563,nan
1740446812.4174993,2.657471129759016,-3.230065367334547,1.8947220330726597,2.7142850564084977,nan
1740446812.4214053,2.7091450759783813,-3.2602462433940325,1.9511124806518383,2.7519487227703516,nan
1740446812.4253113,2.7479174014286776,-3.2772020266367967,2.0004525018314676,2.776604926031152,nan
1740446812.4292173,2.7739750063413684,-3.281145761010359,2.0427566720066435,2.7885343857683584,nan
1740446812.433123,2.7875810189002785,-3.272363921616302,2.0780776291212293,2.7880939498631085,nan
1740446812.4370291,2.7890716628814456,-3.251213476933555,2.10650496859646,2.775712763147789,nan
1740446812.4409351,2.7788526185337883,-3.218118484869676,2.128163906053794,2.7518879363297613,nan
1740446812.4448411,2.7573949100824273,-3.173566252828606,2.14321372070379,2.717179754173101,nan
1740446812.448747,2.725230356818153,-3.118103095133524,2.151845993784798,2.6722064653919926,nan
1740446812.452653,2.682946627990417,-3.052329724000574,2.1542826578198535,2.617638699806464,nan
1740446812.4565597,2.6311819446210327,-2.976896312801901,2.1507738737071307,2.554193561009151,nan
1740446812.4604657,2.5706194738787915,-2.8924972725655067,2.1415957537594177,2.4826284450692375,nan
1740446812.4643714,2.5019814637817928,-2.799865784518908,2.12704794975387,2.4037346376395896,nan
1740446812.4682775,2.426023167708462,-2.699768132980526,2.1074511258380006,2.318330743221572,nan
1740446812.4721835,2.343526609487513,-2.592997884027264,2.083144336756776,2.2272560012697706,nan
1740446812.4760895,2.2552942406928325,-2.4803699561123627,2.054482332315023,2.1313635442801053,nan
1740446812.4799953,2.1621425421864773,-2.362714629170829,2.0218328092669404,2.031513652998291,nan
1740446812.4839013,2.064895621930624,-2.240871538730768,1.98557363192983,1.9285670634138368,nan
1740446812.4878073,1.9643788606300285,-2.1156837011505907,1.9460900427527565,1.823378379274406,nan
1740446812.4917133,1.8614126558768902,-1.987991615331177,1.9037718838350766,1.7167896424769693,nan
1740446812.495619,1.75680631416011,-1.8586274851177358,1.8590108499881643,1.6096241118802894,nan
1740446812.499525,1.6513521383845684,-1.728409605121256,1.8121977933712474,1.5026802988559602,nan
1740446812.5034344,1.5458197564404494,-1.5981369508692191,1.7637200990152873,1.3967263052741963,nan
1740446812.5073404,1.4409507338884076,-1.4685840120581743,1.7139591496849318,1.2924945066308973,nan
1740446812.5112464,1.337453511006998,-1.3404959052473102,1.6632878975263987,1.1906766196922303,nan
1740446812.5151522,1.23599870131097,-1.2145837996257185,1.6120685588186237,1.0919191903931214,nan
1740446812.5190582,1.1372147852217498,-1.0915206865317983,1.5606504468969282,0.9968195338100371,nan
1740446812.5229642,1.0416842288863029,-0.9719375202284538,1.509367956964618,0.9059221538720623,nan
1740446812.5268703,0.9499400542311826,-0.8564197540713434,1.4585387150608211,0.8197156661152083,nan
1740446812.530776,0.8624628822401771,-0.74550429267965,1.4084619019258073,0.7386302422622527,nan
1740446812.534682,0.7796784671935804,-0.6396768770612626,1.3594167609117096,0.6630355907647948,nan
1740446812.538588,0.7019557352424445,-0.5393699158890309,1.3116612974413184,0.5932394827168216,nan
1740446812.542494,0.6296053362510903,-0.444960772304778,1.2654311758348507,0.5294868277816914,nan
1740446812.5463998,0.5628787133647427,-0.35677051177624997,1.2209388176192042,0.4719593000090784,nan
1740446812.550309,0.5019676902856335,-0.27506311268209016,1.1783727037207279,0.4207755086965294,nan
1740446812.5542147,0.44700457180924436,-0.2000451374841558,1.1378968812358858,0.3759917048130533,nan
1740446812.5581207,0.39806274882093307,-0.13186585859721398,1.0996506737886707,0.33760300898947626,nan
1740446812.5620267,0.3551577947193222,-0.07061782941454167,1.0637485928334536,0.3055451427308866,nan
1740446812.5659328,0.3182490361527642,-0.016337887424446404,1.0302804456608008,0.27969664035734826,nan
1740446812.5698385,0.2872415770633507,0.03099142701405631,0.9993116343247442,0.2598815152651191,nan
1740446812.5737445,0.2619887513620978,0.0714400558510658,0.9708836382455134,0.24587235045462666,nan
1740446812.5776505,0.24229497613946557,0.10512823506949537,0.9450146718634082,0.2373937799234614,nan
1740446812.5815566,0.22791897417543702,0.1322239582824454,0.9217005074380945,0.23412632449992107,nan
1740446812.5854623,0.21857733167828927,0.15294012002212565,0.9009154519129484,0.23571054301940958,nan
1740446812.5893683,0.21394835467353351,0.16753136875456814,0.8826134657047612,0.24175145744309764,nan
1740446812.5932744,0.21367618530369004,0.17629070158295373,0.8667294103429205,0.2518232086032705,nan
1740446812.597183,0.2173751375018672,0.17954583423003428,0.853180411075401,0.26547389774653585,nan
1740446812.6010888,0.22463421008042112,0.17765538120633836,0.8418673198867553,0.2822305679448259,nan
1740446812.6049948,0.23502173423974743,0.1710048820679919,0.8326762638398217,0.30160427876137924,nan
1740446812.6089008,0.24809011185745755,0.16000271034139005,0.8254802632606211,0.32309522729725165,nan
1740446812.6128068,0.2633806006672034,0.14507590203971849,0.8201409040362871,0.34619786890235366,nan
1740446812.6167126,0.2804281025781982,0.12666594071961124,0.8165100481890551,0.3704059914086296,nan
1740446812.6206186,0.2987659119162958,0.10522453572891291,0.8144315669239004,0.39521769772323906,nan
1740446812.6245246,0.317930381277383,0.08120942968537812,0.8137430805211374,0.42014025299430297,nan
1740446812.6284306,0.33746546396229943,0.05508027031058595,0.8142776897542973,0.44469475431533684,nan
1740446812.6323364,0.3569270935949452,0.027294580535477432,0.8158656839531393,0.46842058304798256,nan
1740446812.6362424,0.3758873634939184,-0.0016961406918217397,0.8183362113956654,0.4908796022940209,nan
1740446812.6401484,0.39393847065232224,-0.0314501562119242,0.8215188983944834,0.5116600648119888,nan
1740446812.6440566,0.4106963917570442,-0.06153903837867495,0.8252454042338035,0.5303801997234672,nan
1740446812.6479626,0.42580426152197676,-0.09155100021689713,0.8293509000047471,0.5466914496592457,nan
1740446812.6518683,0.43893542669146746,-0.12109398593646054,0.8336754603688701,0.5602813335241213,nan
1740446812.6557744,0.44979615236067233,-0.14979849930836986,0.8380653583423425,0.5708759137771081,nan
1740446812.6596804,0.45812796072705486,-0.1773201511401071,0.8423742543250798,0.5782418509960989,nan
1740446812.6635864,0.4637095859988139,-0.20334190994130188,0.8464642717887214,0.5821880324859469,nan
1740446812.6674922,0.46635853290780677,-0.2275760428197491,0.8502069532727935,0.5825667657593523,nan
1740446812.6713982,0.46593223007156,-0.2497657366639587,0.8534840916074916,0.579274531833042,nan
1740446812.6753042,0.4623287732862331,-0.2696863927238026,0.8561884325718533,0.5722522973996922,nan
1740446812.6792102,0.4554872576745472,-0.2871465907671743,0.8582242464954131,0.5614853890212615,nan
1740446812.683116,0.44538770142473205,-0.3019887220401938,0.8595077676072478,0.5470029365048208,nan
1740446812.687022,0.43205056760392013,-0.31408929326385415,0.8599675012167117,0.5288768965314505,nan
1740446812.69093,0.41553589417856374,-0.323358906834543,0.8595444000631358,0.5072206713774617,nan
1740446812.6948357,0.39594204589276827,-0.3297419252339166,0.8581919123860693,0.4821873411617064,nan
1740446812.6987417,0.3734041050119982,-0.33321583037064123,0.8558759054322671,0.45396753144158597,nan
1740446812.7026477,0.3480919211050022,-0.3337902911495224,0.8525744692204317,0.42278694113416904,nan
1740446812.7065537,0.32020784298371674,-0.33150595497103946,0.8482776064199815,0.3889035586305633,nan
1740446812.7104595,0.2899841586242274,-0.32643298108663243,0.8429868151572213,0.3526045965769835,nan
1740446812.7143655,0.2576802713288269,-0.3186693357544956,0.836714572433127,0.3142031780931956,nan
1740446812.7182715,0.2235796425398049,-0.3083388709415482,0.8294837266147747,0.2740348091696736,nan
1740446812.7221775,0.18798653356248793,-0.29558920988616794,0.8213268081409236,0.23245367361337138,nan
1740446812.7260833,0.1512225799838801,-0.28058946416218705,0.8122852681567697,0.18982878818639962,nan
1740446812.7299893,0.11362323377269334,-0.2635278079587368,0.8024086552592027,0.14654005649323348,nan
1740446812.7338953,0.07553410890844893,-0.24460893610661436,0.7917537408894681,0.10297426071505152,nan
1740446812.7378027,0.03730726690658764,-0.2240514329360584,0.78038360415307,0.05952103046241881,nan
1740446812.7417088,-0.0007025212186145461,-0.20208507934191922,0.7683666869765774,0.016568827821336906,nan
1740446812.7456145,-0.0381415001796837,-0.17894812546129088,0.7557758305282377,-0.0254990128923952,nan
1740446812.7495205,-0.07466060696317986,-0.15488455613938798,0.7426873037355082,-0.06630815307132111,nan
1740446812.7534266,-0.10991906366906035,-0.13014137587772026,0.7291798345305817,-0.10549698910763583,nan
1740446812.7573326,-0.14358785277038605,-0.10496593923271727,0.7153336541483707,-0.142720228287751,nan
1740446812.7612383,-0.17535304238595778,-0.07960335167334157,0.7012295643949293,-0.17765226844155868,nan
1740446812.7651443,-0.20491893091312657,-0.05429396472533692,0.6869480373036634,-0.20999035069083663,nan
1740446812.7690504,-0.23201098239428158,-0.02927098784214663,0.6725683560082615,-0.2394574571029133,nan
1740446812.7729564,-0.256378526266956,-0.004758237864241289,0.6581678049925451,-0.2658049277608662,nan
1740446812.7768621,-0.27779719765086175,0.019031954822441233,0.6438209171362801,-0.2888147746828197,nan
1740446812.7807682,-0.29607109703003426,0.04190066622293167,0.6295987841711029,-0.30830167313112045,nan
1740446812.7846754,-0.3110346510676314,0.06366410959637135,0.6155684363012869,-0.32411461411673403,nan
1740446812.7885811,-0.32255415931637743,0.08415516422735918,0.6017922958397565,-0.33613820529307764,nan
1740446812.7924871,-0.33052901472956076,0.10322469132618492,0.5883277087704064,-0.34429361091391897,nan
1740446812.7963932,-0.3348925891053771,0.12074262858463873,0.575226557183813,-0.34853912506836143,nan
1740446812.8002992,-0.33561277788034855,0.13659885726371787,0.562534954555005,-0.34887037596864606,nan
1740446812.804205,-0.33269220199410593,0.15070383805961046,0.5502930248495519,-0.3453201626196254,nan
1740446812.808111,-0.32616806784679875,0.1629890143616167,0.5385347654682179,-0.33795792870900765,nan
1740446812.812017,-0.3161116896307595,0.17340698385736822,0.527287993080794,-0.3268888819919591,nan
1740446812.815923,-0.3026276815094234,0.18193144173449782,0.5165743704665662,-0.3122527707705707,nan
1740446812.8198287,-0.28585283020938146,0.18855690095224806,0.5064095115814706,-0.2942223322574806,nan
1740446812.8237348,-0.265954661557457,0.19329819719074645,0.4968031612195998,-0.2730014306344556,nan
1740446812.8276408,-0.24312971730684713,0.19618978811034685,0.4877594448376832,-0.2488229054437233,nan
1740446812.8315477,-0.21760156122941568,0.19728485845029273,0.47927718337346636,-0.22194615355700978,nan
1740446812.8354535,-0.18961853588164565,0.19665424424833797,0.47135026721963663,-0.19265447033157984,nan
1740446812.8393595,-0.15945129365825134,0.194385191055675,0.4639680829205911,-0.16125217766350758,nan
1740446812.8432655,-0.1273901277108954,0.19057996244121544,0.45711598564534234,-0.12806156846800015,nan
1740446812.8471715,-0.09374213001320739,0.18535431631438415,0.4507758100610595,-0.09341969863973731,nan
1740446812.8510773,-0.058828205283261215,0.17883586763654538,0.44492641189180354,-0.05767505876055354,nan
1740446812.8549833,-0.022979970619465943,0.17116235693036208,0.43954423219876076,-0.021184158718257587,nan
1740446812.8588893,0.013463428443208168,0.16247984462827775,0.4346038762636274,0.015691941027325237,nan
1740446812.8627954,0.05015855419832993,0.15294085172246827,0.4300786988964936,0.05259111754984643,nan
1740446812.8667011,0.08676093384721138,0.1427024673877189,0.42594138802353076,0.08915365903416089,nan
1740446812.8706071,0.12292830593856871,0.13192444424648825,0.4221645385369134,0.12502569033285854,nan
1740446812.8745131,0.15832382506828557,0.12076730173476169,0.4187212086074607,0.1598625177317211,nan
1740446812.8784225,0.19261919438620687,0.10939045761305997,0.415585450966679,0.19333186118627255,nan
1740446812.8823285,0.22549769638978115,0.09795040705586268,0.4127328120549609,0.2251169436200461,nan
1740446812.8862343,0.2566570936918242,0.08659896795351424,0.4101407924021896,0.254919408485285,nan
1740446812.8901403,0.2858123729181052,0.07548161008368633,0.4077892621499851,0.28246203866109304,nan
1740446812.8940463,0.3126983066038834,0.06473588466684994,0.4056608262351969,0.30749125188281123,nan
1740446812.897952,0.33707180989883634,0.05448996952541972,0.4037411344248176,0.32977935023764315,nan
1740446812.901858,0.3587140710367496,0.04486134363423038,0.40201913211565665,0.3491265038013065,nan
1740446812.905764,0.37743243685790023,0.03595560329690653,0.400487248579774,0.3653624512030918,nan
1740446812.90967,0.393062037164656,0.027865430525547928,0.39914152014012577,0.3783479027650146,nan
1740446812.913576,0.4054671343194168,0.020669722458002044,0.3979816465912433,0.3879756348363482,nan
1740446812.917482,0.4145421872325462,0.014432888836433842,0.397010980027855,0.394171267008438,nan
1740446812.921388,0.4202126217094225,0.009204322712000368,0.39623644610073855,0.3968937170163929,nan
1740446812.925297,0.4224353020025999,0.005018047652571427,0.3956683985743981,0.39613533128364453,nan
1740446812.929203,0.42119870131942416,0.0018925428330559876,0.39532040890600023,0.39192169221217854,nan
1740446812.933109,0.41652277193928583,-0.00016925449971841384,0.3952089933900362,0.3843111064352053,nan
1740446812.9370148,0.4084585184702765,-0.0011797715543949085,0.395353281209493,0.37339378130057743,nan
1740446812.9409208,0.3970872805950283,-0.0011664516930258678,0.3957746274930518,0.35929069981349065,nan
1740446812.9448268,0.3825197343933426,-0.00017124122408638945,0.39649617619079447,0.34215220710806354,nan
1740446812.9487326,0.3648946239592615,0.0017500811208609336,0.3975423782401584,0.3221563242128889,nan
1740446812.9526386,0.34437723752807464,0.004528722872429936,0.3989384710922656,0.2995068074005457,nan
1740446812.9565446,0.3211576446713947,0.008083834063441127,0.4007099261995711,0.27443097374230613,nan
1740446812.9604506,0.2954487132845535,0.012323589090396,0.4028818715231885,0.24717731560568595,nan
1740446812.9643564,0.26748392706063734,0.01714638107573624,0.40547849649707607,0.21801292871507824,nan
1740446812.9682624,0.23751502590205312,0.022442114572273943,0.40852244718223213,0.18722078002806944,nan
1740446812.972171,0.20580949324815348,0.02809358157163709,0.4120342195536633,0.15509684304782434,nan
1740446812.976077,0.17264791558328257,0.03397790506478894,0.41603155898363103,0.12194712928390282,nan
1740446812.9799829,0.13832124042284785,0.03996803386014606,0.4205288740149899,0.08808464538124314,nan
1740446812.9838889,0.10312795984765478,0.04593427199742997,0.4255366724574794,0.053826305953776604,nan
1740446812.9877949,0.06737124716313282,0.05174582590498985,0.43106102768806986,0.019489832382252124,nan
1740446812.9917006,0.031356074497282345,0.057272352435159636,0.437103082795026,-0.014609332235036642,nan
1740446812.9956067,-0.004613660881221707,0.06238549107461254,0.44365859987635115,-0.048161062152224356,nan
1740446812.9995127,-0.0402379740430527,0.0669603639611556,0.45071756138997193,-0.08086351288850091,nan
1740446813.0034187,-0.07522356675703498,0.07087702783995753,0.45826382995912135,-0.11242598173171744,nan
1740446813.0073245,-0.10928651262599758,0.07402186275390842,0.466274872466933,-0.14257163777502072,nan
1740446813.0112305,-0.14215482796124096,0.0762888830764093,0.47472155363470725,-0.1710400958763511,nan
1740446813.0151365,-0.1735709046541854,0.07758095745048069,0.48356800357509383,-0.19758981061706526,nan
1740446813.0190446,-0.20329378282020988,0.07781092528456598,0.4927715630515238,-0.22200026824310928,nan
1740446813.0229506,-0.23110124270957785,0.0769025986602166,0.5022828093663187,-0.24407395668036222,nan
1740446813.0268567,-0.2567916972855099,0.07479163981662681,0.5120456649501118,-0.263638096003309,nan
1740446813.0307624,-0.28018586894033576,0.07142630577710883,0.5219975898432014,-0.28054611417997033,nan
1740446813.0346684,-0.30112823603596695,0.0667680531578978,0.532069858354229,-0.29467885549131767,nan
1740446813.0385745,-0.3194882372923889,0.060791997734117524,0.5421879192623162,-0.3059455117045738,nan
1740446813.0424805,-0.33516122448393965,0.05348722491506949,0.552271838005089,-0.3142842688403023,nan
1740446813.0463862,-0.348069156413618,0.04485694888441261,0.5622368183762542,-0.3196626651857331,nan
1740446813.0502923,-0.35816102969576835,0.03491851977353469,0.5719938003522642,-0.32207765904391056,nan
1740446813.0541983,-0.36541304446204714,0.023703279841670456,0.5814501297874165,-0.32155540754228523,nan
1740446813.058104,-0.3698285056894677,0.01125627121756593,0.590510294869774,-0.31815076062796305,nan
1740446813.06201,-0.37143746340742984,-0.0023642007015221866,0.5990767234255712,-0.311946477122914,nan
1740446813.065918,-0.37029609754847054,-0.017087142612533524,0.607050634405732,-0.30305217237479454,nan
1740446813.069824,-0.3664858556409622,-0.03282958043571872,0.6143329361929863,-0.2916030095924021,nan
1740446813.0737298,-0.36011235387808127,-0.04949738988535603,0.6208251637393373,-0.27775814937494425,nan
1740446813.0776358,-0.35130405431409806,-0.06698624092588193,0.626430445988279,-0.261698974208666,nan
1740446813.0815418,-0.3402107330156496,-0.08518264543571769,0.6310544945603471,-0.24362710679189686,nan
1740446813.0854478,-0.32700175591300495,-0.10396509640045343,0.6346066042899006,-0.2237622429409835,nan
1740446813.0893536,-0.311864180836773,-0.12320528608661784,0.6370006559000585,-0.20233982150769236,nan
1740446813.0932596,-0.29500070577349313,-0.1427693899150618,0.6381561108952866,-0.1796085551885068,nan
1740446813.0971656,-0.27662748471513615,-0.1625194021656591,0.6379989886401198,-0.15582784731495253,nan
1740446813.1010716,-0.25697183360125575,-0.18231450920748365,0.6364628155799333,-0.1312651206714016,nan
1740446813.1049774,-0.23626984974882007,-0.2020124856642946,0.633489536646416,-0.1061930850849139,nan
1740446813.1088834,-0.21476396882641094,-0.22147109879590507,0.6290303790766402,-0.08088697096516982,nan
1740446813.112791,-0.192700483851712,-0.24054950640198527,0.623046659159265,-0.05562175613888401,nan
1740446813.116697,-0.17032705087146244,-0.25910963373456425,0.6155105228026009,-0.030669413222080857,nan
1740446813.1206028,-0.14789020592118216,-0.27701751523611223,0.6064056112941564,-0.006296204407819675,nan
1740446813.1245089,-0.1256329175602563,-0.2941445873968701,0.59572764418597,0.017239950078559614,nan
1740446813.1284149,-0.1037921987409046,-0.31036891964211427,0.583484911889892,0.0396920044822873,nan
1740446813.132321,-0.08259680100397086,-0.3255763709098857,0.5696986712964223,0.060826196725593334,nan
1740446813.1362267,-0.062265013009341674,-0.33966166045341034,0.5544034385333302,0.08042431141300321,nan
1740446813.1401327,-0.04300258421527888,-0.3525293423902599,0.5376471738490177,0.09828577529605259,nan
1740446813.1440387,-0.025000793131934585,-0.3640946746108097,0.5194913545326314,0.11422956562230559,nan
1740446813.1479447,-0.008434678004857478,-0.37428437383985236,0.5000109327598056,0.12809591373859822,nan
1740446813.1518505,0.006538553949202078,-0.3830372499041796,0.47929417627086673,0.13974778842424668,nan
1740446813.1557565,0.019780924511335684,-0.39030471358184643,0.4574423908377286,0.14907214567516477,nan
1740446813.1596637,0.031174877397538995,-0.39605115378144184,0.4345695245471167,0.1559809340217371,nan
1740446813.1635695,0.040624256039144026,-0.4002541812070979,0.4108016550108505,0.16041184691823535,nan
1740446813.1674755,0.04805505827883536,-0.40290473709235775,0.38627636169889396,0.16232881626511503,nan
1740446813.1713815,0.053415962314056264,-0.4040070670180709,0.36114198666716435,0.16172224369272004,nan
1740446813.1752875,0.05667862051920028,-0.40357856125118324,0.33555678800968775,0.1586089688204175,nan
1740446813.1791933,0.05783772009490771,-0.4016494644377232,0.30968799139348885,0.15303197628373333,nan
1740446813.1830993,0.056910811804082535,-0.3982624588398431,0.28371074602458496,0.14505984586853551,nan
1740446813.1870053,0.05393791033733826,-0.3934721266094594,0.2578069923353142,0.13478595258101428,nan
1740446813.1909113,0.04898087208313258,-0.3873442978263798,0.23216424956755594,0.12232742589117727,nan
1740446813.194817,0.042122558238370564,-0.37995529218415713,0.20697433224480039,0.10782387969277266,nan
1740446813.198723,0.033465793262818046,-0.3713910632706117,0.18243200527016762,0.09143592670197875,nan
1740446813.202629,0.02313213063566194,-0.361746255351161,0.15873358805021728,0.07334349305031537,nan
1740446813.2065358,0.011260439696368465,-0.3511231834123809,0.1360755186187874,0.05374395069496433,nan
1740446813.2104418,-0.001994670972446422,-0.3396307479520643,0.11465288921548586,0.03285008695471325,nan
1740446813.2143476,-0.01646457665073374,-0.3273832966035038,0.09465796515460459,0.010887931966521032,nan
1740446813.2182536,-0.0319684877718357,-0.31449944515013534,0.07627869909820084,-0.011905533867037917,nan
1740446813.2221596,-0.04831540995071791,-0.3011008708176601,0.05969725301848465,-0.035284769317011015,nan
1740446813.2260654,-0.0653061923574069,-0.2873110909217324,0.04508854019748893,-0.05899813471125499,nan
1740446813.2299714,-0.08273564330689961,-0.2732542399987813,0.03261879956484638,-0.08279040273743311,nan
1740446813.2338774,-0.10039469141411775,-0.2590538584558648,0.02244421451739963,-0.10640529280332366,nan
1740446813.2377834,-0.11807257035756091,-0.24483170554427616,0.0147095880978892,-0.12958800399885861,nan
1740446813.2416892,-0.13555900520971456,-0.23070660909407087,0.009547086036253203,-0.15208772185583883,nan
1740446813.2455952,-0.1526463784256024,-0.21679336394746543,0.007075058678657764,-0.17366007449479956,nan
1740446813.2495012,-0.1691318539304742,-0.20320169040397645,0.007396952250362359,-0.19406951437875816,nan
1740446813.2534106,-0.18481943830856737,-0.19003526324665243,0.010600319223475457,-0.21309160275311753,nan
1740446813.2573166,-0.1995219588606218,-0.17739082106521523,0.01675593679535226,-0.230515174930219,nan
1740446813.2612224,-0.21306293925922945,-0.1653573646380227,0.025917041634294855,-0.2461443658640903,nan
1740446813.2651284,-0.22527835467774418,-0.1540154520912037,0.03811868812366556,-0.2598004769421969,nan
1740446813.2690344,-0.23601824958771986,-0.14343659743160805,0.05337723634153861,-0.2713236665807646,nan
1740446813.2729404,-0.24514820289767078,-0.13368277786280103,0.07168997495928292,-0.280574449031437,nan
1740446813.2768462,-0.2525506267267572,-0.1248060540532235,0.09303488313824972,-0.28743498777075527,nan
1740446813.2807522,-0.2581258868538779,-0.11684830624633868,0.11737053435874972,-0.2918101719303379,nan
1740446813.2846582,-0.2617932347375192,-0.10984108779815681,0.14463614393996557,-0.2936284664134326,nan
1740446813.288564,-0.26349154294557775,-0.10380559641190815,0.17475176081364854,-0.292842528610793,nan
1740446813.29247,-0.2631798378473978,-0.09875276202735699,0.20761860290925604,-0.2894295869528735,nan
1740446813.296376,-0.26083762548207134,-0.09468344902717604,0.24311953430413594,-0.2833915788930246,nan
1740446813.3002849,-0.25646500860693405,-0.09158876915909486,0.28111968110042307,-0.2747550482844164,nan
1740446813.3041909,-0.25008259502712543,-0.0894505003537476,0.32146718182100736,-0.2635708044684352,nan
1740446813.308097,-0.24173119939040785,-0.08824160545721277,0.3639940669808668,-0.2499133477113387,nan
1740446813.3120027,-0.23147134268024122,-0.08792684380682465,0.40851726139736355,-0.2338800678863269,nan
1740446813.3159087,-0.21938255563454137,-0.08846346757038305,0.4548397017636497,-0.21559022547804216,nan
1740446813.3198147,-0.2055624942378782,-0.08980199385329363,0.5027515610324064,-0.19518372606492698,nan
1740446813.3237207,-0.1901258772624706,-0.0918870427651753,0.5520315702516895,-0.17281970139180483,nan
1740446813.3276265,-0.17320325755066834,-0.09465823093561894,0.6024484276685722,-0.1486749119621455,nan
1740446813.3315325,-0.15493964032206362,-0.09805110938569243,0.6537622841773161,-0.12294198773941038,nan
1740446813.3354385,-0.13549296323693322,-0.1019981342034739,0.705726293543328,-0.0958275250343415,nan
1740446813.3393445,-0.11503245424076697,-0.10642965814325717,0.7580882152882,-0.06755005895626437,nan
1740446813.3432503,-0.0937368843401508,-0.11127493107258654,0.8105920576794149,-0.038337931909727944,nan
1740446813.347159,-0.07179273340797863,-0.11646309713086087,0.8629797479349804,-0.008427079513213063,nan
1740446813.351065,-0.04939228787750421,-0.12192417653855966,0.914992816531072,0.021941244003296136,nan
1740446813.3549707,-0.02673168975345927,-0.1275900202062463,0.9663740823919682,0.05252277840604596,nan
1740446813.3588767,-0.004008956739869276,-0.13339522563509337,1.016869325746842,0.08307258531987835,nan
1740446813.3627827,0.01857800654435068,-0.1392780030719986,1.0662289355573755,0.11334736858497999,nan
1740446813.3666887,0.04083338632001506,-0.14518098147728994,1.114209518652595,0.14310776456239416,nan
1740446813.3705945,0.06256540665867137,-0.1510519445751479,1.1605754580504661,0.17212058027797153,nan
1740446813.3745005,0.08358822646007913,-0.15684448807840212,1.2051004083966812,0.20016095794498703,nan
1740446813.3784065,0.10372376772049917,-0.1625185901015484,1.2475687170054808,0.22701444526373538,nan
1740446813.3823125,0.12280345721362798,-0.16804108778858082,1.2877767596401863,0.25247895195241987,nan
1740446813.3862183,0.1406698646776044,-0.1733860542746828,1.325534180916574,0.27636657420598315,nan
1740446813.3901243,0.15717822173669987,-0.17853507126113888,1.360665030043333,0.2985052701948611,nan
1740446813.3940325,0.1721978070725719,-0.18347739369845195,1.3930087835232032,0.31874037128892724,nan
1740446813.3979385,0.18561318478389727,-0.18821000433046153,1.422421247417676,0.33693591540677625,nan
1740446813.4018445,0.19732528441943561,-0.19273755713853957,1.4487753328185136,0.35297579072894336,nan
1740446813.4057505,0.20725231282226772,-0.19707221002588157,1.4719616992613542,0.36676467995707757,nan
1740446813.4096563,0.21533048966467178,-0.20123334838314444,1.4918892619505166,0.3782287973291834,nan
1740446813.4135623,0.22151460036611845,-0.20524720246432301,1.5084855598295488,0.3873164126936432,nan
