timestamps,TP9,AF7,AF8,TP10,Right AUX
1741086563.738496,0.3667120166307972,0.6913617013799473,0.28393636482860085,0.6954212376239364,nan
1741086563.7424011,1.556414964248715,1.8752026363846006,1.5916697776457303,1.8299421842228711,nan
1741086563.7463064,1.868215658749169,1.9486585167065327,1.93304340322886,1.786428154480276,nan
1741086563.7502117,1.1133930425797247,0.9147248120011684,1.1014285828640868,0.6791317992454086,nan
1741086563.7541168,-0.23908479402949853,-0.5460567947107252,-0.354357056297321,-0.6965381185451827,nan
1741086563.758022,-1.386838275283114,-1.5443369742526252,-1.506250575932769,-1.4636816597383195,nan
1741086563.7619271,-1.7094328515182249,-1.5576312517097624,-1.6683490246831132,-1.2581799322361766,nan
1741086563.7658324,-1.120538132575124,-0.721235588200231,-0.8311103452289884,-0.39426354592893753,nan
1741086563.7697375,-0.04886333964920526,0.337082248969522,0.38100142447337687,0.46275301867388136,nan
1741086563.7736428,0.8876362152055605,0.9638007128722887,1.1737011342600068,0.8106193088807576,nan
1741086563.777548,1.2590977076551575,0.899798955418155,1.1225227343359174,0.6094660943348719,nan
1741086563.7814531,1.010880653743038,0.374406301978176,0.4103072849497936,0.18674734216916458,nan
1741086563.7853684,0.3928832345150434,-0.14637837652023072,-0.3755008566687913,-0.10277589271114067,nan
1741086563.7892735,-0.25474378753872673,-0.3303812152355247,-0.7013695531638932,-0.14948825530623194,nan
1741086563.7931788,-0.6864503999354507,-0.1856135604836595,-0.45139508337826806,-0.09216665082992541,nan
1741086563.797084,-0.8110100139246338,0.023131187814738358,0.05381300678937425,-0.10794854726289137,nan
1741086563.8009892,-0.6511825013559301,0.04106131269133159,0.3587421824437758,-0.21621706889183342,nan
1741086563.8048944,-0.2874543989321027,-0.1583867437452172,0.23796492442434714,-0.2751658866500232,nan
1741086563.8087995,0.16271629782276037,-0.37093167096321505,-0.15473475910474488,-0.15019620764547228,nan
1741086563.8127048,0.5479119051672818,-0.3547225705861192,-0.44457418603959115,0.1255316500680093,nan
1741086563.8166099,0.7148487873164905,-0.04660829021659148,-0.35305922764524983,0.35819119440604413,nan
1741086563.8205152,0.5803181101709434,0.37556912351696703,0.08136372516252617,0.3613880522742788,nan
1741086563.8244205,0.19587282146578483,0.6266694318491735,0.5406941401979541,0.1264948691479167,nan
1741086563.8283255,-0.2577804248777887,0.5290716205903883,0.6766458347332971,-0.16343700200832978,nan
1741086563.8322406,-0.5624203081887865,0.1389721431928685,0.3708022600460762,-0.28920881605467086,nan
1741086563.8361459,-0.5855048520851858,-0.3044066560786888,-0.18652913119876438,-0.17987746056858941,nan
1741086563.840051,-0.3504231266593055,-0.5534436953754114,-0.6412001669364938,0.03716453341236462,nan
1741086563.8439562,-0.007107837013059775,-0.510365362709649,-0.7212332598566054,0.15946142839949906,nan
1741086563.8478613,0.2698201377320126,-0.2585549280575559,-0.4038197920107679,0.09046274378990057,nan
1741086563.8517666,0.3795042991120113,0.03317342686582834,0.09873531052747213,-0.08356263958945603,nan
1741086563.855672,0.3271414671367101,0.2380578385454828,0.4979248761409485,-0.18308482200040102,nan
1741086563.859577,0.18516221880558284,0.32872382254605453,0.6064232885182061,-0.10329600403032635,nan
1741086563.8634822,0.02938763989024192,0.3387431926268265,0.4206038865829454,0.09301495193974059,nan
1741086563.8673873,-0.09845111455728521,0.28872372150182307,0.08114304776771308,0.23697979105663872,nan
1741086563.8712926,-0.18618237175608326,0.158680109791164,-0.23260326385763372,0.2072024656591242,nan
1741086563.8751976,-0.22773546726602123,-0.06727539971365037,-0.3959057562094651,0.03367463596006357,nan
1741086563.8791127,-0.21212241802561613,-0.3352134458603171,-0.37601399610155206,-0.1380801085916315,nan
1741086563.8830178,-0.1338711399417546,-0.5126593946448701,-0.21851529476445256,-0.1823807894030077,nan
1741086563.886923,-0.008549672465790038,-0.46577825701531594,-0.010442746091132493,-0.1000338436895399,nan
1741086563.8908284,0.12623799930648127,-0.16959951639957552,0.15901213516565446,-0.000784538185845566,nan
1741086563.8947334,0.22626466276986237,0.24260277485975276,0.23247054439014717,0.014630485541234696,nan
1741086563.8986387,0.25799343161573407,0.5450850980483208,0.20602005698612613,-0.04418160962036489,nan
1741086563.9025438,0.20585281186914003,0.5638887075921579,0.12571587303901602,-0.07089619087270842,nan
1741086563.906449,0.07318148114624046,0.295295654606045,0.05282908962553146,0.021999136510581812,nan
1741086563.9103544,-0.1121452783391088,-0.09201970496272059,0.01585574821100934,0.1980430047024326,nan
1741086563.9142594,-0.28878588830178703,-0.3745574417732649,-0.012330418928606493,0.30814215913443,nan
1741086563.9181647,-0.3692023573129548,-0.4230795050448306,-0.08471053214561633,0.21756254505739714,nan
1741086563.9220698,-0.2804341722993075,-0.2725930946114285,-0.21404197181088927,-0.06217844282407992,nan
1741086563.9259858,-0.02497462508053528,-0.06744263658243223,-0.3285705333242351,-0.3584396959260625,nan
1741086563.929891,0.2858719933437283,0.06494409692935606,-0.303616490517602,-0.46166613724738836,nan
1741086563.9337962,0.47248865267048884,0.10498679448198185,-0.06406029971718868,-0.2883765573484232,nan
1741086563.9377015,0.39728534378238556,0.12551164246967855,0.31810704622005614,0.05293798015028416,nan
1741086563.9416065,0.07523633578322311,0.19255152082559376,0.6246926359511363,0.3461220729454441,nan
1741086563.9455118,-0.3067764337415537,0.27783151370628606,0.6197641348054976,0.4279793044644892,nan
1741086563.9494169,-0.49878262160381887,0.2684495972746569,0.22930472063170926,0.2921123391962473,nan
1741086563.9533222,-0.36247991400385965,0.0734838117089188,-0.3649767727780368,0.060626142568880645,nan
1741086563.9572275,0.015801140818395832,-0.2629250719795441,-0.8099290123868673,-0.13332843264587282,nan
1741086563.9611325,0.3709365320054138,-0.5491680888907324,-0.8068673163969132,-0.23863334679326492,nan
1741086563.9650378,0.4453044493592925,-0.5655606151342291,-0.32579898282768466,-0.27919197585420913,nan
1741086563.9689429,0.18293428865002212,-0.2358545429928448,0.3533152370836372,-0.2759261305731968,nan
1741086563.9728558,-0.21934902540559964,0.283753382018023,0.815700618982682,-0.19588384416657006,nan
1741086563.976761,-0.4527776495951719,0.6817464307195271,0.7869465121665963,0.006961684664457546,nan
1741086563.9806662,-0.3299400870541711,0.6947247128649743,0.3130700632044952,0.29767699429998684,nan
1741086563.9845715,0.06699959523098441,0.2954115974718257,-0.28292699082933165,0.5214427731757315,nan
1741086563.9884765,0.44137732283563463,-0.2750963610395038,-0.6322131183005244,0.48976696221897825,nan
1741086563.9923818,0.5034935026409865,-0.6622772798782381,-0.5669656743479257,0.14240010448056128,nan
1741086563.9962869,0.191105306702207,-0.6348692227450294,-0.20666120040007951,-0.3552790073971959,nan
1741086564.0001922,-0.28010585545377903,-0.2362000600338816,0.16434029847390647,-0.688400140056664,nan
1741086564.0040975,-0.574991503649027,0.2557112243404518,0.3185541372488211,-0.6112242394021248,nan
1741086564.0080025,-0.4850429736127005,0.5264318246281554,0.232712908188875,-0.14494029980894882,nan
1741086564.0119078,-0.07617257343845059,0.43650891552215815,0.06024977715984551,0.4123173120886613,nan
1741086564.0158129,0.3682825401950758,0.09741853243107386,-0.02653100042710926,0.6894246092622291,nan
1741086564.0197284,0.5577447019041596,-0.23153587809908582,0.017357531539013704,0.511937249010747,nan
1741086564.0236337,0.3948181042299668,-0.33777255321992866,0.09264476030932957,0.028094254332439353,nan
1741086564.027539,0.021726421206539646,-0.19485187360682657,0.06814378324033996,-0.40908870270082986,nan
1741086564.031444,-0.3052615974111957,0.046995970308538464,-0.08584085368361961,-0.5103152343637603,nan
1741086564.0353494,-0.4028913464466728,0.1952785188728207,-0.2615821458041923,-0.2568950388028656,nan
1741086564.0392544,-0.2671333559798612,0.16112556020129495,-0.30400082358700187,0.11199191982569703,nan
1741086564.0431597,-0.0359269531026051,0.007260620225573543,-0.14598209412401372,0.308618724756899,nan
1741086564.047065,0.13747098725216503,-0.12482461644185705,0.12768190262270385,0.22335395852892134,nan
1741086564.05097,0.18884046513549313,-0.13639519531858713,0.3405207042229747,-0.013765203308033767,nan
1741086564.0548754,0.15252988328437947,-0.04076388495551697,0.35666023343149167,-0.17193124851451552,nan
1741086564.0587804,0.09403757434847994,0.06689723995413734,0.17676558823761368,-0.12620274216105962,nan
1741086564.0626857,0.0428965132612755,0.10094308422798819,-0.07448056347201926,0.04788632108656273,nan
1741086564.066601,-0.014279044962271602,0.05430407816485838,-0.24906572411956732,0.16341430573069096,nan
1741086564.0705063,-0.08876114126977165,-0.009925626358243747,-0.2765361040801053,0.10317644593445637,nan
1741086564.0744116,-0.15149580370696308,-0.0274901828170976,-0.18841420728128577,-0.07400634996155679,nan
1741086564.0783167,-0.14817516818531176,0.005483061616818756,-0.06281376293669379,-0.1939304033663981,nan
1741086564.082222,-0.05526559632302294,0.03431737625040846,0.04734861774249355,-0.13359573703103933,nan
1741086564.086127,0.08103803290859318,0.0058428759920976635,0.1363671612611954,0.06106027477571031,nan
1741086564.0900323,0.1685108385059123,-0.07228970140162608,0.20936512611229863,0.21387866638754,nan
1741086564.0939376,0.14162246978559673,-0.13076297113201305,0.23893668017757208,0.17826434583175135,nan
1741086564.0978427,0.020035864864833903,-0.09977735651137437,0.1715275056062236,-0.026762263967396664,nan
1741086564.101748,-0.10232943335975492,0.022123925814410816,-0.013322903160146584,-0.22763456749919328,nan
1741086564.105653,-0.1325254784625568,0.15546836104752748,-0.24825619698263998,-0.24607586041806023,nan
1741086564.1095583,-0.0546726532903881,0.19919898980881579,-0.39288882465872815,-0.05564889754984941,nan
1741086564.1134737,0.059070431590659556,0.11379351367167673,-0.3258857532493578,0.1928460212598537,nan
1741086564.117379,0.1120462293899762,-0.04307171542808229,-0.04848192462479615,0.29891768692559273,nan
1741086564.121284,0.06512593687075899,-0.16056854774333407,0.2893236188262513,0.18071963156589424,nan
1741086564.1251893,-0.03422791328348383,-0.1627011851454568,0.4752269938087415,-0.06142932355020305,nan
1741086564.1290946,-0.09902751492060564,-0.06632748057799172,0.3794692902526338,-0.23721797545562273,nan
1741086564.1329997,-0.0809764799855771,0.0392829326282005,0.0518080825678757,-0.22832354814837647,nan
1741086564.136905,-0.00857050379193536,0.072346895186467,-0.3050105756890117,-0.07716723195930454,nan
1741086564.14081,0.047235810605302686,0.027712913763426748,-0.4696866308696915,0.069660495996455,nan
1741086564.1447153,0.044254387412666435,-0.02503777622502127,-0.34879536747944145,0.10304809038022848,nan
1741086564.1486206,0.0077814215381801985,-0.011921127642278408,-0.03216749924794503,0.044288561705251236,nan
1741086564.1525257,-0.0007492900507145212,0.07049299077309049,0.27645610567939943,0.005877656172108899,nan
1741086564.156431,0.04555394563086437,0.14472507373423285,0.3972999005290584,0.06297549318149478,nan
1741086564.1603463,0.10034644887387618,0.11953040832785634,0.28248345231964705,0.16340899135057885,nan
1741086564.1642513,0.08148707442979718,-0.02234198545992511,0.027273773621156218,0.16890841323304884,nan
1741086564.1681566,-0.04379431750765129,-0.19449839907428038,-0.20801754712175627,-0.004150904561437589,nan
1741086564.1720617,-0.20579511603902909,-0.2669787058307088,-0.300844482555761,-0.27587998231117106,nan
1741086564.175967,-0.2705169971045997,-0.17048975931811403,-0.22641219044330232,-0.43804936115708487,nan
1741086564.179872,-0.14888679591130038,0.04171753431394915,-0.04990295609395619,-0.31959605286431536,nan
1741086564.1837773,0.11276089414746017,0.2287013048336109,0.12626746091544538,0.05360555401374657,nan
1741086564.1876826,0.3454815617371354,0.26800395161388296,0.21880145110928767,0.44828747171817923,nan
1741086564.1915877,0.3764904527078859,0.14747946666447104,0.1957443135109567,0.5863207627950157,nan
1741086564.195493,0.16484446701149633,-0.03179418995562283,0.08050196782043835,0.3567062138700102,nan
1741086564.199398,-0.15689740891406853,-0.1420330176185149,-0.06409930006035507,-0.09393537100430678,nan
1741086564.2033033,-0.3747407607636054,-0.1306623120853522,-0.1642788650779293,-0.46770833660551797,nan
1741086564.2072184,-0.3506066029515127,-0.052131412860099736,-0.16999387860788606,-0.5344786122703069,nan
1741086564.2111237,-0.1214958030020178,-0.00576118291575114,-0.08304566261923058,-0.29013575115593015,nan
1741086564.2150288,0.13729867446900165,-0.03763252605888144,0.0402373895792801,0.06481288777105136,nan
1741086564.218934,0.2527581991236293,-0.09576133568099127,0.12156762748928422,0.2956900564740677,nan
1741086564.222839,0.18317047056429292,-0.08059690021591032,0.11318638953783675,0.30578748981387266,nan
1741086564.2267444,0.03302434131079536,0.05267879618015118,0.03320488521594445,0.17464699420628707,nan
1741086564.2306495,-0.051671901185617715,0.23302719114601386,-0.047539637196614526,0.05026234493750233,nan
1741086564.2345548,-0.013695993387942485,0.3150881504005103,-0.06242075092108394,0.006645431853731185,nan
1741086564.23846,0.07165823405047135,0.1969134863986295,-0.005878370220166693,-0.0038280617970696774,nan
1741086564.2423651,0.07461075657748312,-0.08244887643794119,0.05966186571662729,-0.07080368064130713,nan
1741086564.2462704,-0.05992687933313487,-0.3521339460815672,0.05804453221226305,-0.20649681536162495,nan
1741086564.2501755,-0.24710382180360493,-0.427406575090834,-0.028157941594536374,-0.3082115264273684,nan
1741086564.2540905,-0.32164913658003347,-0.24777345477663723,-0.13176295623134415,-0.24491412324602704,nan
1741086564.2579956,-0.17636833665683735,0.07389620942131907,-0.15148191745324197,0.009088564380438733,nan
1741086564.261901,0.13512971743134172,0.33185591507535395,-0.04206845538460362,0.3194882579466706,nan
1741086564.265806,0.419793751714716,0.3755516772225725,0.13344694157214776,0.476430476391567,nan
1741086564.2697113,0.47931595535384136,0.21043861233270067,0.24188421459301723,0.35533728128744024,nan
1741086564.2736166,0.2553062842386761,-0.023262576397375594,0.18549889150545765,0.02085860885547584,nan
1741086564.2775216,-0.12498001446117142,-0.16950504939915229,-0.01058450686699269,-0.3147216322989662,nan
1741086564.281427,-0.4349017207467942,-0.17249744500974454,-0.20724228008648243,-0.44635634325271667,nan
1741086564.285332,-0.4995764190466611,-0.09801542075046792,-0.25734756737787584,-0.3195779078600399,nan
1741086564.2892373,-0.30181643041727346,-0.05181835769333983,-0.12527547761897387,-0.0515985477415051,nan
1741086564.2931423,0.02497631441210682,-0.0738717364970994,0.08119912188933083,0.17549297664196334,nan
1741086564.2970476,0.2973643395204612,-0.10380311464583723,0.19811553352139008,0.2521041064922673,nan
1741086564.3009634,0.3946128683906898,-0.047069284758375816,0.1418751279959726,0.1976412176658434,nan
1741086564.3048687,0.30896761711867715,0.11946606027427785,-0.020666684016923103,0.10506588556494342,nan
1741086564.3087738,0.11767506715268951,0.3009009438974341,-0.13157967825880065,0.040759323274846014,nan
1741086564.312679,-0.08201527473821581,0.34592048141526277,-0.08310362286525462,-0.0038867302826564565,nan
1741086564.3165843,-0.22144180153524612,0.1720408893094188,0.08117430837250783,-0.07286003027241483,nan
1741086564.3204894,-0.2707451210876557,-0.14915938136394183,0.19783317271800147,-0.16969806719748629,nan
1741086564.3243947,-0.22695042921456882,-0.4234045409059392,0.1276950232519106,-0.22992093662014476,nan
1741086564.3282998,-0.1064187593389008,-0.4658915692348094,-0.10920399720040291,-0.1751530725643117,nan
1741086564.332205,0.051678438889753674,-0.23607053842167733,-0.3298020213734645,0.0014509031179063038,nan
1741086564.3361104,0.18696479942346275,0.1282187176734312,-0.3304335114961604,0.20445453912191736,nan
1741086564.3400154,0.2399796734722564,0.4040308756878349,-0.06342375253371553,0.29856065181611247,nan
1741086564.3439207,0.18700415670368326,0.43426244353104904,0.302175422424916,0.21576855815231563,nan
1741086564.3478363,0.05967266638446312,0.2259089594477924,0.49685753891950796,0.01374483899091931,nan
1741086564.3517416,-0.0720436873246947,-0.07021329748382375,0.35904401309508266,-0.16809033072056723,nan
1741086564.3556468,-0.14494718692751624,-0.2733662661577178,-0.030906165026257017,-0.218410715391767,nan
1741086564.359552,-0.14149378604622753,-0.2908689042968199,-0.4031896612428482,-0.1354211693827657,nan
1741086564.3634572,-0.09190673762180597,-0.15870583071076164,-0.500542744123558,-0.012298853126504496,nan
1741086564.3673623,-0.04045193141912824,0.009763692751908434,-0.27077738129028084,0.054154733706488926,nan
1741086564.3712676,-0.007580528800971186,0.11369761001583471,0.10216608429542705,0.04527208803764816,nan
1741086564.3751729,0.0186911501722945,0.12285851469669634,0.3496205426883857,0.019874177200116968,nan
1741086564.379078,0.05770314794086231,0.07209195219720144,0.32598080987992595,0.03878735599861178,nan
1741086564.3829832,0.10511083682426572,0.014879051676150997,0.10530225085853923,0.09325520753987862,nan
1741086564.3868883,0.12863164026584462,-0.017149660048330313,-0.10397036912145977,0.11063641603573192,nan
1741086564.3907936,0.09644766947648628,-0.021288501385440292,-0.14456572456891895,0.033706511847780264,nan
1741086564.394709,0.011184724265172846,-0.007050556492038069,-0.035355240004719166,-0.10555701361961459,nan
1741086564.3986144,-0.0846070359404515,0.016873734387290007,0.06658890118015799,-0.19689882523409605,nan
1741086564.4025195,-0.13913822516823135,0.03894800841086651,0.025445092487799272,-0.1475680634307375,nan
1741086564.4064248,-0.13099858331201017,0.03763048182418276,-0.1383749674280774,0.022507775317341244,nan
1741086564.4103298,-0.08107087383499592,-0.008627346355337703,-0.2599115567027353,0.1807705292388551,nan
1741086564.414235,-0.026395691762924913,-0.09426274679228097,-0.17986856460935519,0.18973714477599937,nan
1741086564.4181402,0.01694450145143186,-0.1693367904753342,0.09838740717678898,0.03274052317429112,nan
1741086564.4220455,0.06320434768925347,-0.16090891405370014,0.3864821635064409,-0.15838604560865086,nan
1741086564.4259508,0.1274512335393793,-0.030065046702373026,0.4514577978820656,-0.20945012552402936,nan
1741086564.4298558,0.18775681238945796,0.1776517064783589,0.20714719648420074,-0.058958949269118315,nan
1741086564.4337611,0.18411722775256076,0.3385526622104104,-0.20252260192913835,0.17519066697538185,nan
1741086564.4376662,0.0677139416551835,0.3255784529684611,-0.5011886790958856,0.2855260421217701,nan
1741086564.4415817,-0.13758969452714356,0.10528746105497001,-0.4841251690070929,0.1532291918009612,nan
1741086564.445487,-0.32250479214472066,-0.21764836172605317,-0.16825877511354204,-0.13770484411567377,nan
1741086564.449392,-0.3557929238431913,-0.45263304057857195,0.22692531306271904,-0.3562679149368435,nan
1741086564.4532974,-0.1847636717126218,-0.44511206431626243,0.4462141079346589,-0.31249454490342277,nan
1741086564.4572024,0.10816656434167284,-0.18440339109808065,0.37832710921921253,-0.021871190319500838,nan
1741086564.4611077,0.34836469914160784,0.18210972830187852,0.11328704486815981,0.2969858091138118,nan
1741086564.465013,0.38859373781429335,0.44207569360721954,-0.1513545288022346,0.39625824883811356,nan
1741086564.468918,0.21543345214252196,0.45416890021181866,-0.26499299255394393,0.20188296991780724,nan
1741086564.4728234,-0.04338910944448552,0.23226348719004236,-0.21379102861694207,-0.1256225748809995,nan
1741086564.4767284,-0.21919950897553972,-0.07684554594125134,-0.0900028230735335,-0.3254080561188956,nan
1741086564.4806337,-0.22980059695928085,-0.29855831031210284,0.009585290670617728,-0.2528243746451005,nan
1741086564.4845388,-0.1298087524440567,-0.3389011948207915,0.05735266778777943,0.005242846620342104,nan
1741086564.4884543,-0.04407628702460375,-0.22340237648178554,0.0843381296387169,0.21317695607426104,nan
1741086564.4923594,-0.04496333300567137,-0.052297930734400914,0.1153127933448589,0.19423613232511813,nan
1741086564.4962647,-0.08437986778640408,0.08071179746156117,0.12672132180401843,-0.017483349853233104,nan
1741086564.5001698,-0.04495259310081171,0.14164264675338128,0.07301930337255631,-0.21207688727034082,nan
1741086564.504075,0.13186610516229846,0.1507864619580629,-0.0484407068755311,-0.19413209547435475,nan
1741086564.5079803,0.3577284607882854,0.13938124953751888,-0.16735345570938015,0.038959961431665524,nan
1741086564.5118854,0.44055559838637887,0.11445210659989566,-0.1870813504413333,0.2879592976301146,nan
1741086564.5157907,0.23954896121425023,0.06085119106129598,-0.07281584753675863,0.322145677285021,nan
1741086564.5196958,-0.19131465873331147,-0.02908857990596794,0.10176651719210407,0.0826821329017968,nan
1741086564.523601,-0.6003169791995908,-0.1319828333688304,0.20212669980996642,-0.25745583043804404,nan
1741086564.527506,-0.699169616186967,-0.20029527668199004,0.14287494540379236,-0.4308129956661042,nan
1741086564.5314114,-0.37694604508915536,-0.1938614404141255,-0.033845170732790766,-0.29488806098682596,nan
1741086564.5353267,0.1979795251837749,-0.10839296928501596,-0.18517657632522772,0.05111584694596262,nan
1741086564.539232,0.6757491145216871,0.021687298818046593,-0.18366677368255893,0.3484643789943923,nan
1741086564.543137,0.7595340591510118,0.14478883081609728,-0.026071478647519204,0.387554589719099,nan
1741086564.5470424,0.4073000875139157,0.21791884202272355,0.16019399677863122,0.1673286175153043,nan
1741086564.5509474,-0.14581666992170828,0.21896339511865312,0.22194828168124928,-0.12206085119164076,nan
1741086564.5548527,-0.5566642438219537,0.1454714542953043,0.10857411122640229,-0.26723602150808373,nan
1741086564.5587578,-0.6061015247472293,0.01249562369414079,-0.08625866042118262,-0.20032836208592616,nan
1741086564.562663,-0.32627842904280535,-0.14356060812513333,-0.20557297043265071,-0.029015843432611085,nan
1741086564.5665684,0.05635675122089151,-0.2641961325857875,-0.16236728633708944,0.0827409271870573,nan
1741086564.5704734,0.3011763030899549,-0.2864830962760286,-0.009299834017992102,0.06470258990099614,nan
1741086564.5743787,0.3129221995271191,-0.17974765949496815,0.11478696646315371,-0.01400208366978041,nan
1741086564.5782838,0.1703197050061735,0.022136898106715583,0.1119301737876967,-0.03420688760024503,nan
1741086564.5821989,0.025676652531210965,0.22435330380730056,0.010828507209986307,0.04402645648507344,nan
1741086564.5861042,-0.02633571845671442,0.32043151460856245,-0.0662197601492988,0.13914650081633576,nan
1741086564.5900092,-0.004984164170008134,0.25932266353499067,-0.025039762913178713,0.132082122834409,nan
1741086564.5939145,0.004949297585336049,0.08128174035267455,0.1024877510122016,-0.007034421022626122,nan
1741086564.5978198,-0.05222583218698307,-0.1082669934637618,0.17848050283489658,-0.1750637540040979,nan
1741086564.6017249,-0.1491883149191239,-0.2107136260821324,0.08602259663951504,-0.22275210547660693,nan
1741086564.6056302,-0.20276135489881125,-0.1980053831834028,-0.1481139276868479,-0.09482993738552101,nan
1741086564.6095352,-0.149452194059929,-0.11906303589304602,-0.3504268466893782,0.10903601337415318,nan
1741086564.6134405,-0.0007911117552411157,-0.04649097341314379,-0.33295623339044844,0.21561529118306258,nan
1741086564.6173458,0.1644451624167145,-0.011423873467205713,-0.05659233220176919,0.13321587145007524,nan
1741086564.6212509,0.25717077523980525,0.015701795240702168,0.31405753145188986,-0.060834329173847373,nan
1741086564.6251562,0.2340747798227722,0.08168275340028934,0.5198317895744483,-0.18521494246394124,nan
1741086564.629071,0.11378919897867545,0.18547290296506097,0.40064048307698313,-0.11904699254690033,nan
1741086564.6329763,-0.046349825409165914,0.2559573983169887,0.021072007497314773,0.08203744244838035,nan
1741086564.6368814,-0.18405865556407733,0.2022893487465864,-0.37268957583314355,0.22812451963656072,nan
1741086564.6407866,-0.2521948294767687,0.0006645656887306404,-0.5309659191140499,0.16475940309355935,nan
1741086564.6446917,-0.2252809830200816,-0.25842489179349715,-0.37434477236771435,-0.07919104210814774,nan
1741086564.648597,-0.10614835797311416,-0.41381776476979343,-0.0326247562749676,-0.3022535723608243,nan
1741086564.6525023,0.06450225661303789,-0.34615634133151907,0.269123549322561,-0.29892476445422905,nan
1741086564.6564074,0.21171020834430762,-0.07482382509516333,0.37579969856961454,-0.04304520874416875,nan
1741086564.6603127,0.2585932310289074,0.24143271647026746,0.2882485425998245,0.27643307178212356,nan
1741086564.6642177,0.17647031420471715,0.409268884014159,0.11825197511643429,0.40498269000968695,nan
1741086564.668123,0.014328528434382645,0.3357701630370434,-0.02666010275489759,0.2335248065716969,nan
1741086564.672028,-0.12624221266466384,0.09110235141879304,-0.11923585986858513,-0.10896467124327677,nan
1741086564.675944,-0.16252555147443734,-0.14958947387883315,-0.19140230740120784,-0.36087167024251054,nan
1741086564.6798491,-0.09488466111917643,-0.2391143168539554,-0.2557065091848292,-0.3410847966991688,nan
1741086564.6837544,-0.006083868683894935,-0.161616291828534,-0.26126849702286237,-0.08871021021422873,nan
1741086564.6876597,0.01179014710458427,-0.027247990320768717,-0.1370244757381046,0.18468100238733984,nan
1741086564.6915648,-0.05536549403949717,0.03229651713310137,0.11625551599524447,0.2800991655463921,nan
1741086564.69547,-0.1217236109269737,-0.02201250468188719,0.3798056374973689,0.16799012223901127,nan
1741086564.6993752,-0.07474623889385722,-0.10773315398462348,0.47731575739644505,-0.014549790999243733,nan
1741086564.7032804,0.1114059714605889,-0.10008144265918247,0.3068807103630473,-0.10887843123942925,nan
1741086564.7071855,0.3232837560184432,0.04915311191331292,-0.062475262223787964,-0.07861074632605573,nan
1741086564.7110908,0.3770549247203393,0.2549071695560503,-0.417433068653801,-0.019047168548759905,nan
1741086564.714996,0.16821560895795282,0.355542528208963,-0.5403990093531191,-0.033614650550930505,nan
1741086564.7189012,-0.21745154887878318,0.2405463723244001,-0.3593970519958411,-0.10889883766357927,nan
1741086564.722817,-0.534754816455207,-0.05277822978421098,0.005742505536284075,-0.1211537219145602,nan
1741086564.726722,-0.5467645938918736,-0.35281392288786156,0.33250654777137767,0.02414101567919414,nan
1741086564.7306273,-0.20849612028478365,-0.47011104803962533,0.44721771109109687,0.2581702671345719,nan
1741086564.7345326,0.2796051346616523,-0.32943416197281056,0.3249871957658768,0.36922407749440694,nan
1741086564.7384377,0.6012002712993729,-0.019229598863824332,0.07548513202627952,0.18696163802769603,nan
1741086564.742343,0.5469717423121366,0.2745549554369484,-0.15412175342962303,-0.2269545156816116,nan
1741086564.746248,0.1640634433764984,0.39608492955959107,-0.27213757841719316,-0.572614392161355,nan
1741086564.7501533,-0.2816706395911411,0.31336020865834996,-0.26757979854620617,-0.5330331274802732,nan
1741086564.7540586,-0.5007561799091103,0.1161932025985574,-0.17458230900351596,-0.05639043821282868,nan
1741086564.7579637,-0.38281227038308213,-0.06677601646126242,-0.03134445408785983,0.5489044077829744,nan
1741086564.761869,-0.05625224761760283,-0.15987890374873906,0.12522839580110023,0.8191686022853901,nan
1741086564.765774,0.22938603326624896,-0.17277133198506375,0.2416930950485877,0.5007027432625781,nan
1741086564.7696898,0.29554624692604237,-0.16057545299706968,0.25200951124479193,-0.21950007951159548,nan
1741086564.7735949,0.14991292215840563,-0.15720992160797828,0.12349179928911942,-0.8247769821467222,nan
1741086564.7775002,-0.052605900314458484,-0.1423030485239146,-0.09157761723469081,-0.8559725267409339,nan
1741086564.7814052,-0.15225932579309653,-0.06701213693821406,-0.2611751710320661,-0.274048623817728,nan
1741086564.7853105,-0.10445381945659826,0.08775472777990069,-0.2575035836486883,0.49743430627245067,nan
1741086564.7892156,0.013325263433742598,0.27301813064347813,-0.06455403351446559,0.8936676012790473,nan
1741086564.7931209,0.09292237332785576,0.38779473824735705,0.18569272469469417,0.6420470315033217,nan
1741086564.7970262,0.09051134875197346,0.3407401295158096,0.2979913007546146,-0.037322496614682524,nan
1741086564.8009312,0.042238660271495386,0.11484516542394689,0.16722416877689533,-0.6200145937186392,nan
1741086564.8048365,0.001929042954005673,-0.20846265016398302,-0.12259657745770275,-0.6946834977189321,nan
1741086564.8087416,-0.023654334282335276,-0.48188144404895544,-0.3464949091051955,-0.2691570765269457,nan
1741086564.8126469,-0.07143163882149031,-0.5636336926568638,-0.3100103175820631,0.27277184620961725,nan
1741086564.8165624,-0.155846967785295,-0.3905485386247108,-0.011765093607021998,0.5077796705128977,nan
1741086564.8204675,-0.2163215683819154,-0.017179420541366612,0.3391705406773304,0.3106760967610671,nan
1741086564.8243728,-0.14899275254470432,0.3986365792461081,0.4754349184609059,-0.08176765202190926,nan
1741086564.828278,0.08850102216038425,0.6614725963932713,0.27808178632342256,-0.31055880522550805,nan
1741086564.8321831,0.39317609300071465,0.6307749255509468,-0.12659895836250148,-0.2110125181137279,nan
1741086564.8360884,0.5489657146690547,0.29867014789193996,-0.45918919935034763,0.06965360977050801,nan
1741086564.8399935,0.3778615552274552,-0.19046031998217028,-0.4954949438037264,0.2386930329690589,nan
1741086564.8438988,-0.09838245015479558,-0.6004277379743503,-0.22635695501797032,0.1394359729108893,nan
1741086564.847804,-0.6244531538947956,-0.7228949429878755,0.15209738898697572,-0.11251050472473585,nan
1741086564.8517091,-0.8569392782253843,-0.494076395633688,0.39807980884967376,-0.2545761826705654,nan
1741086564.8556144,-0.5994930889850724,-0.03688307961558089,0.39653069791692763,-0.13680005213923285,nan
1741086564.8595195,0.04251237499328593,0.4050787020082429,0.21010449269436102,0.13151983492955932,nan
1741086564.863435,0.7086308963935292,0.6077267667765608,-0.011443101474109546,0.28555261051550507,nan
1741086564.86734,1.0069582714877403,0.49481475891666965,-0.1635499060193596,0.16088174638119088,nan
1741086564.8712454,0.7613785046112347,0.17177876469129236,-0.2400173242197679,-0.14030230321198758,nan
1741086564.8751507,0.11486854610129112,-0.15536550913737165,-0.2764193377959892,-0.3337613778990738,nan
1741086564.8790557,-0.5714098909425632,-0.3178153659603447,-0.2642946851687305,-0.21687361809415262,nan
1741086564.882961,-0.9413688041593883,-0.2823066067126881,-0.1416302155068019,0.13104231503582922,nan
1741086564.886866,-0.8372337272755453,-0.14575918530173795,0.11991514127207518,0.4035185884480923,nan
1741086564.8907714,-0.35319882656412704,-0.04012196082485898,0.4224104991784711,0.33798241371491583,nan
1741086564.8946764,0.252337524968654,-0.026145187924297746,0.5602394143219861,-0.03824803434094629,nan
1741086564.8985817,0.7038198800564145,-0.05745237524810079,0.3700798736459949,-0.4151032690193096,nan
1741086564.902487,0.8254342097538763,-0.03671857415444516,-0.10268783431914791,-0.46471678235690295,nan
1741086564.906392,0.5894396483555913,0.08754362516664767,-0.5802974239241461,-0.13343682286397845,nan
1741086564.9103074,0.10765452594615313,0.2644946946008744,-0.7275848120262726,0.3024915018106841,nan
1741086564.9142125,-0.41185209916588184,0.37028931256516556,-0.40862222699742795,0.474848472481748,nan
1741086564.9181178,-0.7370887803960144,0.2995376256819802,0.18301626652547204,0.24796758758570103,nan
1741086564.9220228,-0.7098007145975535,0.048077092302342916,0.6449764984978091,-0.16088974693931596,nan
1741086564.925928,-0.33596673341881383,-0.27398141426955447,0.6612463427026559,-0.37804908529722064,nan
1741086564.9298334,0.19220333566671854,-0.5054047874329083,0.24267080263534488,-0.21423756056293636,nan
1741086564.9337385,0.5856735964037529,-0.5260359052605824,-0.28383289815912743,0.15893534674702184,nan
1741086564.9376438,0.6284616696493787,-0.31793135472803247,-0.5339170078242897,0.3637553659079466,nan
1741086564.9415488,0.32101421152694054,0.03405499025727302,-0.3643381270962388,0.17026020444280515,nan
1741086564.9454541,-0.11431247594433487,0.3886840500453514,0.031314197770275096,-0.27180003767864924,nan
1741086564.9493592,-0.38641508520678924,0.6071396151562792,0.3035526286027966,-0.5457439460219148,nan
1741086564.9532645,-0.3435749107896199,0.599058549763714,0.24653098335121754,-0.3413637104520235,nan
1741086564.9571795,-0.07827649684731404,0.3507446638647144,-0.03932204270699903,0.23984696927667387,nan
1741086564.9610848,0.15766897387495432,-0.06255409440756733,-0.25572138340428985,0.7333290210413576,nan
1741086564.96499,0.16377406484839127,-0.48764326299089805,-0.18415137110918994,0.6946645499225632,nan
1741086564.9688952,-0.04342459037364438,-0.740840042080539,0.11509067879632758,0.09484382043448476,nan
1741086564.9728003,-0.24886457824627148,-0.688852924127115,0.35858428123210273,-0.6234409749030491,nan
1741086564.9767056,-0.2294649475881172,-0.32782900478475074,0.29952203838956093,-0.8959927529894685,nan
1741086564.9806106,0.043173172045822855,0.19287318117035218,-0.041634215524240625,-0.5060429734019214,nan
1741086564.984516,0.3638191460497097,0.6334427008942093,-0.3845683735104679,0.23001600564121097,nan
1741086564.9884212,0.4589861086827994,0.7881239752871473,-0.4323135874799399,0.7262502468548269,nan
1741086564.9923263,0.22124200647096787,0.5974729013936548,-0.135902758330195,0.6187629682225715,nan
1741086564.9962316,-0.1881727689101865,0.17488583704906374,0.25691410901172224,0.06249969896093358,nan
1741086565.0001366,-0.4624774968642568,-0.26955794823598067,0.41650058606353774,-0.42316474789178715,nan
1741086565.0040517,-0.4002027808140439,-0.5530160436200083,0.221351129398571,-0.42250587247216853,nan
1741086565.0079567,-0.07225512010910326,-0.6059809391494552,-0.1359004597936279,0.009538997970624423,nan
1741086565.011862,0.2398347577772825,-0.47043652229341054,-0.32418861283353645,0.40884589715418723,nan
1741086565.0157673,0.2853045838885719,-0.2318419556447379,-0.17607922852653363,0.3391258696468534,nan
1741086565.0196724,0.05934113909901483,0.04546375181668104,0.15698884034992688,-0.18789798529072305,nan
1741086565.0235777,-0.19549948340170348,0.32557565861905047,0.34174914241352694,-0.695433341034616,nan
1741086565.0274827,-0.2071010729565031,0.5600376894271308,0.17396592440816755,-0.6594415863654285,nan
1741086565.031388,0.07528474682586304,0.658857381019471,-0.21915193449846843,0.0009470467084583048,nan
1741086565.035293,0.417605701930059,0.5247641368379065,-0.47791032681543005,0.803741632910063,nan
1741086565.0391984,0.48907320668974796,0.138395308975895,-0.33332138403934997,1.0839836582484765,nan
1741086565.0431037,0.1491706012365176,-0.37839704405914076,0.13335488193403527,0.5606884048247684,nan
1741086565.0470088,-0.4095826365807602,-0.7923989506458124,0.5384162506463175,-0.4004818918796414,nan
1741086565.0509257,-0.7905880938068731,-0.8836792740086774,0.5244536965304497,-1.0694636534695963,nan
1741086565.054831,-0.6953328421893764,-0.5848210731437851,0.0843434088280185,-0.9496261102355755,nan
1741086565.058736,-0.15538648881332576,-0.03203781853426199,-0.41569258117765506,-0.1823691153610772,nan
1741086565.0626414,0.49046465420804186,0.5135551219372366,-0.5499734629901959,0.5889205378451123,nan
1741086565.0665464,0.8481798769422884,0.8189341084179119,-0.21380049880784077,0.775223065531033,nan
1741086565.0704517,0.7416454079756827,0.7972702369692704,0.2743840304312646,0.33224167109674413,nan
1741086565.074357,0.297142741673841,0.5163530569776885,0.45584029929148473,-0.24124806206429608,nan
1741086565.078262,-0.1999326874232427,0.11407657397683814,0.15673917797351633,-0.3855478215839646,nan
1741086565.0821674,-0.5269214749561199,-0.29310311037253234,-0.33267416780491543,-0.002135380273255446,nan
1741086565.0860724,-0.6329760044179793,-0.6343644794403502,-0.5087796830572583,0.46125225003759174,nan
1741086565.0899777,-0.5739563757748903,-0.844374663428745,-0.13000247699013304,0.44469941026630544,nan
1741086565.0938828,-0.383116602376266,-0.8302093791849456,0.5148452481945511,-0.1655085515807087,nan
1741086565.0977988,-0.036395382757978885,-0.5096637868989062,0.8197376356405661,-0.8766607010040066,nan
1741086565.101704,0.44624272703257967,0.09301134849873358,0.4044206370429636,-1.001407764713576,nan
1741086565.1056092,0.8868078109841994,0.7834351615282769,-0.4880194601620355,-0.29247340201924354,nan
1741086565.1095142,0.9880915845362784,1.250620086720297,-1.1278249660850745,0.7749506227950045,nan
1741086565.1134195,0.552792184038175,1.2318378135164043,-0.904509842408393,1.3582757753576653,nan
1741086565.1173246,-0.28726773153389207,0.6810472294622323,0.10191854517726207,0.959676000664506,nan
1741086565.12123,-1.064346485825152,-0.18611648763021577,1.110256236530697,-0.12461335686092208,nan
1741086565.1251352,-1.263101333245348,-1.0089818992168973,1.2588002869708488,-1.0325893258575238,nan
1741086565.1290402,-0.713289762070045,-1.4733655605101685,0.36362143165642,-1.0673151481134042,nan
1741086565.1329455,0.23610164786065108,-1.439538227325773,-0.8541934446186986,-0.2965003351409261,nan
1741086565.1368506,0.9420747773060123,-0.9371275326498573,-1.3308027613504672,0.5197054802666965,nan
1741086565.140756,0.9488304212142907,-0.08359364562455951,-0.5864464084004113,0.626650512158099,nan
1741086565.1446714,0.34505784921042626,0.9556186284930898,0.779446065956562,-0.018845338982139737,nan
1741086565.1485767,-0.3113329797380644,1.9170042679162778,1.5180502934286002,-0.6884129841149574,nan
1741086565.1524818,-0.46283126029961935,2.390491545632083,0.8037696243454558,-0.5604875576976109,nan
1741086565.156387,-0.035353203892431954,1.9273043897304936,-0.9396573403736024,0.45197952498719285,nan
1741086565.1602921,0.484289001139006,0.34858647012722144,-2.23378390190231,1.4994234364836585,nan
1741086565.1641974,0.4709558906542093,-1.9234657354528915,-1.7230148935954681,1.4790050396076504,nan
1741086565.1681027,-0.25355015404482806,-3.828600085746455,0.5746036098976823,0.06419308714393819,nan
1741086565.1720078,-1.1805037749417162,-4.123739251304547,3.032652450223094,-1.8365253989811503,nan
1741086565.175913,-1.4685409958200097,-2.175114225144394,3.5454178669557956,-2.687428391736335,nan
1741086565.1798182,-0.6446805776854295,1.4113948565766556,1.2440991762999019,-1.5852775511737132,nan
1741086565.1837234,0.9184782697255195,4.852238579470749,-2.5687996731355214,0.870439834492246,nan
1741086565.1876287,2.1798429262800783,6.08292800075228,-5.144884732447093,2.9009309853312364,nan
1741086565.191544,2.1761915244027334,4.039935128886197,-4.28408392079191,2.905423573592013,nan
1741086565.1954494,0.7740420764071981,-0.4945972213229835,-0.13465148790386455,0.7869979681676998,nan
1741086565.1993544,-1.175371025731789,-5.136820289560188,4.6487768642410625,-1.8753933133339824,nan
1741086565.2032597,-2.4258423650973095,-7.2155927910436395,6.662917392821368,-3.030418353529598,nan
1741086565.2071648,-2.2277085024320424,-5.39834570647559,4.2274777401417385,-1.8065550009312055,nan
1741086565.21107,-0.8335084105193744,-0.5859556782616151,-1.260879385430695,0.7446647028247995,nan
1741086565.2149754,0.7609573390770776,4.5496546590728135,-6.170587692557104,2.4775390263562014,nan
1741086565.2188804,1.6046505401415465,7.141417222776606,-7.140383540628554,1.9254944043790458,nan
1741086565.2227857,1.4584884452694082,5.833007089473053,-3.4560006600441686,-0.4337026925097885,nan
1741086565.2266908,0.8199020310896983,1.536689793230413,2.4314533260276647,-2.512292491267148,nan
1741086565.230596,0.34268476650332913,-3.2108307744613995,6.622365893302107,-2.339667769720289,nan
1741086565.2345014,0.20480464157117334,-5.833450330736518,6.4677876271440615,0.21004750758846474,nan
1741086565.2384167,0.004746305928770124,-5.200194545079712,2.311739318654375,3.15436224024804,nan
1741086565.242322,-0.7201221784590446,-2.1016335580651737,-2.9122737553101703,3.9155656800298586,nan
1741086565.246227,-1.842721707569816,1.469543500131618,-5.830728957892714,1.4556580906977235,nan
1741086565.2501323,-2.515520407009124,3.640599142122595,-4.905097028629825,-2.7008493798337567,nan
1741086565.2540374,-1.7867346155256179,3.680188864972846,-1.239760840247268,-5.466871966528162,nan
1741086565.2579427,0.4840930248804941,2.139915661551002,2.491395199327369,-4.5240861220188044,nan
1741086565.261848,3.2033933654579765,0.20192629975518323,4.036116419652933,-0.1924161797344582,nan
1741086565.265753,4.590096255872921,-1.17642737746739,2.964607216525496,4.653734418075223,nan
1741086565.2696583,3.4046564516645215,-1.71497372101663,0.5863704131130427,6.620642621260925,nan
1741086565.2735634,-0.029683579237751903,-1.6671712810901216,-1.3139164771048708,4.2656242748716435,nan
1741086565.2774687,-3.8355524869461104,-1.3620384982545402,-1.8019992087490913,-0.8553667599903063,nan
1741086565.2813737,-5.713234764621482,-0.8856428937130517,-1.1989220444673014,-5.327477936264741,nan
1741086565.285289,-4.444403978105616,-0.14126499675585685,-0.4497307599551549,-6.309878293165859,nan
1741086565.2891943,-0.7123266336548414,0.8488286619245298,-0.16782027618885775,-3.4385724854501203,nan
1741086565.2930994,3.3370586003605376,1.7463356895297746,-0.20367679837055877,1.1363641341219655,nan
1741086565.2970047,5.468065971385678,2.0345699486289,-0.01009550152656681,4.451797890598525,nan
1741086565.3009098,4.6980313815707975,1.4027001331350366,0.6526942509592315,4.782741302141652,nan
1741086565.304815,1.732273589705195,0.05237217777248807,1.3792808738189666,2.5463500292302697,nan
1741086565.3087204,-1.6818311815045563,-1.351492974288623,1.4604202378219886,-0.41058387181939615,nan
1741086565.3126254,-3.9010931503614086,-2.0797190133953256,0.5699955213493538,-2.347474248161306,nan
1741086565.3165307,-4.21100421369777,-1.7994285074706056,-0.8483069019471328,-2.707879443479002,nan
1741086565.3204358,-2.893039259390805,-0.7586263612475908,-1.8627320194355153,-2.0406349748121224,nan
1741086565.324341,-0.7303885741758372,0.42507036779468704,-1.7735965091916057,-1.1189217873459474,nan
1741086565.328246,1.5073488650989688,1.1898266666615993,-0.6593978411269724,-0.20960188685734302,nan
1741086565.3321612,3.2313351495251843,1.3440790796311344,0.7044414983516792,0.8674628591370411,nan
1741086565.3360665,3.9358857787212616,1.0637397071397285,1.4640512535115555,2.1038357508638392,nan
1741086565.3399718,3.195319598272895,0.634524608880648,1.3085794841987375,2.8799075985369758,nan
1741086565.3438768,0.9562069233428218,0.1946326881841968,0.5935204291949319,2.3182905609792557,nan
1741086565.3477821,-2.0948132910094888,-0.3015444067679768,-0.07677615948690301,0.17596791794729308,nan
1741086565.3516872,-4.5535470066715735,-0.8967349827377773,-0.38590122644913644,-2.5775362000320596,nan
1741086565.3555925,-4.954298187668563,-1.4281083010143272,-0.47672993302639416,-4.17935851769277,nan
1741086565.3594975,-2.7496456369609357,-1.5352742326345992,-0.646750295860996,-3.324301516568772,nan
1741086565.3634028,1.1019295186814235,-0.9193784401518399,-0.9132822916795813,-0.2865367150914691,nan
1741086565.3673081,4.507757730684682,0.34124199064436267,-0.9122077899909267,3.0663022943120652,nan
1741086565.3712132,5.473326345476857,1.6969805217722556,-0.26540106331041,4.5093633330268315,nan
1741086565.3751185,3.4072299939981012,2.3860817162479955,0.9199768882509876,3.0666675010463043,nan
1741086565.3790336,-0.4354600221181079,1.9090564600785447,1.9314997865619308,-0.24830397155412523,nan
1741086565.3829386,-3.740151417336605,0.3966586021319476,1.9170613641373424,-3.1563482653488646,nan
1741086565.386844,-4.636554686551206,-1.4017303028982149,0.608674614055372,-3.7651938958247086,nan
1741086565.390749,-2.8742036528783608,-2.530142152200539,-1.312067173274667,-1.8946695406377945,nan
1741086565.3946543,0.14022340726651794,-2.3844405952533427,-2.586520553973536,0.9109960288768794,nan
1741086565.3985593,2.421178946494918,-1.0620040911432143,-2.2741607453361654,2.6327968319241712,nan
1741086565.4024646,2.7759242420561585,0.7120536452736129,-0.4928766009209751,2.274436752307008,nan
1741086565.40637,1.4808323246504485,2.019542171490156,1.5996675505692435,0.46240304560167655,nan
1741086565.410275,-0.15482459700993417,2.2613316589602266,2.6118658974591114,-1.2282502993368443,nan
1741086565.4141803,-0.9061127622658844,1.440586832626502,1.9164966737228748,-1.5852930854724012,nan
1741086565.4180853,-0.5291389275376369,0.08185646278449238,0.08344471874602372,-0.6295366513122324,nan
1741086565.4219906,0.21931088315867117,-1.1158496276650454,-1.5759304805628258,0.5890285510253976,nan
1741086565.4259064,0.36553467155316754,-1.6546390836406255,-1.9876033779795623,0.9885451135988939,nan
1741086565.4298117,-0.39019093357650453,-1.432405948274071,-1.0602710859192996,0.354167601478338,nan
1741086565.4337168,-1.4094377369134095,-0.694785344134551,0.34969884787506017,-0.5887521332199167,nan
1741086565.437622,-1.6685736729105347,0.16588172524741798,1.1730181459891886,-0.9068643519084032,nan
1741086565.4415274,-0.6523712663281068,0.8151058285554568,0.9468665542743485,-0.3051248530296841,nan
1741086565.4454324,1.1482030236570016,1.081678737182207,0.08154177480730249,0.6464631405845692,nan
1741086565.4493377,2.538661845665523,0.9553508930552942,-0.5819006063300572,1.0605956856783985,nan
1741086565.4532428,2.4909987543070944,0.5329934879315209,-0.5064011040533725,0.5369040671542873,nan
1741086565.457148,0.9128077525722069,-0.030390196148221544,0.1309621557350742,-0.48797267600253935,nan
1741086565.4610534,-1.2601861919557045,-0.5521653894349879,0.6599057287518669,-1.131094756347881,nan
1741086565.4649584,-2.7015485985595236,-0.8560551975884481,0.5373185589917355,-0.8330924234602026,nan
1741086565.4688637,-2.5804986966241956,-0.8274966327143121,-0.17782025338572377,0.16499446825326883,nan
1741086565.4727795,-1.0673346694718253,-0.473448477715115,-0.8856143406071604,1.0354588401759452,nan
1741086565.4766846,0.8562833511581586,0.05785636137527368,-0.9656867293598644,1.0659177476250348,nan
1741086565.4805899,2.0870186107509765,0.5306325995304205,-0.3023786925035607,0.2442237046378569,nan
1741086565.4844952,2.0767613190781544,0.7349757701332518,0.6214269976743854,-0.7551278539699826,nan
1741086565.4884002,1.061258921023578,0.5981819219063625,1.1210736780222657,-1.14423025195349,nan
1741086565.4923055,-0.23005649171506076,0.2229420542211713,0.8521368726258827,-0.6556257049504617,nan
1741086565.4962106,-1.0996082882514606,-0.17664436051447283,0.054350762740261765,0.2818733244780658,nan
1741086565.5001159,-1.2614062340156944,-0.403621221135109,-0.6759875151357322,0.9342861679454124,nan
1741086565.5040212,-0.8736661473625296,-0.3892204261153889,-0.866604541292168,0.8593415831954738,nan
1741086565.5079262,-0.29978285495381396,-0.21526833512148683,-0.500171194123272,0.21189558742503956,nan
1741086565.5118315,0.1679714677192976,-0.03745940540313597,0.048217598839834695,-0.45510462520821504,nan
1741086565.5157366,0.4315240044861051,0.032568125347193805,0.3675379685740737,-0.6744519719550021,nan
1741086565.5196521,0.5318204727560836,0.0009798299234090447,0.3338766940816389,-0.40651404416876813,nan
1741086565.5235574,0.5259160311451321,-0.03017439041944189,0.13961844436091414,0.017709363619087263,nan
1741086565.5274627,0.4201062449254797,0.0393487836260072,0.04765125081035798,0.24333578554484717,nan
1741086565.5313678,0.19693626177393997,0.2114700751775042,0.1246584469722437,0.18929383485137358,nan
1741086565.535273,-0.11776326214763459,0.3715867041095161,0.19961315669602978,0.047698258713863045,nan
1741086565.5391781,-0.425165074409344,0.36770927037701123,0.06787952841722422,0.033368550542674215,nan
1741086565.5430834,-0.5923644030620683,0.13149729487875494,-0.2682492661557179,0.15317236336096876,nan
1741086565.5469887,-0.5293330527174522,-0.24962921070913383,-0.5598617447369305,0.2172336796032886,nan
1741086565.5508938,-0.2472612306364952,-0.568603790514807,-0.519304470057361,0.06286738878934521,nan
1741086565.554799,0.13882524273341282,-0.6253245844592791,-0.09097239096885144,-0.24549982441759485,nan
1741086565.5587041,0.4618425319865426,-0.3593263625097147,0.46285368459096116,-0.44804170523750153,nan
1741086565.5626094,0.579983572069905,0.10309059832893029,0.7492647181914599,-0.3305121888445478,nan
1741086565.566525,0.4436210164897865,0.5207056719404379,0.5539765605084195,0.055634465798498255,nan
1741086565.57043,0.12203413427502213,0.6802409914901647,0.013600266054925729,0.4117939791264447,nan
1741086565.5743353,-0.22600910551308095,0.5162217537718445,-0.49215545403407784,0.4458801352470031,nan
1741086565.5782404,-0.4310612920815455,0.13439714970132974,-0.6353564001373574,0.13430863197462345,nan
1741086565.5821457,-0.4052789554838179,-0.2657203749935593,-0.3771853935597175,-0.25007004739097427,nan
1741086565.5860507,-0.19374538505106592,-0.5083896802291047,0.037917421606350275,-0.37668457165561714,nan
1741086565.589956,0.05504196489999487,-0.522351160005706,0.3059815738955666,-0.15103037333933333,nan
1741086565.5938613,0.18901705255234744,-0.3461525355463912,0.3026667696396462,0.20216394751166505,nan
1741086565.5977664,0.1571395496376514,-0.07688509109362797,0.1406781697631272,0.3440990047472305,nan
1741086565.6016717,0.03999880647206729,0.18755952664138664,0.020466929422989003,0.1319567356032633,nan
1741086565.6055768,-0.022502471580056194,0.3759057485766765,0.02973717563655155,-0.2468060951414276,nan
1741086565.609482,0.046109598251505644,0.4419781941444351,0.07833243447149714,-0.43999710066760583,nan
1741086565.6133974,0.18553783598822873,0.3612945517525661,0.01769551555786596,-0.24960667328929662,nan
1741086565.6173027,0.24193685295904283,0.1445179226856672,-0.18084514006516011,0.18280930462567843,nan
1741086565.6212077,0.10085266503649448,-0.14347679850235523,-0.36763079402153825,0.4936382957851549,nan
1741086565.625113,-0.19727328470673403,-0.3891698858831602,-0.34024312442631716,0.41568266036890184,nan
1741086565.629018,-0.46164358785842924,-0.47691009181527555,-0.042116155402243526,0.014187443149053952,nan
1741086565.6329234,-0.4850962938211513,-0.355702413824356,0.35184380696257017,-0.37076549646630347,nan
1741086565.6368287,-0.20805973809738038,-0.07920361768615806,0.5537131022555554,-0.42446930372181885,nan
1741086565.6407337,0.21963214715190083,0.21681117858817037,0.3944498556478328,-0.13207439367031745,nan
1741086565.644639,0.5351614507316353,0.3911493482468287,-0.027884978080505156,0.2178576063551733,nan
1741086565.648544,0.5475638787502751,0.3776145692960854,-0.41535834089973134,0.30221857848647327,nan
1741086565.6524494,0.2688930722755058,0.21413511848251054,-0.502129484408435,0.06029760465839918,nan
1741086565.6563547,-0.10764922053279308,0.0039635223149606935,-0.2591098512019606,-0.25184971355154784,nan
1741086565.6602697,-0.3587196485644963,-0.1569771438839101,0.09772070946327199,-0.3016016738796849,nan
1741086565.664175,-0.3859312544162219,-0.23063314292954956,0.29680376594145136,0.0019421127304042572,nan
1741086565.66808,-0.25482943194957286,-0.23316195667227427,0.23278334560183256,0.4041527278054671,nan
1741086565.6719854,-0.10158649894667744,-0.19289891642493398,0.0325644345663034,0.5198399181542438,nan
1741086565.6758904,-0.0031276845265901165,-0.11603465689740798,-0.08274696617330986,0.1836947567957335,nan
1741086565.6797957,0.07048618953945691,0.006788591588632332,-0.009741467401555397,-0.37691173239898845,nan
1741086565.683701,0.18582787029511574,0.1629288692561989,0.14367046539567965,-0.7117037026158683,nan
1741086565.687606,0.33549646499324165,0.2927428542331243,0.16695563886798173,-0.5247038813236382,nan
1741086565.6915114,0.4046214569771531,0.3127406534099793,-0.04049040104330411,0.0645218439037422,nan
1741086565.6954165,0.26123355656749875,0.17829612935616082,-0.3478423666224699,0.6063991320683627,nan
1741086565.6993217,-0.10212996438103364,-0.06450590730071376,-0.4817149551995676,0.687742806933788,nan
1741086565.703227,-0.508066226117045,-0.2886003443104508,-0.2606341397873644,0.2695464878427559,nan
1741086565.7071419,-0.6894317526597624,-0.3621008029058362,0.22349224937850803,-0.2904900589669596,nan
1741086565.7110472,-0.48274012474401673,-0.23967893633250212,0.6414112284551876,-0.5466114734325452,nan
1741086565.7149525,0.030072720912735662,0.0007456736986802365,0.6673038966279482,-0.3370165341226259,nan
1741086565.7188575,0.5524340811525645,0.20844251794909785,0.23822758148762052,0.09901345295086196,nan
1741086565.7227628,0.7656032227242772,0.2635868360495191,-0.37753880978446597,0.3517967571219453,nan
1741086565.726668,0.5439580306501663,0.15788865559667312,-0.7650949646394977,0.2097194169121914,nan
1741086565.7305732,0.03491011422573345,-0.007908996381474787,-0.6625510652655744,-0.16047433336008812,nan
1741086565.7344782,-0.4502585449884449,-0.10619210411948622,-0.1476598112012282,-0.37691265638010824,nan
1741086565.7383835,-0.6461696558347936,-0.07984192993704127,0.42653339595935186,-0.19935994809413363,nan
1741086565.7422888,-0.489005304368437,0.020097721481503676,0.6903754264822164,0.2414657925347983,nan
1741086565.746194,-0.11951874121583858,0.08342201255582475,0.510960742111587,0.549711282681856,nan
1741086565.7500992,0.24159441338896315,0.03537533543793017,0.057539528734757525,0.41566363978925497,nan
1741086565.754014,0.43455886160404367,-0.09886282593979834,-0.34981053233262327,-0.0968478498653919,nan
1741086565.7579193,0.4201294096022454,-0.2106386957715384,-0.47509142842770463,-0.5845977652815961,nan
1741086565.7618246,0.2473471854170848,-0.1923498747978625,-0.30648744954977164,-0.639399787750996,nan
1741086565.7657297,-0.006821535727504714,-0.024744360969961427,-0.01732525301387824,-0.1982895784851552,nan
1741086565.769635,-0.2633071179241801,0.19983343093088607,0.1916479897658767,0.3930809292425845,nan
1741086565.77354,-0.4316662600530691,0.33643986614050875,0.23105851349952747,0.6625414763814341,nan
1741086565.7774453,-0.4163610556286715,0.2864219637812571,0.14619684603460492,0.40228841319940206,nan
1741086565.7813506,-0.17296622289400657,0.06624433753614181,0.03708493919161279,-0.16107263332976648,nan
1741086565.7852557,0.21975195973806547,-0.2005158261743711,-0.03406609053657399,-0.5588983709640587,nan
1741086565.789161,0.5531437219026679,-0.3606140759493321,-0.0689489303831681,-0.4706096395216189,nan
1741086565.793066,0.5948664089857422,-0.32518666189898876,-0.0905817656283349,0.01619354909652964,nan
1741086565.7969713,0.2573082067365993,-0.12042812030434628,-0.09436404475778548,0.48801456074283206,nan
1741086565.800887,-0.2993732133116303,0.1333283605602868,-0.05025912947247619,0.5525606102099588,nan
1741086565.8047924,-0.7333537168394233,0.29637418885548267,0.04829541634005156,0.1567948191357198,nan
1741086565.8086977,-0.738313735357159,0.29017961408350723,0.14742079821162923,-0.38222598895684395,nan
1741086565.8126028,-0.26641139909746525,0.13680125576567018,0.15896124194700328,-0.6444508610360907,nan
1741086565.816508,0.4121872463352657,-0.06217364754033424,0.03832297313090236,-0.4394888743640492,nan
1741086565.820413,0.8724973416106266,-0.19082903680393226,-0.15523174007447912,0.06481803832069588,nan
1741086565.8243184,0.8151039182401175,-0.1880467241961087,-0.280693869422192,0.501401746408434,nan
1741086565.8282237,0.26700303290319627,-0.0797249394350017,-0.21707961922125488,0.595344610202882,nan
1741086565.8321288,-0.4382232532824178,0.04445646335517581,0.031245901145505926,0.3437993464547678,nan
1741086565.836034,-0.8819370550726525,0.09472901222925373,0.3151441443232104,-0.037972731582944994,nan
1741086565.839939,-0.823815508432269,0.0441505025683292,0.4339964828396544,-0.3191229024939068,nan
1741086565.8438444,-0.3300166041223351,-0.052424972394523546,0.27894855254683093,-0.41134911001001934,nan
1741086565.8477602,0.30072963567053884,-0.09942605399901226,-0.08004158840777097,-0.3638413848977067,nan
1741086565.8516655,0.7362336011006018,-0.036006250713197255,-0.430570120410657,-0.24498689987148065,nan
1741086565.8555706,0.7903651217918063,0.1084146831877333,-0.5539762870503656,-0.05907901585068144,nan
1741086565.8594759,0.48320172014443624,0.22443272384275692,-0.3659767140016246,0.21259601482522,nan
1741086565.863381,-0.01559715752393503,0.19967213982507065,0.03301088080050647,0.5046817847742261,nan
1741086565.8672862,-0.48785919378059794,0.010989059504243035,0.4247069009298117,0.636984752831828,nan
1741086565.8711915,-0.7472875730052141,-0.23922156827293087,0.6039371450278497,0.43373540149194634,nan
1741086565.8750966,-0.6866427909570383,-0.3797923563578742,0.48704742188263933,-0.09242875148380948,nan
1741086565.8790019,-0.3115982218781505,-0.28975838778398944,0.14006870994562134,-0.6703793984934497,nan
1741086565.882907,0.23729371546307193,0.0039496839652411395,-0.27143230024404047,-0.9182049234671825,nan
1741086565.8868122,0.7095400166184325,0.3271709603786324,-0.566442509766181,-0.6231199041063112,nan
1741086565.8907175,0.8479330687510873,0.4675864850569198,-0.6205886001077615,0.06833351820630555,nan
1741086565.894633,0.5404354335931295,0.3210538370184909,-0.40572813182446044,0.7225925073745106,nan
1741086565.898538,-0.0769475954667195,-0.02938245889345807,0.0017171330215054886,0.9199305415386022,nan
1741086565.9024434,-0.6639524782938835,-0.36281185204396715,0.4404703857024692,0.5569582154217781,nan
1741086565.9063485,-0.8716976491155666,-0.46746748814651684,0.7156856224441036,-0.08708234783693107,nan
1741086565.9102538,-0.5725974804453063,-0.282772227848199,0.6792220025073653,-0.5711055813660743,nan
1741086565.914159,0.04180956000992571,0.06358728556070373,0.31206405022694456,-0.6204559644097307,nan
1741086565.918064,0.5807016768402665,0.34736907899904484,-0.23963386013561938,-0.30249747023739154,nan
1741086565.9219694,0.7173980765209075,0.3996671987093509,-0.7140758395297953,0.07572507733614044,nan
1741086565.9258745,0.40802458174587053,0.2110023290182625,-0.8612476152117954,0.240803663301548,nan
1741086565.9297798,-0.09498021322900074,-0.07942598161232031,-0.5840205615972506,0.1591224632841568,nan
1741086565.933685,-0.44036806941208795,-0.2899015411614046,-0.006351816854907317,0.013772670718727063,nan
1741086565.9375901,-0.4321212985443593,-0.31393467906614525,0.5821969408020432,-0.0016090522373597529,nan
1741086565.9415057,-0.1479756593936277,-0.16937943953426116,0.8809892512013056,0.12844154720530307,nan
1741086565.9454107,0.15548734431969036,0.039904346456619215,0.7427352015289344,0.23945004751409463,nan
1741086565.949316,0.2587004046667355,0.20366506799114376,0.2504652873160703,0.16184725764331473,nan
1741086565.953221,0.13658545350812235,0.26205004620888883,-0.33582070611642545,-0.09974412569213503,nan
1741086565.9571264,-0.058415301101740674,0.21085682326638236,-0.7259145911683792,-0.35379584626117927,nan
1741086565.9610317,-0.15116733331930107,0.07621322971232494,-0.7504704735496023,-0.3886081760921445,nan
1741086565.9649367,-0.09080846075175891,-0.10246573645767926,-0.4334517693515169,-0.1641677803910961,nan
1741086565.968842,0.03238245679143408,-0.2677435474187081,0.04282845702818664,0.1481735376985382,nan
1741086565.972747,0.09603161491159012,-0.34134105661617575,0.4462262470572162,0.3149158474771319,nan
1741086565.9766524,0.06505629275956841,-0.253736882850252,0.6101221325745068,0.2416934981237995,nan
1741086565.9805577,0.008118557285780134,-0.0021252730147825363,0.4983885711671239,0.04319295846198504,nan
1741086565.9844627,0.0054984373147495035,0.31043649850606375,0.19941586604358727,-0.07888459042762386,nan
1741086565.9883783,0.05062165588932453,0.5064395754673504,-0.1338420536577535,-0.03193461019769971,nan
1741086565.9922833,0.05229677694659539,0.43838440107240234,-0.3608810210230646,0.08378048055845538,nan
1741086565.9961886,-0.05850436922257172,0.10171727811155315,-0.41150258511063387,0.08402813229423116,nan
1741086566.0000937,-0.22552355866734244,-0.3332201299069971,-0.3028092890460601,-0.10107792272071495,nan
1741086566.003999,-0.2852103171594785,-0.6114543064195888,-0.1137000758704012,-0.3324633719525917,nan
1741086566.007904,-0.11237061890771363,-0.5559058605184428,0.06564019960819398,-0.3729650628892974,nan
1741086566.0118093,0.23218811060638128,-0.18970304634321097,0.18015704473050587,-0.11258361700495617,nan
1741086566.0157146,0.5027441768632379,0.27329593840677824,0.22599543452025092,0.2998609356017316,nan
1741086566.0196197,0.44960733206340586,0.5673937271325298,0.22919932722421504,0.5538812842760805,nan
1741086566.023525,0.04358663711427298,0.545122764785166,0.2064195601439141,0.43421509158870547,nan
1741086566.02743,-0.4553209863565836,0.2582645631496457,0.14216985201663865,0.015429623438915317,nan
1741086566.0313354,-0.6715745939030034,-0.10063450017879735,0.006281977198167911,-0.3854673396102685,nan
1741086566.0352507,-0.41114076656544546,-0.3410423020531665,-0.19822117330157454,-0.46936798993084045,nan
1741086566.0391557,0.1598079076386761,-0.38907070955860623,-0.39842275113112696,-0.20657178638050638,nan
1741086566.043061,0.6189927774865024,-0.2959603977995622,-0.46911184414001933,0.14326566700370852,nan
1741086566.046966,0.6119129423126175,-0.15552207968937753,-0.31046798750899124,0.2656926244004331,nan
1741086566.0508714,0.14083708285640323,-0.017091955703171915,0.06103573164902706,0.07562149887691327,nan
1741086566.0547767,-0.4235184912855095,0.12840133967769427,0.4811676848800276,-0.20494245343686146,nan
1741086566.0586817,-0.6312972003825866,0.2885858992627251,0.7093751877766028,-0.25300951016562484,nan
1741086566.062587,-0.3170534993116076,0.40862702530252976,0.5749069671540424,0.043968284945391886,nan
1741086566.066492,0.26034494193096597,0.38405227029668193,0.10517760683171502,0.45480133696888264,nan
1741086566.0703974,0.6234234038429156,0.15083882439126728,-0.4603013610872425,0.5853055565521756,nan
1741086566.0743027,0.4655341257637583,-0.2247456519220251,-0.7983313599604076,0.23053054393090786,nan
1741086566.0782077,-0.09431839073739576,-0.5484793243743816,-0.701271450248572,-0.40910966195016646,nan
1741086566.0821228,-0.603965737521785,-0.6135707435957338,-0.21686590582109613,-0.8535725926694372,nan
1741086566.086028,-0.6456473277001245,-0.3509038416571762,0.3715287554963796,-0.7258296653866304,nan
1741086566.0899332,-0.17759134402023619,0.10475344078903463,0.7198398139535052,-0.07566014755275824,nan
1741086566.0938385,0.43199216592455153,0.49360734330758893,0.6406307022172633,0.6362878663772962,nan
1741086566.0977435,0.706122448441445,0.6026924406709955,0.21697561867956058,0.8948122915010918,nan
1741086566.1016488,0.44547595802764567,0.4031387748716183,-0.26393292793796386,0.5374897667846179,nan
1741086566.105554,-0.1190451174196735,0.0515133873950733,-0.5092743598698517,-0.12533893924419923,nan
1741086566.1094592,-0.5294051495363029,-0.2382534906180058,-0.4113618845401,-0.5769389609221783,nan
1741086566.1133645,-0.4834242095305396,-0.3453623688443469,-0.09930795967289717,-0.519814470265125,nan
1741086566.1172695,-0.07447611551737682,-0.29791938911043314,0.17697784298202385,-0.10041021944315788,nan
1741086566.1211748,0.3093233990833821,-0.20336424553102858,0.23743795521991204,0.25154215084576653,nan
1741086566.1250799,0.33253492968006576,-0.13024524417451278,0.09365048964520602,0.2196178433833385,nan
1741086566.128995,0.0040688681189110735,-0.053472074940368326,-0.08430366756520259,-0.11893268963517674,nan
1741086566.1329,-0.33815143547535337,0.0904411206069349,-0.12111141430404475,-0.375976591341546,nan
1741086566.1368053,-0.3346719372092931,0.2982643291947161,0.016524353629052323,-0.22303692255392513,nan
1741086566.1407106,0.06397700358023477,0.4559078932868465,0.19645916039888636,0.28352773301802175,nan
1741086566.1446157,0.5330756783278131,0.4128196644203027,0.2380853804814885,0.7209359688480144,nan
1741086566.148521,0.6403579263091898,0.12042180756293949,0.07202436707180605,0.6593918093941757,nan
1741086566.152426,0.22175849204815845,-0.2898937590486524,-0.19120384958319478,0.05430221807718459,nan
1741086566.1563313,-0.45452382876515773,-0.5736244435879003,-0.34450554810370393,-0.6773608190107027,nan
1741086566.1602364,-0.8829329444899751,-0.5471823200526613,-0.25528488977248603,-0.978928219624328,nan
1741086566.1641417,-0.7207825214115919,-0.2314721016504292,0.016686346974716774,-0.6104703365679307,nan
1741086566.168047,-0.06571731710137589,0.1587743500655549,0.2581432129341941,0.14824365248221685,nan
1741086566.171952,0.6179971738725608,0.3797754680549583,0.2750026885019413,0.7258374497644833,nan
1741086566.175868,0.8626066618757018,0.3451195526544884,0.06047609999430586,0.727930732131976,nan
1741086566.179773,0.5508372689225127,0.17662466236813318,-0.18661295157555524,0.24767045594276663,nan
1741086566.1836784,-0.023830071548344198,0.07410563182375066,-0.2227273260328818,-0.24516262356231314,nan
1741086566.1875834,-0.4252052236336527,0.11699335958109762,0.022185639975637148,-0.3346220212360077,nan
1741086566.1914887,-0.4328920840145384,0.17886138033191915,0.35367676846778096,-0.02733472543383793,nan
1741086566.1953938,-0.1879030662914617,0.046139243200806555,0.44569674950247057,0.269551351395191,nan
1741086566.199299,-0.015040949727346837,-0.34873189263483506,0.11406462940152781,0.1462313146918684,nan
1741086566.2032044,-0.094510790050521,-0.7887402859045128,-0.48452424706716196,-0.3903601664138729,nan
1741086566.2071095,-0.28406755274210965,-0.8820471127282932,-0.9107772456134453,-0.8646567443963109,nan
1741086566.2110147,-0.2572391368507499,-0.3725751211589614,-0.7524610004316465,-0.7259408429119831,nan
1741086566.2149198,0.16034318234666645,0.584578351904783,0.029183731406260415,0.13190955010328392,nan
1741086566.218825,0.7606101347225827,1.4304885045493347,0.9918655212395986,1.1818599189429888,nan
1741086566.222741,1.0568415851823303,1.5430134779251397,1.4660039247826437,1.6102340807268802,nan
1741086566.226646,0.6687159511431184,0.6950470171465606,1.0233616503391438,0.9559295678886657,nan
1741086566.2305512,-0.31652180394416196,-0.7101423140836032,-0.17077217116379192,-0.4674361696952514,nan
1741086566.2344565,-1.3195614838695613,-1.8358447974543735,-1.4011687206569972,-1.7311511606800414,nan
1741086566.2383616,-1.6399868547902223,-1.943313927243246,-1.8508670012461836,-1.9444720111636145,nan
1741086566.242267,-0.9649593139633363,-0.9013235736364846,-1.1624880027354545,-0.9142340870632375,nan
