timestamps,TP9,AF7,AF8,TP10,Right AUX
1741085406.6106596,-1.5291030097757023,-0.0015764200660580076,0.2833876034961269,-0.5014063165721462,nan
1741085406.6145635,0.032791936771102044,1.1897920560094002,0.5587837314289915,0.5399224892426542,nan
1741085406.6184673,1.5853032790056636,1.6619468396751862,0.4467599617450339,1.3573920276366587,nan
1741085406.6223712,2.1120789960192643,1.120274238302188,0.07591993850500212,1.4352754614618024,nan
1741085406.626275,1.294376229151158,-0.09310989649873831,-0.2846529608987132,0.6768095333450422,nan
1741085406.630179,-0.2775667996417485,-1.213486497602926,-0.4311002375999787,-0.49512685193756945,nan
1741085406.6340828,-1.5392924256124474,-1.5437856265983574,-0.33545519548683556,-1.3793768268110915,nan
1741085406.6379864,-1.7077362379086733,-0.9008800326256086,-0.1050940435196207,-1.4413114343569533,nan
1741085406.6418903,-0.8010495830651703,0.27502786243944016,0.13258528344782325,-0.664073558663239,nan
1741085406.6457942,0.44332744454607864,1.2177406802397537,0.30330589565044724,0.44208098865115725,nan
1741085406.649698,1.1573177117908788,1.3389562517195965,0.3728538560530976,1.185669141182158,nan
1741085406.653602,0.9702567257912623,0.6033282606295808,0.3048929211120037,1.1540687718603013,nan
1741085406.6575353,0.20819649682519759,-0.4702167542107552,0.07130507863782198,0.4644159607565276,nan
1741085406.6614392,-0.44688479925195373,-1.171776981654337,-0.277662607127095,-0.3624009421001035,nan
1741085406.665343,-0.5275577219330773,-1.0750698606729223,-0.5685977287506783,-0.7945002528737553,nan
1741085406.669247,-0.11647611324996883,-0.3018746337353811,-0.5762976669115482,-0.6495534502050702,nan
1741085406.6731505,0.29681175823566025,0.5928110666467581,-0.19821940207404207,-0.16617907770064855,nan
1741085406.6770544,0.28079946984948667,1.0196319740849982,0.4040549008177611,0.23716181074279657,nan
1741085406.6809583,-0.1586616572804952,0.7514076679681205,0.8482366566321878,0.3016872105587349,nan
1741085406.6848621,-0.5975444095493414,0.04515605460570468,0.7792892877908173,0.09573348879043925,nan
1741085406.688766,-0.5780431148650328,-0.5780715169422014,0.1578236724088545,-0.10109510782009615,nan
1741085406.6926699,-0.021177750686507815,-0.7186953931981048,-0.6482369663778629,-0.07215580464432787,nan
1741085406.6965737,0.6830837244028554,-0.3645010482830462,-1.082093020794969,0.14694043688222896,nan
1741085406.7004776,0.9820097825751521,0.14561606545935415,-0.7977001823140581,0.3180769526357429,nan
1741085406.7044108,0.6068168411960045,0.41124224636625645,0.05588531882518889,0.23132986557787868,nan
1741085406.7083147,-0.20597291245942717,0.27946728269821974,0.9033285561030713,-0.09373622394507447,nan
1741085406.7122183,-0.892826667696822,-0.06249367753734897,1.1431987893737772,-0.4133143858453638,nan
1741085406.7161222,-0.9898133090399447,-0.26967075096700555,0.5930082425249436,-0.46459683003278934,nan
1741085406.720026,-0.4660980045966943,-0.13916251156489878,-0.3615111853617956,-0.19140751426288224,nan
1741085406.72393,0.2852854302641111,0.21748019534108262,-1.0399490065886068,0.20442373218311502,nan
1741085406.7278337,0.7654551101130259,0.4672456615117849,-0.9669732073835213,0.42859042690537297,nan
1741085406.7317376,0.727363474894044,0.3373364794581562,-0.22150628449881826,0.3338873218279388,nan
1741085406.7356415,0.3015999881336239,-0.14327352463005652,0.6310726521985847,0.03104409202547668,nan
1741085406.7395453,-0.16942803921203559,-0.6408476254996938,0.9704664277110913,-0.21800932080099558,nan
1741085406.7434492,-0.41438665618166154,-0.7624363010101417,0.5839698194668174,-0.22659082893166876,nan
1741085406.747353,-0.3945144318798713,-0.362316872062214,-0.19258345749872444,-0.03321181355955933,nan
1741085406.7512856,-0.24472732195621602,0.3293618917768488,-0.7537030143936798,0.14937809114986828,nan
1741085406.7551894,-0.09674559678281539,0.8589615311617619,-0.6953677206208122,0.13413078922314492,nan
1741085406.7590933,0.030459738243012666,0.8705826870329753,-0.10989134027717316,-0.07030731843437597,nan
1741085406.7629972,0.18304931581524872,0.35645693498367437,0.5140473394787871,-0.26808189578721686,nan
1741085406.766901,0.34660425084815055,-0.3458997221405392,0.6900857360456749,-0.2533146931055578,nan
1741085406.770805,0.39890671612340284,-0.7985451408439849,0.30839899448659985,0.0009869236108832865,nan
1741085406.7747087,0.21255817968868898,-0.7611667150040599,-0.3024565396749647,0.3084254603285269,nan
1741085406.7786126,-0.18374287128587385,-0.3263983053434079,-0.6557108342201863,0.42054543017916585,nan
1741085406.7825165,-0.556086146743017,0.187689102892079,-0.49067299216681187,0.2349422279402313,nan
1741085406.7864203,-0.6116575766701841,0.48294015860124556,0.042670413737505214,-0.1169536974865237,nan
1741085406.790324,-0.24166033458479724,0.4698449917537532,0.526795132163932,-0.3757300397105328,nan
1741085406.7942278,0.3475957693352173,0.27199543499414325,0.6118179652823161,-0.3624641146138124,nan
1741085406.7981603,0.7512231911213499,0.07581422275047883,0.2692804700174423,-0.11496049394920245,nan
1741085406.8020642,0.6618125795114821,-0.029232589490342364,-0.22129678670925496,0.15735411771209104,nan
1741085406.805968,0.11507332700804272,-0.08862386200289463,-0.5135808963042251,0.2537209436345652,nan
1741085406.809872,-0.5193322289331356,-0.18740532260377796,-0.4517460364585945,0.14093971680604836,nan
1741085406.8137758,-0.8057261651444013,-0.3270988673807615,-0.14590799928878365,-0.03951310698336675,nan
1741085406.8176796,-0.5624230981755513,-0.39689701661681487,0.1628502066699105,-0.11141870167630975,nan
1741085406.8215833,0.016274747767840048,-0.269238772357457,0.3052224037042039,-0.021627981903753493,nan
1741085406.8254871,0.5246590679479819,0.06568520647071173,0.2798730936323151,0.12149453560493988,nan
1741085406.829391,0.6545203280139409,0.45035895966158046,0.18740474491858472,0.15609313117124218,nan
1741085406.8332949,0.3989619403457058,0.6491307705836502,0.09709391548600785,0.019812078494950248,nan
1741085406.8371987,0.0035079424702468484,0.5132024930195832,-0.01183810821524811,-0.18908931592434997,nan
1741085406.8411026,-0.2659076822759944,0.09399136645049498,-0.1832295174619597,-0.29456601064943877,nan
1741085406.8450348,-0.3245882976830161,-0.38261149221829016,-0.3748257361625683,-0.1946739805735743,nan
1741085406.8489387,-0.2754527274139241,-0.6603520207749282,-0.43890804563770014,0.05008881877712428,nan
1741085406.8528426,-0.24419064319556957,-0.6078729636672636,-0.23890285271046263,0.265855369197743,nan
1741085406.8567464,-0.22270790426992565,-0.27966036015631707,0.1927923471848401,0.3059059773936797,nan
1741085406.8606503,-0.08267183520104736,0.14263138704331524,0.6124722778932895,0.1615352681436835,nan
1741085406.8645542,0.2510456820878288,0.4669989312386936,0.710847411193744,-0.04579901885493371,nan
1741085406.8684578,0.6433661875828832,0.5796749892709936,0.35398328397796663,-0.17418443268133219,nan
1741085406.8723617,0.7874165779255996,0.46451396053956456,-0.2755929367288116,-0.17171835032808458,nan
1741085406.8762655,0.4448339492352054,0.17612849325259733,-0.7730729881485107,-0.09563247753785341,nan
1741085406.8801694,-0.303648018907173,-0.18734646221792772,-0.7924936252184055,-0.03620464699746742,nan
1741085406.8840733,-1.0309302172484642,-0.49626635538605274,-0.30695091375357264,-0.025970981429222263,nan
1741085406.8879771,-1.2270357346549854,-0.61190844532365,0.35842151649791054,-0.020215254050916853,nan
1741085406.8919091,-0.6765516922071783,-0.44573271169422884,0.756657084838422,0.03907098267790849,nan
1741085406.895813,0.34269069933520174,-0.035273622243183755,0.6418576222294116,0.14489846967571715,nan
1741085406.8997169,1.212901715933703,0.42978076022122785,0.13871853611370516,0.2146174408651645,nan
1741085406.9036207,1.387173967293221,0.686228137516073,-0.368528528794172,0.1624560741553498,nan
1741085406.9075246,0.7610626676873653,0.5586103165201665,-0.5353553807723026,-0.011440636837891295,nan
1741085406.9114282,-0.26547743556897707,0.09749539285267428,-0.3074782606890802,-0.20238584863978581,nan
1741085406.915332,-1.0720298233998762,-0.42148557246697504,0.06859049765685628,-0.27770583508472996,nan
1741085406.919236,-1.2290491605929863,-0.6648857648648682,0.2698855559662516,-0.18512760982271234,nan
1741085406.9231398,-0.7408839242089268,-0.4719740846013668,0.16446785453732787,0.0028734065710909174,nan
1741085406.9270437,0.02603677092771755,0.020260088428980676,-0.09650392961238989,0.14991569460749243,nan
1741085406.9309475,0.633182299795729,0.46340866071136405,-0.2295670172187133,0.16912141068261832,nan
1741085406.9348514,0.8404125595924322,0.5457224138507122,-0.0779273696871251,0.08875693928038952,nan
1741085406.938783,0.6776534040774532,0.22233307965380616,0.24311878317219124,0.012698518100941462,nan
1741085406.9426866,0.3234499347533875,-0.249419408780874,0.43846981445696326,0.014286702608560147,nan
1741085406.9465904,-0.05911710410883973,-0.5037880832305394,0.2875476606518009,0.06403136919962928,nan
1741085406.9504943,-0.3868482146943302,-0.34648786075562266,-0.15195244404013228,0.061469376979457375,nan
1741085406.9543982,-0.6081775557307559,0.09455646567772939,-0.5652603456264443,-0.05567453948348854,nan
1741085406.958302,-0.6450879646436319,0.4677008369085213,-0.6187513799657566,-0.22829021892079254,nan
1741085406.962206,-0.42223204928739627,0.4724984553214765,-0.22899456059056142,-0.3053268681485842,nan
1741085406.9661098,0.03159177867015803,0.097629610841345,0.35347832568198934,-0.17285128342245945,nan
1741085406.9700136,0.5241296088322149,-0.3665785497170167,0.7187224532713963,0.12644790348018994,nan
1741085406.9739175,0.7789422085644356,-0.5545181600697597,0.6007938681400424,0.39650278058013927,nan
1741085406.9778214,0.6229608651686007,-0.3147520196078131,0.07854734875506743,0.4283039915161784,nan
1741085406.9817252,0.13452378897595688,0.1665781391107263,-0.47983515032099594,0.1712557400860498,nan
1741085406.985659,-0.38678542142976696,0.5095881355685115,-0.6865497747949719,-0.20830047603399932,nan
1741085406.9895625,-0.6263661758813859,0.44184476196870826,-0.41471111247744835,-0.44096768897029415,nan
1741085406.9934664,-0.4808360595980571,0.019128143048518346,0.11822691605076707,-0.35932594103031634,nan
1741085406.9973702,-0.12033393864921381,-0.4130975070821127,0.5203344293666338,-0.03210448175381107,nan
1741085407.001274,0.1656282008517783,-0.4933215405125166,0.5153546002211848,0.2844406223307401,nan
1741085407.005178,0.20875710602854433,-0.13954211341031694,0.13639273299414675,0.3454864865667179,nan
1741085407.0090818,0.08412116208198296,0.3707482528475835,-0.31393578010550616,0.11179358624910787,nan
1741085407.0129857,0.011203057126972362,0.6093801026570536,-0.49715792412235127,-0.21629614330620342,nan
1741085407.0168896,0.12570099129161705,0.3402284650074406,-0.2874607003901179,-0.3556191851158101,nan
1741085407.0207934,0.3312919346246711,-0.27259126359871344,0.1456596832451438,-0.1672596917318339,nan
1741085407.0246973,0.3741871140853367,-0.7649926714950578,0.4722237100388227,0.22386615996597103,nan
1741085407.0286012,0.08557082056480643,-0.7200363140040351,0.44673453048188616,0.5130961037059155,nan
1741085407.0325346,-0.42143081900292495,-0.10293747971923699,0.08309986189991117,0.4437240841617854,nan
1741085407.0364382,-0.7898794354507881,0.6788911197979126,-0.3612209457660013,0.008469619900190952,nan
1741085407.040342,-0.6872184224467336,1.0537566550482866,-0.5718828972539307,-0.526141222664355,nan
1741085407.044246,-0.09419065297460757,0.7074806031760756,-0.3974851627668232,-0.7932753490723776,nan
1741085407.0481498,0.6318009673682662,-0.164181427163925,0.04996636845266085,-0.5761359290615967,nan
1741085407.0520537,0.9939099978717977,-0.9712073742236222,0.47631513622108557,0.03731251426702982,nan
1741085407.0559576,0.7239980205581008,-1.142626144294601,0.6047890836423431,0.6981796224419999,nan
1741085407.0598614,-0.004458520836331674,-0.5417118844139289,0.35599043298029487,1.0077096711576525,nan
1741085407.0637653,-0.6925131071989229,0.4235400389512063,-0.10779147266611827,0.7595015245454525,nan
1741085407.0676692,-0.8792038070674886,1.0837941596771243,-0.4948010836633086,0.06537582158783457,nan
1741085407.071573,-0.4758349662087145,0.9859184465203361,-0.5722108869834361,-0.7046609017429317,nan
1741085407.075477,0.18315272799212548,0.21829251081181095,-0.3077470990717711,-1.1276845557832962,nan
1741085407.07941,0.6059329738897358,-0.6554853074144996,0.12090899567972883,-0.9607585661356528,nan
1741085407.083314,0.5153818426758825,-1.0084345026492005,0.4468447341010856,-0.2757380301444538,nan
1741085407.0872176,0.04212245167503491,-0.606833485983824,0.4826290711034453,0.5740865177293714,nan
1741085407.0911214,-0.4000049313228813,0.22386760606116735,0.23033708993728655,1.1384588829241118,nan
1741085407.0950253,-0.4472868675475063,0.8462248393882716,-0.13178278921632608,1.111092452593197,nan
1741085407.0989292,-0.06610175007925409,0.7882029434908132,-0.3713556327567604,0.49972888258736897,nan
1741085407.102833,0.429844705335044,0.09655799683298551,-0.35120950710901644,-0.3708891597621087,nan
1741085407.106737,0.6268861080035442,-0.697213250122219,-0.11059492658021439,-1.0329655118220797,nan
1741085407.1106408,0.32853708683231864,-0.9745463799901671,0.17094546756643275,-1.135378977972433,nan
1741085407.1145446,-0.2931908113837347,-0.4962900328428062,0.2997621721315421,-0.6410273178247378,nan
1741085407.1184485,-0.8151196897717634,0.4096921509716469,0.1989140883787324,0.15721251521794063,nan
1741085407.1223524,-0.8559928803860535,1.0818315922187696,-0.04385878934316806,0.8139424914528539,nan
1741085407.126278,-0.3377385951872313,1.0091124032945311,-0.24240522747369825,0.9930996629984279,nan
1741085407.1301818,0.45655234233084424,0.20982723016573937,-0.24630183522707194,0.6512837009520085,nan
1741085407.1340857,1.0551940320309237,-0.7740614248483698,-0.04932023798817506,0.03325583646917559,nan
1741085407.1379895,1.0834377926621637,-1.2625005369219626,0.20455815661174098,-0.5033692816979639,nan
1741085407.1418934,0.4876637655367456,-0.9203154586745738,0.3234122808048005,-0.7070948703609621,nan
1741085407.1457973,-0.42673314178575533,0.01234953130358713,0.20685480117070185,-0.5518106268346185,nan
1741085407.1497009,-1.1587499268479307,0.9020085861627516,-0.07680424470807552,-0.19758830552435547,nan
1741085407.1536047,-1.2859105968424287,1.1736645953239684,-0.3331770482566711,0.14931687597314336,nan
1741085407.1575086,-0.70433009846755,0.7003494376232459,-0.3770296288306543,0.36071077177230376,nan
1741085407.1614125,0.295280879355207,-0.1425890064031952,-0.16542631983281944,0.4155342919100318,nan
1741085407.1653163,1.1680818293516042,-0.7761763607486147,0.1669293612717975,0.34641190184626075,nan
1741085407.1692202,1.4120507782132519,-0.8321465449346692,0.39778474767107774,0.18086231005388206,nan
1741085407.1731524,0.8646694627088042,-0.37868670780508645,0.3709674873026517,-0.06068972800773705,nan
1741085407.1770563,-0.17889985683208273,0.18634051601738322,0.10519970517292081,-0.32082894234719506,nan
1741085407.1809602,-1.1181516405636598,0.4638518674612032,-0.21926142431482523,-0.4830107940119561,nan
1741085407.184864,-1.4004128073346866,0.3397668132424817,-0.3866126179342968,-0.4239116802924655,nan
1741085407.188768,-0.8646061379854858,0.021540691696662364,-0.29435287131040594,-0.11658134832381173,nan
1741085407.1926718,0.15002903179980043,-0.17428117941733387,-0.019783272099302834,0.3046682797409062,nan
1741085407.1965756,1.0153599735198016,-0.09263709744651226,0.24077539171231507,0.5946103831554137,nan
1741085407.2004795,1.2169136026799738,0.1496685958862874,0.3133609094143033,0.5509019572002151,nan
1741085407.2043834,0.6802768763246191,0.2875828267306576,0.1655527424917662,0.16613520047482075,nan
1741085407.2082872,-0.20037540162208275,0.14771653124135245,-0.07994149991110017,-0.34229112518446825,nan
1741085407.2121909,-0.8467943940500088,-0.19819978074284253,-0.24182049880976147,-0.6611927783850039,nan
1741085407.2160947,-0.8887344230422647,-0.48770980797856384,-0.21221429334706335,-0.586201034154805,nan
1741085407.220027,-0.3872021432366862,-0.4784239185370227,-0.027849418409021554,-0.15811020553947266,nan
1741085407.2239306,0.2553754997790434,-0.1417634154370797,0.16676138459422987,0.36458763233487507,nan
1741085407.2278345,0.6090410278100942,0.3118681634814714,0.230362481050209,0.6736421601223368,nan
1741085407.2317383,0.5097103787012087,0.5887412304837509,0.1250318056395447,0.5997146807833231,nan
1741085407.2356422,0.12457086894614593,0.521080226475053,-0.06571109267343098,0.19894536697783688,nan
1741085407.239546,-0.22762268325814014,0.17182134133046117,-0.20652350001596373,-0.3021221815536687,nan
1741085407.24345,-0.33243398312344113,-0.2307993607593849,-0.2090366178872795,-0.6457397122417416,nan
1741085407.2473538,-0.20684096567264573,-0.46163230589866083,-0.08587945439991826,-0.6708071235619109,nan
1741085407.2512577,-0.022386164560701104,-0.4363756028247567,0.07295950980606333,-0.36908897698029136,nan
1741085407.2551615,0.0754363543636411,-0.2285579590633126,0.17299217144242712,0.12920348715009922,nan
1741085407.2590654,0.08001053123741418,0.019374447183531783,0.17630927412875427,0.6085521597034039,nan
1741085407.2629693,0.080880628822938,0.20071173247804078,0.108539458447754,0.8400683548297044,nan
1741085407.266901,0.13083807223280342,0.284584832747903,0.018975007161586874,0.6710988824275963,nan
1741085407.270805,0.16877945347341028,0.2841356624319623,-0.062071310711580764,0.11826160391483284,nan
1741085407.2747087,0.0819480443688699,0.20919056620116278,-0.13042900779693264,-0.5885508140429968,nan
1741085407.2786126,-0.1521012095917987,0.05977559930991337,-0.18123214614446845,-1.0758036149206611,nan
1741085407.2825165,-0.3912979786636244,-0.1384998267548953,-0.18503331390284006,-1.0183951712843742,nan
1741085407.28642,-0.4165860258016938,-0.3077879618783914,-0.1015415279836175,-0.3615383001782898,nan
1741085407.290324,-0.12445217209600914,-0.3468419742466444,0.07321274233775005,0.583780651366764,nan
1741085407.2942278,0.34345380740427484,-0.20610614556839635,0.27034417030929925,1.2778795874747975,nan
1741085407.2981317,0.6660964527887799,0.05417883757944272,0.36798542983457966,1.2737809944163514,nan
1741085407.3020356,0.5759329553881243,0.28388173527703553,0.26973787940379057,0.5229553195838944,nan
1741085407.3059394,0.08012885033793424,0.3401427541570567,-0.01109656280389529,-0.5564071301231279,nan
1741085407.3098433,-0.5151655254534944,0.1918726076249421,-0.3322047981675173,-1.3228396863056817,nan
1741085407.3137748,-0.8117531123617663,-0.05274536233492525,-0.4979439899122853,-1.3193235543257782,nan
1741085407.3176787,-0.6053389677086555,-0.22311024620580516,-0.3876976135356397,-0.5685080751002367,nan
1741085407.3215826,-0.031667315015841406,-0.21144488242562454,-0.047050256643040696,0.45128997045285474,nan
1741085407.3254864,0.5364649299560736,-0.049945180803732066,0.3293997211326834,1.1304632597206565,nan
1741085407.3293903,0.7557264495017584,0.11976386482689867,0.5191604093665375,1.1206610471845118,nan
1741085407.3332942,0.5363936185924263,0.15967762071205474,0.4155184442799994,0.523759670652367,nan
1741085407.3371978,0.06610499541942816,0.041800177004478634,0.093567322637431,-0.2334065761196844,nan
1741085407.3411016,-0.3575701815422441,-0.13371056814467205,-0.24624675180914557,-0.7167994536005959,nan
1741085407.3450055,-0.534145588107738,-0.2192705645478898,-0.4136256683089333,-0.7501978006075771,nan
1741085407.3489094,-0.4505042514400367,-0.13411797996334443,-0.34519316860365046,-0.453937687879224,nan
1741085407.3528132,-0.21913404491305033,0.07502893986632488,-0.12442618703525743,-0.07760170493364178,nan
1741085407.356717,0.04194320832394954,0.26856400009136816,0.09754240285746263,0.20209143229410373,nan
1741085407.3606534,0.2692971900276349,0.31286921665506257,0.21103153589986912,0.35498250286755484,nan
1741085407.3645573,0.4238447764442534,0.16967122108161178,0.2046789298749583,0.420960320334942,nan
1741085407.3684611,0.4430151580886442,-0.08308476113754609,0.13887259059092585,0.3997494027292744,nan
1741085407.3723648,0.2616990255811442,-0.3042391482532185,0.07379940277457522,0.23609977330739787,nan
1741085407.3762686,-0.09925200791800812,-0.3737555919063882,0.020522725045522144,-0.08501734002055213,nan
1741085407.3801725,-0.47442765429292827,-0.25520902046005856,-0.046484569283815336,-0.4442707982121797,nan
1741085407.3840764,-0.6210944773980648,-0.0076273816155744845,-0.13702960476309448,-0.618753884192514,nan
1741085407.3879802,-0.39575142816749204,0.24889878107620783,-0.21090249862202853,-0.4447034091691515,nan
1741085407.391884,0.09910383205741653,0.3906021273882302,-0.20057024492468448,0.019753522861670675,nan
1741085407.395788,0.5449748626325933,0.34589698467922864,-0.07435458417972704,0.49009668810616247,nan
1741085407.3996918,0.6261923739444327,0.1303775043979452,0.11797210345202029,0.6445770937493925,nan
1741085407.4035957,0.2790441611115397,-0.15410378059542884,0.26461236415733735,0.3709938682773996,nan
1741085407.407529,-0.2384008276325795,-0.36316016669022017,0.2686151202062686,-0.13206000546201452,nan
1741085407.411433,-0.5344914651981618,-0.38397806615519897,0.12266394465904568,-0.49620664249083823,nan
1741085407.4153368,-0.3936420846282239,-0.2030768021567884,-0.08058055973097236,-0.46497021166180247,nan
1741085407.4192407,0.04517513894841613,0.07743272533529469,-0.21426011901249634,-0.09170542925198928,nan
1741085407.4231446,0.3992418925950303,0.29575675216327213,-0.208540147951306,0.30875111381158277,nan
1741085407.4270484,0.36204649316525844,0.3304307838318172,-0.09531821634678171,0.41690022893394424,nan
1741085407.4309523,-0.0317177935670681,0.17854909345562997,0.02723427208591882,0.16390138896864995,nan
1741085407.4348562,-0.42625342887647916,-0.04564976343319253,0.07799776629043258,-0.22272721492653055,nan
1741085407.4387598,-0.4452378164234633,-0.19423752291229457,0.05364492671859985,-0.415820955979713,nan
1741085407.4426637,-0.02557677906161974,-0.19037610079378559,0.017853658273976704,-0.25953634300944306,nan
1741085407.4465675,0.5038867861684476,-0.07491929817290864,0.0324054464164361,0.11082035513367776,nan
1741085407.4504714,0.6810483189230516,0.03965567264999856,0.09337983562775451,0.3929641588711462,nan
1741085407.4544046,0.30238513971352293,0.0674701140184864,0.13045989637150301,0.372095590968556,nan
1741085407.4583082,-0.3807797216260629,0.016314655028060995,0.07179192467310154,0.08803020674921978,nan
1741085407.462212,-0.8395152568316191,-0.032240146632032014,-0.08149407432388968,-0.2187124727491124,nan
1741085407.466116,-0.687694235763821,-0.009094951253164871,-0.23806731159218167,-0.3217138219097506,nan
1741085407.4700198,-0.005544641089029421,0.07008038593939697,-0.27720474759893676,-0.19084950742936296,nan
1741085407.4739237,0.7048241490798568,0.11579953005035887,-0.14306293868149483,0.011428302241039733,nan
1741085407.4778275,0.9061944962378943,0.053101577975264595,0.10225015046142334,0.10090304871122409,nan
1741085407.4817314,0.4479389914337218,-0.09289148807370134,0.31143473666844923,0.04315892301965681,nan
1741085407.4856353,-0.316827923891409,-0.19940169300690153,0.3494182860543134,-0.0325604040796532,nan
1741085407.4895391,-0.8120377248974536,-0.147157727937812,0.18524741498309397,0.016718053820316124,nan
1741085407.493443,-0.688887116295141,0.06138493649352737,-0.08654461954644885,0.18346877458789257,nan
1741085407.4973469,-0.08411633299456545,0.27579840143215284,-0.30738424969208467,0.29585155958386256,nan
1741085407.5012796,0.5122008620701692,0.30316627694128845,-0.35350813742298437,0.17830438676012936,nan
1741085407.5051835,0.6581267107472872,0.07147453091387798,-0.20635195433908798,-0.15831015735798512,nan
1741085407.5090873,0.29810416074742674,-0.284335482739309,0.04500065838514294,-0.48199718686862286,nan
1741085407.512991,-0.22775150686783896,-0.4990599381346886,0.261351193303041,-0.5134714326241876,nan
1741085407.5168948,-0.48913931318339754,-0.3735899890478102,0.3302266286770046,-0.17083991169476975,nan
1741085407.5207987,-0.3173148941369466,0.05666303839427749,0.22027526063537978,0.33045664655189083,nan
1741085407.5247025,0.08590518620891303,0.5198798237305674,-0.00768716163229381,0.6257142484114496,nan
1741085407.5286064,0.35213927037393256,0.6884520963277222,-0.23161811208631922,0.4882976114439695,nan
1741085407.5325103,0.26999695228069615,0.41540766230404524,-0.3269040983574395,0.01922858457148997,nan
1741085407.5364141,-0.05130846528047645,-0.14916113901112207,-0.23122021937630766,-0.42574508695188873,nan
1741085407.540318,-0.30388667535557334,-0.6516231212899414,0.012857779836280734,-0.5189326098370309,nan
1741085407.5442219,-0.2638081248896049,-0.7727755480155467,0.2666474855435773,-0.22173071609664227,nan
1741085407.548154,0.01922460452466664,-0.43958005962108954,0.36611164489968634,0.19312953563996138,nan
1741085407.552058,0.28280425990409513,0.13603499103544678,0.22604969990232326,0.3760339994536457,nan
1741085407.5559618,0.29473565774553206,0.6080515954317327,-0.08685628394434708,0.19369163236646864,nan
1741085407.5598657,0.055153585269994865,0.7204798608097587,-0.37444869354530425,-0.1656254433711713,nan
1741085407.5637696,-0.21686421555846405,0.4499238502551797,-0.42821643649070396,-0.3613183110517368,nan
1741085407.5676734,-0.2883916228761778,-0.013623814582011062,-0.18051659221246616,-0.19793183012164656,nan
1741085407.5715773,-0.11784604598006618,-0.4086832364685935,0.22472943268547216,0.20272970758274506,nan
1741085407.5754812,0.12188434829228907,-0.556066167361212,0.5107427130731605,0.5003112022637436,nan
1741085407.579385,0.2135277925294968,-0.4316586932125126,0.45843723000950737,0.4211470909012995,nan
1741085407.583289,0.09578189959926572,-0.14035141359300507,0.07656224698825326,-0.009938776200790337,nan
1741085407.5871925,-0.09014556813137113,0.16283775472216663,-0.38315997166687976,-0.48314743582619357,nan
1741085407.5910964,-0.14546651031882354,0.3476507156283725,-0.5945615163284504,-0.6476012864769679,nan
1741085407.5950286,-0.01041264477511188,0.3525850997974776,-0.3959994397667833,-0.3825635940968624,nan
1741085407.5989325,0.1737995659950808,0.1994838309512052,0.07973230782108483,0.12076357646610161,nan
1741085407.6028364,0.19829085140451463,-0.01739581758187928,0.49287867848358247,0.5194937281890982,nan
1741085407.60674,-0.006597950500984697,-0.173154256753575,0.5462829780425934,0.5775605477072187,nan
1741085407.6106439,-0.2848939823150658,-0.18152934130589968,0.2105754270342109,0.3141188036236884,nan
1741085407.6145477,-0.377930531118778,-0.05778855567364569,-0.25171226254898094,-0.05624333463076168,nan
1741085407.6184516,-0.15582212814815838,0.0781821678866158,-0.48813710024040263,-0.31170430843917535,nan
1741085407.6223555,0.24734150898029897,0.08391754066122577,-0.3306789981726873,-0.370104497220926,nan
1741085407.6262593,0.5223801409836863,-0.08284383073932373,0.07381645598836621,-0.2890786361834002,nan
1741085407.6301632,0.4327692868408251,-0.2992475157959188,0.38375556115769927,-0.158602682611218,nan
1741085407.634067,0.015411118046419372,-0.3461590252255142,0.34081146076687496,-0.012361354743676495,nan
1741085407.637971,-0.436243947333293,-0.08482586308939229,-0.016901557049107178,0.15891185923113602,nan
1741085407.6419027,-0.5961403567600647,0.3899556437213253,-0.3817506927274052,0.32853789083611085,nan
1741085407.6458066,-0.3544692818846416,0.762748497006681,-0.4271577339466527,0.3982243086130205,nan
1741085407.6497104,0.10739990049154412,0.7045923950309636,-0.08193913061135025,0.26738019931855794,nan
1741085407.653614,0.46680531704515915,0.13955372911966435,0.39647327123011866,-0.049176720065925515,nan
1741085407.657518,0.5030421983355255,-0.6404558639956582,0.6168404877959296,-0.3801720462672362,nan
1741085407.6614218,0.2390982405685104,-1.1328242555098598,0.3673393306897802,-0.5011879202160536,nan
1741085407.6653256,-0.11322663507995635,-0.9682469839890624,-0.20255651618660814,-0.31327874170805314,nan
1741085407.6692295,-0.33350788878174964,-0.19490758841929887,-0.6815877793638769,0.05881126020443079,nan
1741085407.6731334,-0.33911610984115964,0.7222966353152795,-0.705614241200219,0.350042719447572,nan
1741085407.6770372,-0.1944379921733199,1.2080027201659715,-0.23686507922998362,0.3641650284868586,nan
1741085407.680941,-0.01263552183015627,0.9730508454541389,0.4035166280312395,0.13281500795961582,nan
1741085407.684845,0.13677244036945824,0.20829001943130546,0.7734710255716077,-0.11804868964056135,nan
1741085407.6887763,0.23573957556379818,-0.5684693476064544,0.6328048258843145,-0.17104048364771823,nan
1741085407.6926801,0.266118906743901,-0.8916592466543705,0.10495711957358378,-0.012046566773289741,nan
1741085407.696584,0.18599455683735497,-0.6618225068105732,-0.43516632415289314,0.1605562683740939,nan
1741085407.7004879,-0.020648510915812032,-0.16274939833346908,-0.6457263515883572,0.1266554179557322,nan
1741085407.7043917,-0.2736991184587843,0.20806831774881335,-0.44948624316773755,-0.1345364883994691,nan
1741085407.7082956,-0.4047050612136941,0.2603006109038543,-0.04633829483913939,-0.4000279697363122,nan
1741085407.7121994,-0.275721976328975,0.12131965600380988,0.2753350103405127,-0.3903416970915834,nan
1741085407.7161033,0.07864532737084146,0.06405286864230703,0.35753445134969536,-0.03200872787160237,nan
1741085407.7200072,0.427518456656798,0.22164450649981846,0.24895607061837496,0.44213640459724696,nan
1741085407.723911,0.49628168249635274,0.44834303746216014,0.10393990470791152,0.6610513490706665,nan
1741085407.7278147,0.19298964743357194,0.4508293311039952,0.0207609532379925,0.4224785405054273,nan
1741085407.7317185,-0.2844672878024795,0.07313102767802736,-0.0280151888607002,-0.12318550437492887,nan
1741085407.7356522,-0.5758701611361177,-0.5199330149037106,-0.12190143834467501,-0.5792856240668336,nan
1741085407.739556,-0.44015654839477547,-0.9320602645032479,-0.2646354589214143,-0.6192963117523047,nan
1741085407.74346,0.03671977450200795,-0.8353340696910445,-0.34142002065806987,-0.24754913853912247,nan
1741085407.7473638,0.4929131320270428,-0.23605412378961377,-0.2165438681003938,0.21804254510631554,nan
1741085407.7512677,0.5751017791367252,0.5133001374498701,0.11342236877375286,0.4240042760792497,nan
1741085407.7551715,0.22630838524958188,0.966146892950134,0.461641162622523,0.2755168610145896,nan
1741085407.7590754,-0.26743112006868724,0.8934332993036335,0.5654820855540124,-0.01009003657080103,nan
1741085407.7629793,-0.5168762655049722,0.4115833474125516,0.2972186737716411,-0.13062929495539688,nan
1741085407.7668831,-0.3540003921684168,-0.15286113476787855,-0.20388476128277525,0.006980375586106643,nan
1741085407.770787,0.038535237595555515,-0.52290874572267,-0.6039565337051771,0.2015814343504809,nan
1741085407.7746909,0.3048605743807696,-0.6314627957064737,-0.6136070162470227,0.16512796539623328,nan
1741085407.7785945,0.2408108756302244,-0.5725918554187642,-0.2123073452177664,-0.16923303256311023,nan
1741085407.782528,-0.02794240242890485,-0.4332522433557349,0.3233832462057183,-0.5363659901832027,nan
1741085407.7864318,-0.17971520575767438,-0.1946236957695654,0.6190326617019354,-0.5536959901888342,nan
1741085407.7903357,-0.022522777119112634,0.19575767254461576,0.4792668998625636,-0.08654588188045216,nan
1741085407.7942395,0.29439122586689576,0.666771080405831,0.02850906985774727,0.57111360732721,nan
1741085407.7981434,0.3985732050526555,0.9699595245789882,-0.39206633172701605,0.89507973098595,nan
1741085407.8020473,0.05727987117110511,0.8303634544320635,-0.48741834380971955,0.5689311213799682,nan
1741085407.805951,-0.5435400144448963,0.1990078409344221,-0.22475701141584956,-0.21219722904222776,nan
1741085407.809855,-0.8891940626643904,-0.6243649293604392,0.16084052177172156,-0.8584689297622417,nan
1741085407.8137589,-0.5640635153605049,-1.1479076611125665,0.3649386295674143,-0.8557936072873011,nan
1741085407.8176627,0.3347439512630784,-1.0355625729691305,0.2517371377801319,-0.20334094350002627,nan
1741085407.8215666,1.1818322032696935,-0.3714930876583825,-0.0548249178344974,0.5654482925253106,nan
1741085407.8254702,1.276417306409861,0.39115182735318854,-0.2878283494633222,0.8190793265225507,nan
1741085407.8294034,0.4249371557226178,0.7748887369815025,-0.257293527914107,0.36393955342624973,nan
1741085407.8333073,-0.8348632197206216,0.6391640310034137,0.004596285123528096,-0.38194064435648534,nan
1741085407.8372111,-1.5937426980001284,0.2545263516353286,0.28027530335914547,-0.7427030620615266,nan
1741085407.841115,-1.2626818637797044,0.0254577086958719,0.3444487380610029,-0.37607990491481674,nan
1741085407.8450189,-0.049508316088944945,0.10572286496502639,0.1370466814280178,0.408293068879238,nan
1741085407.8489227,1.177144726779493,0.2552799161364873,-0.19779784677140508,0.8959445390194256,nan
1741085407.8528266,1.5459918627451739,0.08360733780174308,-0.42382075305720546,0.5876636971029227,nan
1741085407.8567305,0.844378911400928,-0.5247994644312165,-0.38098475157738326,-0.3364010506284801,nan
1741085407.8606343,-0.3443450406683864,-1.1956209207252806,-0.0876392533890046,-1.1251244752129708,nan
1741085407.8645382,-1.1279491653737566,-1.2989479310873813,0.28219546571532483,-1.0722798000346063,nan
1741085407.868442,-1.0088016189819842,-0.4843278845819981,0.5127574394358868,-0.1302961647878674,nan
1741085407.872346,-0.22961514785541826,0.9243549391368145,0.46890332063751056,1.007284466878619,nan
1741085407.8762786,0.49908715107305074,2.0465657218280837,0.1606620479017418,1.4469028655177156,nan
1741085407.8801825,0.6272014589577664,2.0473137844136935,-0.26694982610318274,0.822116863802308,nan
1741085407.8840864,0.2003476002738783,0.7829554961381132,-0.5996398058290922,-0.3994486863476232,nan
1741085407.8879902,-0.2556560503176038,-1.0248379703247927,-0.647877609372245,-1.2905635478683277,nan
1741085407.891894,-0.26545509711044274,-2.2555608476512843,-0.34274373368667566,-1.2101485163602144,nan
1741085407.8957977,0.14673938797848907,-2.164705380911548,0.20309350067025284,-0.299132549086125,nan
1741085407.8997016,0.4986421790010542,-0.8859505092785325,0.7157547872161384,0.6780186432947808,nan
1741085407.9036055,0.3362983400027517,0.7097430930746765,0.8854411524425161,0.9917482225289338,nan
1741085407.9075093,-0.2930942103491353,1.6663762325932858,0.5537857881524636,0.532610673231013,nan
1741085407.9114132,-0.8365650484640929,1.5885876476892837,-0.1491074451868352,-0.16830724906116182,nan
1741085407.915317,-0.7287864564865834,0.8018566923078253,-0.8342531105064787,-0.46930945046168154,nan
1741085407.919221,0.054642486241734324,-0.033872394060874805,-1.071872168536963,-0.20177708643562295,nan
1741085407.9231534,0.9049394307122697,-0.48012732385066187,-0.6774201254741528,0.2207920186751698,nan
1741085407.927057,1.074231410116437,-0.5735286718707434,0.13483585705823484,0.2522664628070988,nan
1741085407.930961,0.3464309178021018,-0.6141217231237769,0.8649653510564649,-0.2134874057683896,nan
1741085407.9348648,-0.7171705513958735,-0.7507823433506485,1.0552634219981698,-0.7020139933453267,nan
1741085407.9387686,-1.2148428551575396,-0.7890245629684947,0.6083183166883849,-0.6065872188319595,nan
1741085407.9426725,-0.680460875196162,-0.41055946788194597,-0.14418861844246272,0.17972371656501412,nan
1741085407.9465764,0.47371157757968635,0.4166918338652235,-0.6866643595372441,1.0599533219449837,nan
1741085407.9504802,1.2651229167063995,1.2617463143487655,-0.7015369938467257,1.2060846427618332,nan
1741085407.954384,0.9735976250611864,1.508941001856369,-0.2932465344968446,0.3292971243191418,nan
1741085407.958288,-0.2079283968967867,0.8828602615289487,0.12639919881346912,-0.9562130891352031,nan
1741085407.9621918,-1.2907843989656462,-0.25297599649372304,0.2027995830973584,-1.5716775553977682,nan
1741085407.9660957,-1.315553501651672,-1.132704941816925,-0.048162198602279986,-0.9019986338582051,nan
1741085407.9700277,-0.19605851668551544,-1.1990805882654665,-0.25268552195320887,0.587779977550826,nan
1741085407.9739316,1.1593465806147705,-0.5664384759973657,-0.02946822125041119,1.6492383752514916,nan
1741085407.9778354,1.5925878270582174,0.0947498431684292,0.6060810615106114,1.29167884328335,nan
1741085407.9817393,0.6953639176153856,0.18363986378035568,1.1485665347201794,-0.29499768648206043,nan
1741085407.9856431,-0.8021790783549384,-0.24296840847099574,0.9592457494255013,-1.7811782789767547,nan
1741085407.9895468,-1.623925437237972,-0.48497118714439014,-0.16322242729714115,-1.7692907065076282,nan
1741085407.9934506,-1.0462086406540738,0.12744462625281774,-1.6591005519279727,-0.04889062989683882,nan
1741085407.9973545,0.4421656650651785,1.4636656060311684,-2.4613415044453424,2.0629494787212836,nan
1741085408.0012584,1.5234161292236448,2.4638140785850107,-1.7331315299107262,2.6984942842207893,nan
1741085408.0051622,1.1923083137002057,1.906045698367196,0.4142175034051624,1.0202807167247778,nan
1741085408.009066,-0.3169762975603833,-0.46227968951228565,2.792740192853611,-1.906261553888831,nan
1741085408.01297,-1.6588936556271732,-3.387862433940177,3.7983315773840953,-3.7793206506202,nan
1741085408.0169017,-1.517351375003503,-4.769007742365966,2.489891951604907,-2.8585062848058396,nan
1741085408.0208056,0.1843141684031806,-3.1751533546284056,-0.64258290743079,0.5122139903140291,nan
1741085408.0247095,2.078297657564719,0.8835461326354571,-3.811251993959941,3.955222444539071,nan
1741085408.028613,2.4222482959694105,5.002456463006123,-4.975299513526486,4.779331938139151,nan
1741085408.032517,0.6156398568383395,6.388166645194049,-3.1696197439182883,2.097072271401974,nan
1741085408.0364208,-2.12421810221514,3.8339663097427894,0.7589679565310847,-2.342197765394871,nan
1741085408.0403247,-3.5922521609479885,-1.279914446929781,4.546365540410334,-5.345532259478891,nan
1741085408.0442286,-2.3588562692455235,-5.775461426032574,5.852671312695929,-4.652218917619091,nan
1741085408.0481324,0.9456639915586452,-6.77907682450432,3.732096766947624,-0.6757662117682515,nan
1741085408.0520363,3.9405480791103114,-3.6721426780424182,-0.7066857797368606,3.758592084470628,nan
1741085408.0559402,4.262968411725565,1.4993496389912444,-4.900087421400752,5.508070982212539,nan
1741085408.059844,1.4489674874297622,5.442776274753991,-6.350139282673687,3.436724410975549,nan
1741085408.0637755,-2.585706784746728,5.839442170183347,-4.140491360335478,-0.8077573896817941,nan
1741085408.0676794,-4.915715444505025,2.797308287827477,0.48693440859234227,-4.124144450031293,nan
1741085408.0715833,-3.810396599524152,-1.4264845739032452,4.855037028461058,-4.3133752580798586,nan
1741085408.0754871,-0.06268963196351814,-4.119667898056311,6.437846366940702,-1.6200059402672249,nan
1741085408.079391,3.6056414070185054,-3.9348270929071094,4.349685616711923,1.673818499981759,nan
1741085408.0832949,4.605419399211791,-1.566174722426088,-0.15503686671915098,3.162886260659916,nan
1741085408.0871987,2.401220381442852,1.0501200492018994,-4.454536551807464,2.1455192521632056,nan
1741085408.0911024,-1.1873350139461099,2.256112697578072,-6.118977087044632,-0.06497910755175734,nan
1741085408.0950062,-3.48641013325372,1.733184413608329,-4.311705293062978,-1.4642904843358855,nan
1741085408.09891,-3.0350777267470126,0.4166110136792344,-0.20934627206502518,-1.1006974022548686,nan
1741085408.102814,-0.581381303975506,-0.48090302296751675,3.769612445092561,0.24587146292167067,nan
1741085408.1067178,1.7138856696845144,-0.4512346386940657,5.420230130018969,0.9534314005392808,nan
1741085408.1106515,2.1236374000396663,0.07773465106522785,3.998722130298778,0.15427139921928873,nan
1741085408.1145554,0.6985419342892581,0.31772956900912264,0.5407230627300289,-1.4107846580796504,nan
1741085408.1184592,-0.9600217813041595,-0.09460301370048113,-2.874097922489899,-2.0521189998853084,nan
1741085408.122363,-1.2213406714409945,-0.7926482921134341,-4.397512726567549,-0.7310359258449507,nan
1741085408.126267,0.10872255043209941,-1.0636898590488522,-3.4309847975177554,1.8276949478352578,nan
1741085408.1301708,1.6410567658682704,-0.5274113781268738,-0.8132013640670752,3.5560161190659207,nan
1741085408.1340744,1.686917965301205,0.5018760687660829,1.840440185805172,2.733457204101465,nan
1741085408.1379783,-0.15347611867929706,1.2665622654226043,3.15036722573291,-0.4428913160310983,nan
1741085408.1418822,-2.4972080473135376,1.1900065720481925,2.6909768922529116,-3.7802493049214436,nan
1741085408.145786,-3.2586922969514407,0.3361919395493544,1.0390628434186444,-4.68555288320135,nan
1741085408.14969,-1.4373360859523983,-0.6620755651072968,-0.753148074451049,-2.222579801024001,nan
1741085408.1535938,1.891385137197564,-1.1141626937240658,-1.8290085464873895,2.0231383245482113,nan
1741085408.157527,4.269483344048591,-0.7841992639878121,-1.9103373290457466,5.02591395277949,nan
1741085408.1614308,3.7465352707273905,-0.008323321965915008,-1.2427284688924214,4.56605778243407,nan
1741085408.1653347,0.4717791689177968,0.6253391095726932,-0.27635397431531206,0.9177753852412652,nan
1741085408.1692386,-3.3087497436671263,0.7297555260585058,0.6188714984091833,-3.33011833720333,nan
1741085408.1731424,-4.893319979868277,0.34399971034062277,1.2302916800811967,-5.186789473157538,nan
1741085408.1770463,-3.1456053905581913,-0.19125795542218518,1.427258993759293,-3.442122584493066,nan
1741085408.1809502,0.6661646701581738,-0.5339572965065,1.1122538165597498,0.521546921931902,nan
1741085408.184854,3.8435270585575227,-0.5466090504916146,0.3006185432139999,3.8444575859723265,nan
1741085408.188758,4.265866700360651,-0.2876124333153106,-0.7517656775108598,4.316432336419362,nan
1741085408.1926618,1.8823810930378333,0.11452260878129386,-1.5555919913086034,1.8917232460000906,nan
1741085408.1965654,-1.4053107310437862,0.5340920692245857,-1.6230525015091233,-1.474661488472716,nan
1741085408.2004693,-3.281665948027761,0.8180698364867761,-0.810168156067591,-3.4101268453871927,nan
1741085408.2044024,-2.719183664599418,0.7631396670420203,0.49906571245771253,-2.8371734996545173,nan
1741085408.2083063,-0.5526623268560873,0.22396779066809508,1.56067845963059,-0.5525454034639231,nan
1741085408.21221,1.397289108389411,-0.6842769672690396,1.7281789643445291,1.6146712587206724,nan
1741085408.2161138,1.8280267104553773,-1.4956781591443542,0.8936988239796292,2.261891463705736,nan
1741085408.2200177,0.8530009065209233,-1.5993319044775252,-0.4160466327686868,1.3250863935787254,nan
1741085408.2239215,-0.3399322677765184,-0.6822516374966459,-1.3817404735326217,-0.14883576705701015,nan
1741085408.2278254,-0.6502323135447179,0.9127551740312373,-1.440106061223798,-1.0088752963950092,nan
1741085408.2317293,-0.00046744488956576243,2.2601924977621035,-0.6476425600943088,-0.8799776258935267,nan
1741085408.2356331,0.719676440355442,2.40931480214839,0.39803390678430073,-0.2526544691287499,nan
1741085408.239537,0.572350242330656,1.07660042096156,1.0075029505811146,0.143468207778267,nan
1741085408.2434409,-0.5050070285426628,-1.0506129420209442,0.8771008808955159,0.03394560156719556,nan
1741085408.2473447,-1.5945061966666767,-2.686915755331931,0.2476562432069641,-0.24528792291440363,nan
1741085408.2512774,-1.5983056734062169,-2.787777089586898,-0.34452060640554716,-0.18977191567445315,nan
1741085408.2551813,-0.24336601687598047,-1.2683879240814984,-0.5009867371253808,0.31180647604499795,nan
1741085408.2590852,1.586599318139306,0.9264179761258335,-0.2335271407786859,0.8361442052015459,nan
1741085408.262989,2.4987753331853915,2.4623953521203763,0.11597273506244365,0.821725676949271,nan
1741085408.266893,1.7011355032060866,2.5036257456957918,0.20668670951832346,0.12049735836880389,nan
1741085408.2707968,-0.33148379630394664,1.2114599657390257,-0.011543883425376343,-0.8101830708351329,nan
1741085408.2747006,-2.1817010302955335,-0.47283183859994354,-0.2848048501528775,-1.2576333276781968,nan
1741085408.2786045,-2.5513557822379904,-1.546519402595977,-0.30719908146491043,-0.8439360084044248,nan
1741085408.2825084,-1.2252297998605972,-1.600076328555032,-0.006270855559848448,0.15275044567860813,nan
1741085408.2864122,0.8034495054701378,-0.9467887549471165,0.38635217760576174,1.0153846975768044,nan
1741085408.2903159,2.1116998821227067,-0.2139145645714292,0.5340967375627281,1.1523277498879414,nan
1741085408.2942197,1.8981274998784665,0.20269278272484859,0.2874452652249819,0.5368823069780733,nan
1741085408.2981522,0.5021575427327905,0.3642212643338456,-0.18277654970836005,-0.3218485130888994,nan
1741085408.3020558,-0.9568318381006313,0.5606129044083756,-0.522367170971523,-0.8160267202239231,nan
1741085408.3059597,-1.4758689608630717,0.8984159135243223,-0.48221600504058343,-0.6988202919609314,nan
1741085408.3098636,-0.8795609627560624,1.115905396706049,-0.11516618791052032,-0.20189831933107275,nan
1741085408.3137674,0.1680179984140958,0.8084894948863884,0.2789660456298069,0.2351972837436484,nan
1741085408.3176713,0.7830063157851623,-0.1375852601096269,0.4060682489476232,0.346790839496569,nan
1741085408.3215752,0.5700490114346983,-1.3076587659496952,0.2117577032807344,0.20301199405780834,nan
1741085408.325479,-0.13511060220285215,-1.9666750066597438,-0.09542081047286514,0.05452071417231063,nan
1741085408.329383,-0.6256551491341227,-1.5837346160557495,-0.23980193826476542,0.051978983537596654,nan
1741085408.3332868,-0.44165535105211245,-0.26458242844081487,-0.11773840037938821,0.11780594649184536,nan
1741085408.3371906,0.26531052175810527,1.261251751742588,0.12461704173366227,0.07252999094443023,nan
1741085408.3410945,0.8862268807066667,2.107737066825205,0.2344936357019259,-0.13620938924426496,nan
1741085408.3450265,0.8656277392213385,1.8126022261002572,0.08536544408903832,-0.3459082223758423,nan
1741085408.3489304,0.14630370234106105,0.6119352731234774,-0.20530075259141725,-0.32815135062903444,nan
1741085408.3528342,-0.7886463236740983,-0.7641435293037713,-0.3750742878633277,-0.03027868622588242,nan
1741085408.356738,-1.2808338033363782,-1.5895268232728699,-0.24606990513689972,0.33375224021743527,nan
1741085408.3606417,-0.9721559970467576,-1.561171098538032,0.11283441585946584,0.45028270900497813,nan
1741085408.3645456,-0.04319898778962348,-0.8757958138551791,0.43092862434822893,0.1915618724896022,nan
1741085408.3684494,0.9294907091565785,0.012352183794712014,0.45222653008923264,-0.24365423026665736,nan
1741085408.3723533,1.3634126520321304,0.7100908473303634,0.14458571495563272,-0.47971022792542967,nan
1741085408.3762572,1.0270525687559977,1.0452578350712958,-0.2703161491965385,-0.2886350781186707,nan
1741085408.380161,0.145780319647915,1.0207111200693928,-0.4891914019811276,0.19329728706727817,nan
1741085408.384065,-0.7707630570905623,0.6945268292530662,-0.36069928594338074,0.5586677639673074,nan
1741085408.3879688,-1.2376002516992317,0.13723711024486301,0.0053620949269322735,0.4673540651173791,nan
1741085408.3919005,-1.0481323720086049,-0.5135474971968721,0.33316609716325785,-0.05320542575092672,nan
1741085408.3958044,-0.3494692845367763,-1.0129076258325906,0.39597084842432767,-0.6072140179874245,nan
1741085408.3997083,0.46896915282273766,-1.092562857297845,0.17874780149814476,-0.7411208738733293,nan
1741085408.4036121,0.9923090768945041,-0.6457991125322267,-0.13108589961945724,-0.31338702839635757,nan
1741085408.407516,0.9877769026920016,0.13967973795394623,-0.3022082756585386,0.3817003876788278,nan
1741085408.4114199,0.5062597489355316,0.8456839546548727,-0.2327411355987045,0.8382122246882376,nan
1741085408.4153237,-0.1651435331296651,1.0757222171068472,-0.007135460702123975,0.7271892725368408,nan
1741085408.4192274,-0.6708180863956329,0.720120410923823,0.19088756548292948,0.1378693513203023,nan
1741085408.4231312,-0.7823003844949246,0.02981468012827918,0.2248387443066398,-0.5098706653019809,nan
1741085408.427035,-0.5100886912983162,-0.5627999181200415,0.09473858928839522,-0.792685292245813,nan
1741085408.430939,-0.06683922862760132,-0.7400194415787948,-0.08614467621298233,-0.5801860085793104,nan
1741085408.4348428,0.2882708953761792,-0.489211099649384,-0.18950560593851323,-0.0804905053067539,nan
1741085408.4387743,0.4138268488166334,-0.05876393154628526,-0.1602730284607317,0.36365838029169806,nan
1741085408.4426782,0.34529253973657414,0.2584813391324252,-0.036147048148746926,0.5320972219673931,nan
1741085408.446582,0.21762142977312074,0.32764080688114483,0.09674569875125376,0.43216023983834906,nan
1741085408.450486,0.1275795150504107,0.21203629063624707,0.16435810835895842,0.20734580456642096,nan
1741085408.4543898,0.05722908784496343,0.05761805942074471,0.139317006547723,-0.021439032749157004,nan
1741085408.4582937,-0.07738277741070258,-0.045509008114639676,0.04184072224487581,-0.22268662956994278,nan
1741085408.4621975,-0.3022679431566903,-0.09970030821618317,-0.07665891739667698,-0.3917695364998508,nan
1741085408.4661012,-0.5086545014270542,-0.13013392334881324,-0.15410315949022607,-0.46439422124816004,nan
1741085408.470005,-0.5097989567076475,-0.11296661454747087,-0.14303398560599567,-0.3320071101485911,nan
1741085408.473909,-0.19965223093563778,0.0034911594054090585,-0.04037137510880609,0.03363261546798144,nan
1741085408.4778128,0.31842281218546664,0.20235360870929292,0.09607607542831405,0.47539759323823017,nan
1741085408.4817166,0.7556187488388295,0.34360663446356204,0.17046792326316804,0.7038943280418609,nan
1741085408.4856503,0.8189561366461208,0.2459966916847526,0.11385622542870867,0.5077689767552449,nan
1741085408.4895542,0.4224635453982157,-0.13492455603583461,-0.04972522290143308,-0.04394550440967728,nan
1741085408.493458,-0.2335228327317568,-0.5939705844968,-0.19778470474361645,-0.6002902662322712,nan
1741085408.497362,-0.7810704366274343,-0.7692704667548184,-0.19101703351547736,-0.7669749551855937,nan
1741085408.5012658,-0.9177581674359379,-0.4140826109937369,0.006250835419166063,-0.41289902898569714,nan
1741085408.5051696,-0.5876224957362423,0.3565447737380585,0.2663959886668287,0.20836892495918216,nan
1741085408.5090735,0.008813006232333673,1.0695154850348254,0.37002142949046934,0.6398287194080245,nan
1741085408.5129774,0.5607656425912537,1.194893468829988,0.17687212277593325,0.5739822804140755,nan
1741085408.516881,0.8281400181484954,0.5451034350146022,-0.23234142141466346,0.09436401098772089,nan
1741085408.5207849,0.7365495599861512,-0.5362543287811888,-0.5733516058107179,-0.3959413760169876,nan
1741085408.5246887,0.3579508909965159,-1.3685639236567975,-0.5520543633667451,-0.5050587015967394,nan
1741085408.5285926,-0.16026128380770102,-1.3952278525837574,-0.10361060496402537,-0.17138919384234846,nan
1741085408.5325263,-0.6440177081570235,-0.5796812539200851,0.5138993383071891,0.2934982711741873,nan
1741085408.5364301,-0.9099696001776018,0.5604633314381154,0.8698616189403591,0.4735949812052723,nan
1741085408.5403337,-0.8022099968314305,1.3110736844533915,0.6678675551574619,0.2032921364239511,nan
1741085408.5442376,-0.2821058074195407,1.2478909400202831,-0.014958895389213306,-0.2899633907137335,nan
1741085408.5481415,0.47775217775612266,0.49805846302870066,-0.7487324127836789,-0.5756858782178471,nan
1741085408.5520453,1.1038652573324277,-0.3974555411323088,-1.0368553217445706,-0.3842616292608284,nan
1741085408.5559492,1.1988614032365994,-0.8916303776952703,-0.6678496369320595,0.1599416041728756,nan
1741085408.559853,0.6100689968754247,-0.7920673881542691,0.1266283046855847,0.6315817084496816,nan
1741085408.563757,-0.40142752429353296,-0.3219475031611286,0.8290279676156006,0.6471922299942102,nan
1741085408.5676608,-1.2567876304111165,0.12122274509381477,0.995493471583524,0.17573411343625095,nan
1741085408.5715647,-1.407284873384806,0.2848290951354723,0.5547552790879374,-0.43550100287670557,nan
1741085408.5754685,-0.7148281984831257,0.20543179616023421,-0.1666730414870989,-0.735675163637874,nan
1741085408.5794017,0.41578497446917295,0.09749955280113971,-0.6967506942597254,-0.5186911400428539,nan
1741085408.5833056,1.2783485245024822,0.12080452706149787,-0.7475718304133109,0.03280614470721983,nan
1741085408.5872095,1.3338619499538917,0.24000439478507618,-0.37999014616464394,0.5096137088484554,nan
1741085408.5911133,0.5779256847187139,0.28361326804299297,0.09612799616624886,0.5975588071024425,nan
1741085408.595017,-0.4622530343710247,0.1259157414225149,0.378910297741579,0.29628479873281544,nan
1741085408.5989208,-1.103210945921421,-0.18291134217478877,0.3766911587499,-0.12375347083445681,nan
1741085408.6028247,-0.9793630529500341,-0.4509446731381135,0.2135321375515729,-0.3626614225333805,nan
1741085408.6067286,-0.27114544810875235,-0.5015754772092023,0.06984301603637441,-0.31664837188141415,nan
1741085408.6106324,0.46813743450339573,-0.30875046420754587,0.017491398006711806,-0.11197473646074182,nan
1741085408.6145363,0.738923805518816,0.0013658351961893707,-0.009794017244795105,0.04983996896003094,nan
1741085408.6184402,0.4455971540485317,0.26603097223527156,-0.105598731738984,0.07640239192281213,nan
1741085408.622344,-0.08380427020847861,0.4022647052694234,-0.26157518509969574,0.03548465381813438,nan
1741085408.6262767,-0.3965093534919792,0.4233434504802181,-0.3503972076007395,0.04743729927729013,nan
1741085408.6301806,-0.27847632153791707,0.3633054689874147,-0.2407504656892843,0.14009214622353613,nan
1741085408.6340845,0.10326281639967215,0.20894951795978714,0.062210928193458394,0.21172582008130533,nan
1741085408.6379883,0.37259247559561826,-0.07551439434434944,0.38550342504599333,0.13620408232439815,nan
1741085408.6418922,0.2709099222128999,-0.45133676402441164,0.5060248813688126,-0.09426182415568464,nan
1741085408.645796,-0.1323543538082256,-0.7472556115414057,0.3248004118012673,-0.33074919391845115,nan
1741085408.6497,-0.5061947863699767,-0.7342371676369515,-0.048074256321475155,-0.3795111614654465,nan
1741085408.6536038,-0.5326627650744417,-0.3051472320431759,-0.371013672639602,-0.1700677424265903,nan
1741085408.6575077,-0.16077194672776454,0.3850031612140523,-0.4489886235765553,0.17025595558328707,nan
1741085408.6614115,0.358018666542744,0.960203145473074,-0.2684765724268657,0.40614907730254124,nan
1741085408.6653154,0.6665413801180468,1.0526512993012842,0.013971496144846256,0.3764490709857513,nan
1741085408.6692193,0.5647072811325621,0.5652414200741298,0.20862957216143094,0.11659046877640768,nan
1741085408.6731515,0.13680522274683543,-0.2353468680116408,0.23405805355457798,-0.1783299815949644,nan
1741085408.6770554,-0.3351541978578197,-0.88086340084676,0.1496786466588607,-0.3130541500063839,nan
1741085408.6809592,-0.5816298640888211,-1.0104304722617279,0.06840915381597007,-0.2370338052822625,nan
1741085408.684863,-0.510917759894116,-0.6017913645365216,0.04193809106835881,-0.05835417250752563,nan
1741085408.688767,-0.22299143828831453,0.040975140098160695,0.025845287220133285,0.07095891835150966,nan
1741085408.6926708,0.10242124290185158,0.5220340767633846,-0.05053494898604361,0.0871110980883319,nan
1741085408.6965747,0.3306861924972959,0.6241605191334668,-0.18540813341537127,0.04818886263244917,nan
1741085408.7004786,0.41758604372584557,0.4151581937799058,-0.27969129822856686,0.05069266474978597,nan
1741085408.7043824,0.37367103476239666,0.13314179560868203,-0.2181976233539944,0.1179927677836385,nan
1741085408.708286,0.21636840683011282,-0.03038965543500209,0.01352647806087965,0.17052421537758164,nan
1741085408.71219,-0.031446091804734316,-0.06439599004593452,0.2869797354906413,0.10621363299163472,nan
1741085408.7160938,-0.3058595546749825,-0.09290930387281197,0.4124907844086227,-0.08628034202556813,nan
1741085408.720026,-0.48995128455983444,-0.21422098018949723,0.285298558011425,-0.2916906309381351,nan
1741085408.72393,-0.4671212090148953,-0.38121019011910673,-0.0244913860798629,-0.350188974477874,nan
1741085408.7278337,-0.21110320452761608,-0.43170881262327687,-0.31596655886002983,-0.1901398818464693,nan
1741085408.7317376,0.16658049436624617,-0.23900183994633073,-0.40314968940906143,0.10366292501444183,nan
1741085408.7356415,0.46775406506723866,0.15379076560829893,-0.24672924916377154,0.34691320352746646,nan
1741085408.7395453,0.5318343689471426,0.5363149587310969,0.029802661485085515,0.39102369256220454,nan
1741085408.7434492,0.34057464742697613,0.6730508751261745,0.24392843047027288,0.2252486887213806,nan
1741085408.747353,0.021106182381741674,0.4709540691441662,0.2867027370984889,-0.03232708548717385,nan
1741085408.751257,-0.2525373094073157,0.04181256971962435,0.17948302593611326,-0.2351894575397035,nan
1741085408.7551608,-0.3762369804343926,-0.38116156243633137,0.024170448365038743,-0.3075549429171642,nan
1741085408.7590647,-0.35774155186735745,-0.5976266235611417,-0.09215026145449766,-0.26419605277967956,nan
1741085408.7629683,-0.26220741242591034,-0.5465691639348371,-0.14924786620378114,-0.15494970045173306,nan
1741085408.7669003,-0.12775525602762058,-0.3017181666202564,-0.16807963739972848,-0.006675775746814705,nan
1741085408.7708042,0.05939405478242325,0.01088535626701415,-0.15304052092367812,0.1738697300336169,nan
1741085408.774708,0.30490245187219545,0.2890736866634936,-0.07530841274809476,0.34760346371446443,nan
1741085408.778612,0.5286859408401526,0.47135953998634605,0.07951234911541219,0.4154628385237866,nan
1741085408.7825158,0.5683971981468018,0.5129550955117778,0.2526633870314946,0.27345215319108956,nan
1741085408.7864196,0.29528812649771263,0.37808394439514637,0.3197688913648882,-0.07803090587506432,nan
1741085408.7903235,-0.2393277263547002,0.07571418760507434,0.1835880928747116,-0.47314663074272706,nan
1741085408.7942271,-0.7644205595258097,-0.29738819379983233,-0.11932390159541144,-0.6526635824989031,nan
1741085408.798131,-0.9293789900095933,-0.5698351114010394,-0.4034975406000399,-0.4453732575553411,nan
1741085408.8020349,-0.5515846769643143,-0.5859479863324089,-0.45142361039373957,0.07460933358160612,nan
1741085408.8059387,0.2100957650893186,-0.31735622592421797,-0.1864067090362366,0.5957581676227174,nan
1741085408.8098426,0.9099534694397468,0.09683433207993111,0.24010390106405777,0.7661712850378298,nan
1741085408.813774,1.0926435453731842,0.4284317060669886,0.5354198207438515,0.44855814894832247,nan
1741085408.817678,0.6114000288063687,0.5088796013602915,0.47735002133378784,-0.16142722141198496,nan
1741085408.8215818,-0.2460712462953772,0.3370418515784021,0.09045058678755662,-0.6573633129512625,nan
1741085408.8254857,-0.932600352147353,0.06275968038638809,-0.3585964462662225,-0.7066672667289677,nan
1741085408.8293896,-1.0088393494457972,-0.13762204353405047,-0.5539463509938599,-0.2891887470524373,nan
1741085408.8332934,-0.44616274680529927,-0.1902173103200357,-0.3669251560015754,0.29022120799941875,nan
1741085408.8371973,0.3542759670787065,-0.1536818097938619,0.049511685067614046,0.6258543806361626,nan
1741085408.8411012,0.8445575029660205,-0.13485264143870912,0.3837016752908782,0.5036499249983204,nan
1741085408.845005,0.7142657223695043,-0.1733007003681965,0.4077018013378136,0.04465794882417914,nan
1741085408.848909,0.10079755308042908,-0.2017587361362398,0.14582534016960516,-0.4005929707444388,nan
1741085408.8528128,-0.5231031715850639,-0.11765054662989206,-0.1625275210916744,-0.5175516348208189,nan
1741085408.8567166,-0.6989867905602798,0.10174656525766139,-0.26908330804190544,-0.2497925790039861,nan
1741085408.86065,-0.3137497019371049,0.3496856482705626,-0.11879638708258505,0.18075790476696996,nan
1741085408.864554,0.32612540835638765,0.4580388189143887,0.11764553930273802,0.45448647515104224,nan
1741085408.8684578,0.7258191291184316,0.3298563570080707,0.2024479157043444,0.388231728772365,nan
1741085408.8723617,0.5667355844064216,0.02338043545555179,0.04263806232800028,0.05070789153936538,nan
1741085408.8762655,-0.05993349669146299,-0.28579256836800215,-0.22493822329585456,-0.30950959201913797,nan
1741085408.8801694,-0.715673957500547,-0.43313924581886715,-0.34755273964123545,-0.4509644261739633,nan
1741085408.8840733,-0.9242350793242659,-0.37618450482482213,-0.17435900486291198,-0.297975764953394,nan
1741085408.8879771,-0.5066087565527116,-0.19894610111512354,0.20391799343239123,0.03133751830306698,nan
1741085408.891881,0.29177650722440973,-0.017598276601541115,0.5112326836891131,0.32455173773099016,nan
1741085408.8957849,0.9639056397062863,0.1182337309538837,0.4963024962531243,0.415514494607973,nan
1741085408.8996885,1.0757067443924684,0.23653826653336132,0.13057925513260696,0.27202219010748224,nan
1741085408.9035923,0.544214652964037,0.3634049049577893,-0.3606217658819758,-0.008071045067899907,nan
1741085408.9075258,-0.31865416419512615,0.44269680430600555,-0.6557969881474677,-0.2675010664136148,nan
1741085408.9114296,-1.0105016517448435,0.3518973137735107,-0.5614210040024521,-0.37474312209166283,nan
1741085408.9153335,-1.14543443807641,0.020477611555746407,-0.13753025064047447,-0.28297635417366007,nan
1741085408.9192374,-0.6679158784484436,-0.4515211429214149,0.35608675645511284,-0.046491228731368524,nan
1741085408.9231412,0.14300176426411856,-0.8002051277766984,0.6382100595099951,0.20630597299979533,nan
1741085408.927045,0.8549020615292283,-0.7604181758931783,0.5747701123471979,0.3356152731196653,nan
1741085408.9309487,1.120930064749343,-0.27545258637877695,0.23184166155979047,0.26700921940415295,nan
1741085408.9348526,0.840064096624297,0.4168029769351716,-0.1952249087937913,0.04261888231795471,nan
1741085408.9387565,0.1739384996451546,0.9122678877623273,-0.5034059408700511,-0.1936834045132448,nan
1741085408.9426603,-0.556162880415773,0.9080556147083088,-0.5722918105959458,-0.28360126581200185,nan
1741085408.9465642,-1.0205672385593831,0.41424996282214643,-0.39121827897328354,-0.1656488224243037,nan
1741085408.950468,-1.014116786332239,-0.25289932199966003,-0.04258103181329121,0.07064333330673185,nan
1741085408.9544013,-0.5337361022823593,-0.6949858911009853,0.33003846104138856,0.24018469878176144,nan
1741085408.9583051,0.21476019944477717,-0.7034832695251743,0.5639075341942255,0.19989467871538727,nan
1741085408.962209,0.8880461022872344,-0.37553947640487234,0.5384357195663408,-0.031821694217882224,nan
1741085408.9661129,1.1476898308618633,0.003470393265646403,0.2442778392535692,-0.2738348014349847,nan
1741085408.9700167,0.8302596672695179,0.20149435832359783,-0.18485069356644226,-0.3145524562873775,nan
1741085408.9739206,0.0614616569244845,0.20352507716809567,-0.5230599344477102,-0.08388992125152547,nan
1741085408.9778244,-0.7711303057295791,0.1708612035386279,-0.5788487618895792,0.2722050907839747,nan
1741085408.9817283,-1.2074559527264643,0.24747219279678745,-0.3214785845625739,0.48546233844820663,nan
1741085408.985632,-0.9806768001507606,0.39529947432715973,0.08895768312339747,0.36679931072973126,nan
1741085408.9895358,-0.19861278979684588,0.4125815515407037,0.40355029548680943,-0.03727513473674088,nan
1741085408.9934397,0.6931395534448898,0.1269097772041638,0.45269715939056954,-0.4608207935609917,nan
1741085408.9973435,1.1692324746997775,-0.4043943835734985,0.25545229357729876,-0.6047820608391034,nan
1741085409.0012763,0.9517448044199285,-0.8727730184147561,-0.014193636334096822,-0.3569040156361397,nan
1741085409.0051801,0.19047807427316832,-0.9197950840995035,-0.17455003508610653,0.12194440164445541,nan
1741085409.009084,-0.6330408816292099,-0.41707209504430975,-0.1739303514087563,0.5121805812891282,nan
1741085409.0129876,-1.0200233676862955,0.3975980888191259,-0.10497228535018148,0.5644965612294437,nan
1741085409.0168915,-0.7741875419782324,1.0492304335529268,-0.09001321646720724,0.27127995473186906,nan
1741085409.0207953,-0.10812548637513614,1.138146352440816,-0.14731038103726354,-0.14380885640737368,nan
1741085409.0246992,0.5287821308461794,0.610122961231415,-0.16704941298037165,-0.4009301493745956,nan
1741085409.028603,0.765688642713839,-0.21226286624419768,-0.02692239782810253,-0.3644388592896449,nan
1741085409.032507,0.5378470707375643,-0.8541838367668023,0.2563545122877849,-0.11962286555950778,nan
1741085409.0364108,0.07548127675274705,-0.9982714744400139,0.48984999169885707,0.119063017221629,nan
1741085409.0403147,-0.307595436982431,-0.6572594536670044,0.44093265622861944,0.18313641912608644,nan
1741085409.0442185,-0.4406545478891203,-0.10541748425148635,0.04923973458159576,0.06918906445983761,nan
1741085409.0481508,-0.3639729838969894,0.348431275057514,-0.4706747752289333,-0.0811379677448354,nan
1741085409.0520546,-0.2151705034337789,0.557086700786724,-0.7498005789000417,-0.11012501855366179,nan
1741085409.0559585,-0.06863396679325255,0.5621541220341857,-0.5400157367351212,0.026540061868019958,nan
1741085409.0598624,0.11032265985504759,0.4690368598699548,0.06787460913496049,0.2266728176544427,nan
1741085409.0637662,0.3594285825908445,0.31111036136234427,0.6724787965960202,0.32073426676776295,nan
1741085409.06767,0.584970806892804,0.03666350313034553,0.8400027851830997,0.19767642162551624,nan
1741085409.071574,0.566321613820473,-0.37457987598962145,0.43126487262798824,-0.11176964627213663,nan
1741085409.0754778,0.14228712306187744,-0.7900303974377525,-0.27759318996716525,-0.44450667807945204,nan
1741085409.0793815,-0.5679094510290823,-0.9411504114159863,-0.7860134622175885,-0.5950630090464291,nan
1741085409.0832853,-1.134409012473598,-0.6060862761995802,-0.7354720473781712,-0.43241277584357496,nan
1741085409.0871892,-1.0744868092389708,0.1708157572438507,-0.17416585799389997,0.015849289272469,nan
1741085409.091093,-0.24575999663645878,1.013900607149656,0.4826537924300784,0.5531317468907123,nan
1741085409.095025,0.9396152904977093,1.4017309292260645,0.7650429966166438,0.8909204889623036,nan
1741085409.098929,1.7065255232180645,1.0092708416494278,0.4929043751363919,0.7929213214273536,nan
1741085409.1028328,1.4396052108471902,-0.0278563630500403,-0.10698493915049145,0.22594991383801852,nan
1741085409.1067367,0.1741316963487294,-1.13609111902929,-0.5891534646925484,-0.5706871702921242,nan
1741085409.1106405,-1.3376297708365708,-1.6351690112028225,-0.6256369239904982,-1.1683218061532779,nan
1741085409.1145444,-2.091283926851107,-1.1776382064989672,-0.23059020096376973,-1.1766594797820449,nan
