timestamps,TP9,AF7,AF8,TP10,Right AUX
1741085794.827207,0.6321998746684352,0.21774247519090648,0.2954745580849359,-0.013348292516162303,nan
1741085794.8311117,0.5530661032942343,0.4591074100131914,0.5400785224927214,-0.18099478893287213,nan
1741085794.8350163,0.20871397237683142,0.4475718063522834,0.5333235142541161,-0.1981457129793829,nan
1741085794.838921,-0.19824638953880588,0.14984709432512938,0.2628352573798693,-0.023143884482066748,nan
1741085794.8428257,-0.4658389246548366,-0.26001462476508247,-0.1442437056977108,0.2220346588948514,nan
1741085794.8467302,-0.4948345014439457,-0.5135100657186774,-0.4841663527908635,0.34549139556097536,nan
1741085794.8506348,-0.3113229219449197,-0.44533829339303105,-0.5847537230385709,0.23700038530324524,nan
1741085794.8545394,-0.021668329167875266,-0.11952519061866282,-0.3978040863618765,-0.04374485829147677,nan
1741085794.858444,0.25107116291373455,0.22177563248781249,-0.023860630580675134,-0.3103973036842403,nan
1741085794.8623486,0.40999471740099863,0.3493753923616256,0.3436693854165747,-0.3876577892113223,nan
1741085794.8662531,0.40184092912755975,0.22289767893619744,0.5228345636697972,-0.2349068250992243,nan
1741085794.870158,0.2259704273798072,0.006164482897233011,0.4376766201963125,0.03560548646478426,nan
1741085794.8740811,-0.05699703611640931,-0.08915376184125934,0.1517579573073534,0.25063121589253584,nan
1741085794.8779857,-0.33090797753406576,0.004097400093316152,-0.1751276722075084,0.29917234026938583,nan
1741085794.8818903,-0.46324862308076875,0.14936975302385327,-0.3791934893165897,0.1935250947265898,nan
1741085794.8857949,-0.3727853868361795,0.13655030719196487,-0.37913652142229115,0.03333559909642367,nan
1741085794.8896995,-0.08747671298176643,-0.10900408620121958,-0.20813692336854261,-0.08355419894541885,nan
1741085794.893604,0.2538855833278202,-0.42573198606326906,0.02190243901395223,-0.12587128253544994,nan
1741085794.8975086,0.4710341968785389,-0.5261838724504808,0.1946576872107937,-0.12438717982298968,nan
1741085794.9014132,0.4458286228338139,-0.24087345152239473,0.25151610599247015,-0.11765256692550798,nan
1741085794.905318,0.19332999974548098,0.30644291049000333,0.20485987599340505,-0.10647764860096857,nan
1741085794.9092226,-0.14806557285199987,0.7522475898752232,0.10457792239232228,-0.059132909275947644,nan
1741085794.9131272,-0.40060966076955384,0.7537916686634939,-0.006367626935551009,0.042673847354422235,nan
1741085794.9170318,-0.44814796445015626,0.2598530246407275,-0.10916122637060234,0.1656516975831169,nan
1741085794.9209547,-0.2895594673860993,-0.4262072182974953,-0.1912976956033776,0.2352871787917064,nan
1741085794.9248593,-0.01925652484731322,-0.8522832449682599,-0.22206998482076126,0.19037235521379575,nan
1741085794.9287639,0.2384386002179244,-0.7417303107734521,-0.15834785163179146,0.03654419286933451,nan
1741085794.9326684,0.38982024137500926,-0.1895314481628922,0.012223260335247364,-0.1473967989703119,nan
1741085794.936573,0.3943018060272534,0.41735207491843496,0.22721218290797648,-0.2582293306351367,nan
1741085794.9404776,0.25514231961084693,0.6887894446649526,0.35708048247207,-0.23577788231918118,nan
1741085794.9443824,0.0075639708610509985,0.5043851986559628,0.2827128390920733,-0.09936670444633756,nan
1741085794.948287,-0.2786467203675035,0.06753099978857945,-0.0022171710295654378,0.07032528993046216,nan
1741085794.9521916,-0.49617076930219156,-0.282854993521466,-0.3478665023971446,0.18588281788898903,nan
1741085794.9560962,-0.5263525632077576,-0.3381814572660171,-0.5200639776222385,0.2028686176156953,nan
1741085794.9600008,-0.30305249856452804,-0.15204854235929285,-0.35902943510057866,0.1337882646532209,nan
1741085794.9639053,0.11996327919541101,0.04951804274148916,0.08314796234771776,0.026323814207112453,nan
1741085794.9678283,0.5566304576330746,0.08251197648949929,0.5401115386013444,-0.07020985765526651,nan
1741085794.9717329,0.7659526530994237,-0.04461961971431817,0.6910975115515372,-0.12593810195154667,nan
1741085794.9756374,0.5909728102238304,-0.16335577429777176,0.38709049226780484,-0.13240270807763166,nan
1741085794.979542,0.07484036343108705,-0.11604607296981383,-0.2183043026683467,-0.09522527005501573,nan
1741085794.9834466,-0.5323699509653633,0.09321129713845958,-0.7431361417411527,-0.029004543177649035,nan
1741085794.9873512,-0.8991679069838622,0.29905036106523036,-0.8241663048767671,0.04386730138655772,nan
1741085794.991256,-0.8044899468270545,0.3202419266894924,-0.37248392052334184,0.09687645827601989,nan
1741085794.9951606,-0.27779786620833313,0.11854949539767985,0.3462046269066222,0.10942477405973065,nan
1741085794.9990652,0.40549426103709146,-0.1667043821960125,0.8748187514716217,0.07800970686596752,nan
1741085795.0029697,0.8770311759844172,-0.3339674578294122,0.8675080724048215,0.018926060487991028,nan
1741085795.0068743,0.8862040406037265,-0.2813628329348886,0.32382976990948825,-0.041069916837377866,nan
1741085795.010779,0.4409214418267108,-0.07743413031180048,-0.4094882169417672,-0.07915115940407255,nan
1741085795.0147016,-0.20452805124952428,0.11193474311826235,-0.8709600134004093,-0.08501070376461083,nan
1741085795.0186062,-0.7021936207865157,0.16764908571165246,-0.7889066555614528,-0.059731029765232604,nan
1741085795.0225108,-0.8077649161647726,0.10435830200260154,-0.24900480836513458,-0.011078450875141732,nan
1741085795.0264153,-0.5058115617972806,0.03110273704514838,0.382951033596397,0.04685796910877959,nan
1741085795.03032,0.003125681428600988,0.03270071058722162,0.7175399220337391,0.09070843450270377,nan
1741085795.0342245,0.4341931058862748,0.08695979588104531,0.5928423164479191,0.09183525047966033,nan
1741085795.038129,0.5827248080048699,0.09399445488447528,0.15232991960918613,0.03430311593551854,nan
1741085795.042034,0.425168530358989,-0.013311849750951801,-0.28609519364365504,-0.06255893627118139,nan
1741085795.0459385,0.10589859325140376,-0.1854833675761787,-0.45948220365212966,-0.14015597582391526,nan
1741085795.049843,-0.17020405101222658,-0.28361647900171094,-0.3214597020409072,-0.13144869999578776,nan
1741085795.0537477,-0.26681229656530064,-0.19957357407660223,-0.035455170817263224,-0.01430880403076047,nan
1741085795.0576522,-0.18762681207233572,0.0371765907213466,0.17274868482239117,0.15288881410725944,nan
1741085795.0615745,-0.05121608352617706,0.26619607431398135,0.18148064228409178,0.2524279010657768,nan
1741085795.065479,0.008061379706717352,0.3188869462719868,0.03998617377099376,0.1854471513867521,nan
1741085795.0693839,-0.05621335163224898,0.1567252290518461,-0.09707684709579371,-0.04299771373452487,nan
1741085795.0732884,-0.16633777450805404,-0.09353068823699305,-0.10224125923601665,-0.30141825405266653,nan
1741085795.077193,-0.17983275933595866,-0.24074345698783103,0.029247019266697566,-0.40507126865266796,nan
1741085795.0810976,-0.00652500070485185,-0.1838518439867408,0.18549867794020952,-0.24605271868965933,nan
1741085795.0850022,0.2995435048638692,0.008922602024397869,0.23024348872656353,0.11173954237315041,nan
1741085795.0889068,0.5473308681329807,0.16172533517714519,0.1069637307603225,0.4520832823813274,nan
1741085795.0928113,0.5255775546856515,0.14063090797040526,-0.11952013633053749,0.5417035199077727,nan
1741085795.096716,0.15974128693951825,-0.034704711928692004,-0.3078158808283691,0.29388064326070396,nan
1741085795.1006207,-0.40080873333482525,-0.20936561618755029,-0.3346303955303881,-0.15758911197885522,nan
1741085795.1045253,-0.8410563984239263,-0.223590885797036,-0.1739334268090357,-0.5350957911013471,nan
1741085795.1084473,-0.8654421527391292,-0.04530120080180629,0.08844863319193605,-0.5985059064302636,nan
1741085795.112352,-0.39760225722077774,0.2032652289412324,0.3090052739175535,-0.30652097024418234,nan
1741085795.1162565,0.34191083005647854,0.3421367998244016,0.37164107426892146,0.15570834153417654,nan
1741085795.120161,0.9461621877443191,0.27065181101587804,0.25113698642655485,0.5022050702831958,nan
1741085795.1240656,1.0626814785311867,0.035704558725440996,0.02000263854676799,0.535620341490971,nan
1741085795.1279705,0.6131560315374172,-0.21431149747740297,-0.2000882349165427,0.2680971072587639,nan
1741085795.131875,-0.15333651965683,-0.34112552788823164,-0.3088003994258023,-0.10544005723755738,nan
1741085795.1357796,-0.8116726259388175,-0.3007688859869304,-0.2761696790528803,-0.35263108568480805,nan
1741085795.1396842,-1.0182754405091392,-0.14421447381966132,-0.14399439528580676,-0.35752030049646105,nan
1741085795.1435888,-0.7066509119809117,0.04443377618148732,0.01386298152378795,-0.17617802289505735,nan
1741085795.1474934,-0.09902922172724649,0.205111089598942,0.13938823361846808,0.03254363673556956,nan
1741085795.151398,0.458708360251482,0.30881380672288605,0.21212277169832386,0.1355812364056587,nan
1741085795.15532,0.713870635602687,0.3294771666814827,0.2347691156142925,0.11276563877603323,nan
1741085795.1592245,0.6281112943924573,0.23237341027282735,0.2045069910977062,0.044533536499280914,nan
1741085795.163129,0.3394414286835088,0.007599142821789635,0.10431044763642303,0.02400707592253207,nan
1741085795.1670337,0.023233652624780304,-0.28088245624950703,-0.07089204576006335,0.0723944146770118,nan
1741085795.1709383,-0.22496360864847745,-0.49233730389086233,-0.27551656037734956,0.12574032880358924,nan
1741085795.1748428,-0.40007221366165796,-0.4825745080751539,-0.4064069474493853,0.0982306127951763,nan
1741085795.1787474,-0.5098033219187798,-0.21191247617138098,-0.3542283218907934,-0.034712060321635874,nan
1741085795.1826522,-0.505209940047287,0.19936113798745803,-0.08983036883493188,-0.20355361869998928,nan
1741085795.1865568,-0.30296969787418276,0.5267609157633469,0.28020667739644606,-0.2896548035009885,nan
1741085795.1904614,0.10978951639904537,0.5816889931642008,0.5482985772816147,-0.2138305401748403,nan
1741085795.194366,0.5879227789724912,0.33671828616757443,0.5291618700215488,-0.0007513380765657468,nan
1741085795.1982706,0.8625771879742803,-0.058034378074879704,0.19556361578525486,0.22981973776715342,nan
1741085795.2021923,0.7075293843167815,-0.3796057423045406,-0.27614389193743705,0.3397198891133629,nan
1741085795.206097,0.12698206957045333,-0.47757588782825156,-0.6008847479833224,0.2631753426459361,nan
1741085795.2100015,-0.5894087668858067,-0.3529031603540148,-0.5691799814613077,0.04911820185513862,nan
1741085795.213906,-1.0170520214386822,-0.12231867800447209,-0.19522428002573686,-0.17255280125564207,nan
1741085795.2178106,-0.8711968656822167,0.08647767664200195,0.2825189756739841,-0.2760879458728287,nan
1741085795.2217152,-0.2159922744666162,0.21587034074879377,0.5580931783768712,-0.2183325965053813,nan
1741085795.2256198,0.5534003618144374,0.2772937431163991,0.46582996073063815,-0.059168872027658866,nan
1741085795.2295244,0.9610605615136357,0.2905512250471103,0.09080257054169136,0.08690146406147928,nan
1741085795.2334292,0.7668952116637374,0.2378865046524308,-0.2980367484818097,0.13247459876356257,nan
1741085795.2373338,0.12685553958937545,0.08458367196452303,-0.44209131125388285,0.07503464082407076,nan
1741085795.2412384,-0.5194809412145084,-0.15520175975126368,-0.27154461477238717,-0.009154144239228555,nan
1741085795.245143,-0.7552416145120254,-0.3812457797085155,0.060272741458639735,-0.03000404916428962,nan
1741085795.249066,-0.4680422353091362,-0.45257872571154295,0.30391514829713545,0.04042946929311553,nan
1741085795.2529707,0.09128440930182573,-0.29229601543468103,0.29939620291692404,0.13922350097472333,nan
1741085795.2568753,0.5068373473988558,0.03466257669921926,0.08031443182895602,0.15749203861789624,nan
1741085795.2607799,0.5005017251758125,0.3458360631851548,-0.1725435209357323,0.03061501142165002,nan
1741085795.2646844,0.11792447547301178,0.4609633794112423,-0.2786869531232853,-0.19352123037693905,nan
1741085795.2685893,-0.3288548162592997,0.32758832847931485,-0.18586377085522165,-0.36721145413970036,nan
1741085795.2724938,-0.505294655953926,0.052905460142754386,0.013973110619164508,-0.3398605605382577,nan
1741085795.2763984,-0.29602282477196684,-0.1832073748467945,0.17602065018853347,-0.07631868679781693,nan
1741085795.280303,0.12989584850303487,-0.26197615836583454,0.21432240216691292,0.2926192960784669,nan
1741085795.2842076,0.4626645286822771,-0.1980456348154581,0.14429487325145376,0.5371953414387216,nan
1741085795.2881122,0.4820524185768295,-0.0976753841918876,0.037515794527519915,0.4792319499040182,nan
1741085795.2920167,0.20014490913255392,-0.04895619359180705,-0.05298742173109544,0.12433892412798693,nan
1741085795.2959397,-0.17580331372573055,-0.04576460484393461,-0.12316753105947885,-0.3238343820392699,nan
1741085795.2998443,-0.41073196707692544,-0.011628307861944487,-0.18422061057596748,-0.5885424211480488,nan
1741085795.3037488,-0.4005728421195625,0.10410382613623136,-0.2130346864516769,-0.5038799500536112,nan
1741085795.3076537,-0.20987472609038205,0.2528246949746299,-0.15156525611752933,-0.1288378240083109,nan
1741085795.3115582,0.015896482017400595,0.31105863573335635,0.031653226726433704,0.29242218075527704,nan
1741085795.3154628,0.17113360132791222,0.18770572216267634,0.2749574343965524,0.4982797064848141,nan
1741085795.3193674,0.24257135510585412,-0.08023282824813929,0.42860440609226785,0.38570777648945614,nan
1741085795.323272,0.26726788676838886,-0.3339589331718105,0.3517118497721135,0.0688091393184823,nan
1741085795.3271766,0.2569848241589713,-0.40545314662375403,0.03465385300546337,-0.21819396062795862,nan
1741085795.3310812,0.17278925976167955,-0.24669440340583798,-0.35806173363804383,-0.2958867917945568,nan
1741085795.3349857,-0.022850318841763834,0.032318745217811126,-0.5779396680839357,-0.15988501729895777,nan
1741085795.3388906,-0.28993013638538445,0.24939239367812802,-0.46328364820506895,0.03905981895472561,nan
1741085795.3428133,-0.4941845780333323,0.2882536250923837,-0.0647883045064762,0.1295692127150952,nan
1741085795.3467178,-0.4840637222613204,0.1747345643236968,0.37552029291872885,0.056597992249088264,nan
1741085795.3506224,-0.20990558204479642,0.03261271441463183,0.5849143889813323,-0.08654526800721475,nan
1741085795.354527,0.21268994986924808,-0.034478001640979326,0.4450830864690735,-0.14927141024850973,nan
1741085795.3584316,0.5570828723520412,-0.02719319037001987,0.0662734864957471,-0.05654724415688186,nan
1741085795.3623362,0.627530514620735,-0.02825584069090405,-0.300492075666833,0.12736352132671938,nan
1741085795.3662407,0.3870939213535546,-0.10091950546015577,-0.4419170262730365,0.25362776741324705,nan
1741085795.3701456,-0.02230194627850457,-0.2085884681194119,-0.317206625877419,0.21251302084180806,nan
1741085795.3740501,-0.37947058410240675,-0.23660780422570882,-0.05729542096427129,0.022355805723278437,nan
1741085795.3779547,-0.5254573019146624,-0.1016852337586152,0.15401508106964829,-0.18680742553176558,nan
1741085795.3818593,-0.4435746206867362,0.15091143304399712,0.21369710439453304,-0.27649716598671875,nan
1741085795.385764,-0.2307236770636067,0.35829443425179813,0.14755576263607262,-0.20233581937167608,nan
1741085795.3896866,-0.001101748506592631,0.36170003768091263,0.053105538484002915,-0.03502928671283394,nan
1741085795.3935912,0.1895948236948786,0.1402446296362397,0.0031655686217324885,0.10844789677347476,nan
1741085795.3974957,0.34165390764869114,-0.16024937052476673,-0.0037960921701418243,0.15788910290081376,nan
1741085795.4014003,0.4498634517699128,-0.3350595828637252,-0.014716547108909763,0.12864555696688013,nan
1741085795.405305,0.45734090454639426,-0.2795741107958945,-0.056298797048379035,0.08241312995186609,nan
1741085795.4092095,0.2835182320924314,-0.06723326206002996,-0.10167913050682963,0.0566506294567125,nan
1741085795.413114,-0.0870475080422866,0.11925668726796927,-0.09954796724464945,0.03249372334087307,nan
1741085795.4170187,-0.5338426066875364,0.14442361708502977,-0.03229650172110707,-0.031020809723490243,nan
1741085795.4209235,-0.8258988033528168,0.029947708127796704,0.05774364443215778,-0.13474290583050552,nan
1741085795.424828,-0.7509338754652485,-0.07593499810611669,0.1022589716062522,-0.21574516263670224,nan
1741085795.4287326,-0.26857458090755504,-0.04115811053837529,0.06967900075321572,-0.1926978997209664,nan
1741085795.4326372,0.42433731142045794,0.12225375361235664,-0.0039491146231803295,-0.04361851329919883,nan
1741085795.4365597,0.9770986671977878,0.26039062397190194,-0.04732314191226655,0.15641386692118955,nan
1741085795.4404643,1.077845545538954,0.2119907733107987,-0.02079500652235516,0.2793768584619402,nan
1741085795.4443688,0.6392581421591945,-0.0397886805425111,0.04491797226003007,0.24028388730164163,nan
1741085795.4482734,-0.13876146552360477,-0.3326117588655423,0.07615496119840828,0.06594575798308695,nan
1741085795.452178,-0.8695576823271387,-0.4441093421264015,0.026324422763877947,-0.12347597442302946,nan
1741085795.4560826,-1.1847674119475022,-0.27029167616106725,-0.07608992549810714,-0.2072403225064936,nan
1741085795.4599874,-0.9272096584328268,0.08446900601804107,-0.1476855371986781,-0.15453040147768357,nan
1741085795.463892,-0.22820910946697157,0.38208628817507917,-0.12245600188985287,-0.037880512313281475,nan
1741085795.4677966,0.5652567493450593,0.4303947687565755,-0.011357101371118904,0.038641354710952154,nan
1741085795.4717011,1.0686470744001362,0.22270054118615978,0.1055453002424808,0.03117811691313523,nan
1741085795.4756057,1.0497824922327483,-0.07178680567743455,0.14785678734645977,-0.013226008451742353,nan
1741085795.4795103,0.5378354886282514,-0.25078486095705604,0.10191116779025257,-0.011896463677282546,nan
1741085795.4834323,-0.19870991427501422,-0.2322484361330628,0.024853163060287693,0.06533703874090516,nan
1741085795.4873369,-0.7921621034578876,-0.09504174847565913,-0.016560719955368685,0.15835169702647506,nan
1741085795.4912417,-0.9636973553335721,0.014314864383505266,-0.01247575152501771,0.167084812493368,nan
1741085795.4951463,-0.6631067750825304,0.01696442535208252,-0.01543192422750951,0.04683770760280332,nan
1741085795.4990509,-0.08490475450046854,-0.04058452695810904,-0.07658976806596744,-0.13843991567949418,nan
1741085795.5029554,0.44994611576971594,-0.04933741810667304,-0.17436536346548479,-0.25764155424430163,nan
1741085795.50686,0.6796819681527351,0.04511029972243788,-0.21169830023578406,-0.21792793047342626,nan
1741085795.5107646,0.5436671491727846,0.182451163295176,-0.09841679502305577,-0.04415494863103231,nan
1741085795.5146692,0.19349610650033713,0.239168278031866,0.14827114110813713,0.13827807963547442,nan
1741085795.5185738,-0.1295645455510184,0.14269787903356443,0.38157083592651697,0.20491776771251147,nan
1741085795.5224786,-0.2626358424203788,-0.057245451685890424,0.4190029806947927,0.13169089801033598,nan
1741085795.5263832,-0.21503721496613626,-0.22551396378540312,0.18847136423492167,0.0066373484672685445,nan
1741085795.5303068,-0.1240854332623316,-0.25327250877185764,-0.1935811964142047,-0.05511745415650192,nan
1741085795.5342114,-0.11520048495941568,-0.14440020583476218,-0.48728292375638615,-0.01651672542904217,nan
1741085795.538116,-0.18423314039088223,-0.0010210466537165298,-0.4982372604189609,0.05120154396203482,nan
1741085795.5420206,-0.20263602839199313,0.07462748196351486,-0.2209581603612279,0.04145952710467011,nan
1741085795.5459251,-0.04475946334618764,0.06918601865685696,0.15802882817267758,-0.07727400934391257,nan
1741085795.5498297,0.26982110339048637,0.055793634302594736,0.40102676831777057,-0.21654863644704703,nan
1741085795.5537343,0.5483210020327958,0.10496027632102428,0.39080382843357575,-0.23604515629456238,nan
1741085795.5576391,0.5533428970863307,0.19648037409086297,0.1966447121090424,-0.07092959570658039,nan
1741085795.5615437,0.19861403492534555,0.22214757075438468,-0.010505152200513167,0.1934779899331272,nan
1741085795.5654483,-0.3461804821341767,0.0857565610340267,-0.11130788618885008,0.37233047474811126,nan
1741085795.5693529,-0.7418199612503388,-0.18714723958454793,-0.12301219243309397,0.3235437016397549,nan
1741085795.5732574,-0.7109988126057356,-0.43527128910454155,-0.14604811516234897,0.06592850657599764,nan
1741085795.5771792,-0.24707181750424922,-0.4703143169287263,-0.23079739432715812,-0.227723033245012,nan
1741085795.5810838,0.3630404125391938,-0.22681256240104417,-0.2987464059014151,-0.361075211103805,nan
1741085795.5849884,0.7301340143873589,0.17129089712175555,-0.2044924280216116,-0.26293485921998294,nan
1741085795.588893,0.6328409779229586,0.48811976046104094,0.10728032937678589,-0.03302094600875383,nan
1741085795.5927975,0.16743735370871052,0.5402851881845179,0.4952258251008756,0.14969069185705244,nan
1741085795.5967023,-0.3327027534757579,0.3195510043016293,0.6827534365298845,0.17508066168560807,nan
1741085795.600607,-0.5436613436620154,-0.018973577970097726,0.464507055243236,0.08030812895132701,nan
1741085795.6045115,-0.3755948193504281,-0.28382113099615564,-0.10144919496783707,-0.003934206939570243,nan
1741085795.608416,-0.01074344328555435,-0.37880693951954963,-0.6854911314664255,0.014778445346415028,nan
1741085795.6123207,0.26061110156093714,-0.3354593063728371,-0.8960611316567979,0.10224674845534999,nan
1741085795.6162252,0.2668374700128328,-0.23712704431092438,-0.5630863957612504,0.1333289795972006,nan
1741085795.6201298,0.06629120478968112,-0.12160748679667092,0.12132585515081958,0.019154019980120337,nan
1741085795.6240532,-0.13166731263708997,0.039586464627066754,0.7224353094660023,-0.19163046799517228,nan
1741085795.6279578,-0.1552202818371567,0.2686405597373952,0.8625533610903348,-0.33538598227355626,nan
1741085795.6318624,-0.0067062248917380204,0.49616497838941404,0.4804905269717878,-0.26853743914301587,nan
1741085795.635767,0.15896788978690385,0.5647399237186197,-0.13992109637273348,-0.0006487548881212695,nan
1741085795.6396716,0.1822004799479601,0.34368784708385725,-0.5862644386960538,0.29408135023297627,nan
1741085795.6435761,0.0384922649277453,-0.13289051527005574,-0.6093470351216711,0.40561657633849685,nan
1741085795.6474807,-0.14782333187008204,-0.6328624689938576,-0.2733511455917429,0.25447574545705115,nan
1741085795.6513853,-0.21916314587644642,-0.8518659917220258,0.13244995371691476,-0.04325452579680492,nan
1741085795.6552901,-0.12213770245258711,-0.621101806390878,0.331059825782403,-0.2686873096172702,nan
1741085795.6591947,0.053067385524958564,-0.04183494954712526,0.251449297855995,-0.274629889948195,nan
1741085795.6630993,0.15965175703238024,0.5633437941674152,0.03957194902775783,-0.0967001557955968,nan
1741085795.6670039,0.1241893462813133,0.8555009059011197,-0.09624819886318826,0.0898516971016891,nan
1741085795.6709268,0.00299205938546882,0.6944124071523862,-0.06208896064959257,0.1270727347157075,nan
1741085795.6748314,-0.08069339388675048,0.21181563203902526,0.06551915957251392,0.0084768395887058,nan
1741085795.678736,-0.05537052018747815,-0.29863337057873374,0.1326745633905917,-0.12417330067141914,nan
1741085795.6826406,0.035524468761458025,-0.5807027481947887,0.05432638849205601,-0.11570990034741996,nan
1741085795.6865451,0.0827643754417629,-0.5565354122201304,-0.11454274600895457,0.05620548769021333,nan
1741085795.6904497,0.023733548031083247,-0.32438990639594034,-0.23428173849630707,0.2531547023931777,nan
1741085795.6943543,-0.09057662691912297,-0.046530854625581125,-0.2032258248305575,0.29256952295829075,nan
1741085795.698259,-0.14065794871621584,0.16573719638156711,-0.03897145897297712,0.10868819503943677,nan
1741085795.7021637,-0.056427931440217766,0.28630859451070634,0.14404173948902171,-0.18195358399378903,nan
1741085795.7060683,0.10355417988546423,0.3303921154650612,0.23029139706178023,-0.36888225524166407,nan
1741085795.7099729,0.1928466886020497,0.30100057086527615,0.1859485004635577,-0.3164055849381503,nan
1741085795.7138774,0.10977246733899985,0.1851999929768798,0.0655379811194677,-0.07078693090562795,nan
1741085795.7178001,-0.09643351911225824,-0.005177060360943028,-0.04824160859021158,0.1825996745534636,nan
1741085795.7217047,-0.2501644553776672,-0.20481392435966891,-0.10911145486450675,0.27252383143221,nan
1741085795.7256093,-0.19625443580508312,-0.3219828418729733,-0.12284556876890397,0.17413416924213213,nan
1741085795.729514,0.05354495352980146,-0.30423017152552473,-0.11445341996524297,0.011195824811557814,nan
1741085795.7334185,0.3084416001008105,-0.18003799209661142,-0.09103396972852297,-0.06582320548709227,nan
1741085795.7373233,0.3456361155784298,-0.03215345935644616,-0.039278931877346386,-0.013970608582812665,nan
1741085795.7412279,0.10116224026491269,0.07531224895708126,0.045545994707665745,0.07333334312665968,nan
1741085795.7451324,-0.2589438015156754,0.1451344963690268,0.13585930958585998,0.06377178198840402,nan
1741085795.749037,-0.4581486662499525,0.22037040550081372,0.1824133257749694,-0.08135152790992736,nan
1741085795.7529416,-0.3302887024048961,0.30773389173964144,0.1509668966664893,-0.2601097420473382,nan
1741085795.7568462,0.03953804932845994,0.3334013142058281,0.049646214799950725,-0.3115092388861188,nan
1741085795.7607508,0.37592643975869794,0.19240612917743755,-0.07758469064959632,-0.1546346548947904,nan
1741085795.7646732,0.43156223366886803,-0.1364073214522705,-0.18087067384848768,0.13542580335681773,nan
1741085795.768578,0.18445379352958674,-0.5147814842573385,-0.2266148121283668,0.37935344058020215,nan
1741085795.7724826,-0.15057630349892098,-0.6996712911321041,-0.19621570498046023,0.4272342802035206,nan
1741085795.7763872,-0.30623391280710754,-0.5131495757705994,-0.07870232741316414,0.26180548764140393,nan
1741085795.7802918,-0.18700009851362065,-0.0015908922893526976,0.11566682080862815,-0.007666017555622111,nan
1741085795.7841964,0.057983549738087635,0.555676167169694,0.3239893255208713,-0.24136082546510113,nan
1741085795.788101,0.17612137533985156,0.8192927348209076,0.42439927349977474,-0.36240855498894575,nan
1741085795.7920055,0.044351516898926295,0.6265241451282214,0.2961838768871367,-0.3718748845000092,nan
1741085795.7959101,-0.21112692750510678,0.11053830832565387,-0.07128738003409474,-0.2935344663243381,nan
1741085795.799815,-0.319456064830945,-0.39547271627770014,-0.5079027435112545,-0.12518854220139966,nan
1741085795.8037195,-0.11097117553868105,-0.5988110438861171,-0.7222669455040415,0.14092955761348622,nan
1741085795.807624,0.3076364183473246,-0.446116152419971,-0.4932838671553978,0.4486149200819125,nan
1741085795.8115463,0.6102299623976224,-0.12901318861680316,0.12934527734566395,0.6464236236631038,nan
1741085795.8154511,0.5085778299390189,0.09642895475220767,0.78771087852745,0.5611307458091664,nan
1741085795.8193557,0.003598894322199772,0.11909874701006991,1.0183597270730047,0.1427260144252343,nan
1741085795.8232603,-0.5826871933732864,0.037512736480414734,0.5846527451485923,-0.4402815537385504,nan
1741085795.827165,-0.8345940093911248,0.03595871930514449,-0.30430944503845325,-0.8622778000687481,nan
1741085795.8310695,-0.5570190888141897,0.19148824396935338,-1.082907334899137,-0.8455749721535946,nan
1741085795.834974,0.07179394682082291,0.3873225415758676,-1.2020925695893845,-0.36608935324605796,nan
1741085795.8388786,0.6311520575042014,0.4106838434372389,-0.5317612676816031,0.3059368141182684,nan
1741085795.8427832,0.7687783273566634,0.14870508488453077,0.5137488012392677,0.778440553727898,nan
1741085795.846688,0.4472859964676061,-0.29096585031611594,1.24420047225831,0.802767834208922,nan
1741085795.8505926,-0.05979787312638764,-0.6428865942936017,1.1756970473969426,0.4314357895219642,nan
1741085795.8544972,-0.40268834706944234,-0.6792050720953645,0.37261908825875345,-0.049940366532588036,nan
1741085795.8584192,-0.4195657701445542,-0.3750013713685065,-0.6080712680672998,-0.3542733782606569,nan
1741085795.8623238,-0.2199420881452397,0.08803304094677372,-1.1266514246820816,-0.39606251043872537,nan
1741085795.8662283,-0.04002803864605417,0.4686483745525358,-0.9107645034132458,-0.3050463377032478,nan
1741085795.870133,-0.015436059041169445,0.628404175477076,-0.20837060498349871,-0.25626641569727476,nan
1741085795.8740375,-0.07518203977401705,0.5770168801701798,0.4520325328848901,-0.28133877321459916,nan
1741085795.8779423,-0.04156019763724796,0.38961253157746467,0.6794102521304415,-0.23843181349192405,nan
1741085795.881847,0.16749723930017824,0.10611279179715279,0.4761538806417928,0.027987712568576233,nan
1741085795.8857515,0.42766388534916583,-0.27187883629903703,0.1478915899380507,0.4848305147425712,nan
1741085795.889656,0.49852988643255947,-0.6865258856359497,-0.017640534768845337,0.8635487563792132,nan
1741085795.8935606,0.2408304313355844,-0.952390468355366,-0.0016397605318077791,0.8389289410254466,nan
1741085795.8974652,-0.23314096198376602,-0.8291453535314148,-0.01710448089843637,0.3024565969330166,nan
1741085795.9013698,-0.6182216067021093,-0.22318931961782582,-0.23787200926050625,-0.5000660662980267,nan
1741085795.9052918,-0.6467336497957722,0.6482407045253349,-0.5656327299653696,-1.1008584164016801,nan
1741085795.9091964,-0.3010115976189226,1.3109286767242654,-0.6735713396208158,-1.1284454973221731,nan
1741085795.913101,0.17197058594739195,1.323742425588114,-0.30831579581108276,-0.5696319953069225,nan
1741085795.9170055,0.4583773088134573,0.6097794147716094,0.41968887903517876,0.228778424617337,nan
1741085795.9209101,0.4218179503093699,-0.439985184429265,1.0419809441986911,0.8155211529939521,nan
1741085795.9248147,0.189136760897862,-1.205734736257222,1.0704751598020645,0.9409706025648341,nan
1741085795.9287193,0.01004706953480411,-1.2636235350302498,0.4041468299003402,0.6771344113547351,nan
1741085795.932624,0.019470528538145918,-0.6740428161861469,-0.5455262019777989,0.2812992280495852,nan
1741085795.9365287,0.11662251703066692,0.09553506943289732,-1.1407956630308762,-0.04961612769053309,nan
1741085795.9404333,0.07252952385633206,0.5514157927775641,-0.9997160303054984,-0.30708935889429045,nan
1741085795.9443378,-0.22643652421548757,0.5459337599789651,-0.2822942135070078,-0.5790789067412977,nan
1741085795.9482424,-0.6206100654747988,0.3347478488800324,0.4565506120028371,-0.8506952432256799,nan
1741085795.9521642,-0.7639747886484479,0.28084700118711586,0.7228537150077333,-0.9187762384981972,nan
1741085795.9560688,-0.4074142638385962,0.4748801579120824,0.4632428080141538,-0.5399444645687451,nan
1741085795.9599733,0.35015852099931055,0.6218287372099665,0.05174091628852089,0.2959263840431223,nan
1741085795.963878,1.0663292391794195,0.3160002312849296,-0.08968254682534267,1.2231427254294374,nan
1741085795.9677825,1.243239023127387,-0.5238048888244144,0.11082248499059529,1.666958483020378,nan
1741085795.971687,0.6948912491548107,-1.4552274883223817,0.32091572233251625,1.2420716349669467,nan
1741085795.9755917,-0.28896890203851894,-1.7706780645243432,0.14629894392730286,0.08384097494054014,nan
1741085795.9794962,-1.1199643074334438,-1.0474068717735603,-0.44357089100246716,-1.1731550434957942,nan
1741085795.983401,-1.3081364584038275,0.4503261504274677,-1.0108592545987507,-1.7949147700031407,nan
1741085795.9873056,-0.7885883837881681,1.8717086957196964,-0.9945138231779646,-1.4468361261000597,nan
1741085795.9912102,0.05935905214742566,2.344218672701043,-0.22400289538423726,-0.4150195542137799,nan
1741085795.9951148,0.703913005116832,1.5820144847386246,0.8577382977985368,0.6228672214977161,nan
1741085795.9990363,0.8354212963821479,0.06858424066740536,1.4929552700947029,1.0993275773433913,nan
1741085796.002941,0.5441161817558403,-1.3188550032918749,1.2075372033083807,0.9380562562071599,nan
1741085796.0068455,0.18363140932305883,-1.928865563161077,0.2056748716464705,0.5209570340431467,nan
1741085796.01075,0.04812308563032342,-1.7030893258135398,-0.7907430697836758,0.2881313216892918,nan
1741085796.0146546,0.1285917721379564,-1.0330685241754864,-1.1354652525282634,0.3222046153601915,nan
1741085796.0185592,0.1427532087808048,-0.2998219537764359,-0.7737382130776415,0.2832415543441895,nan
1741085796.0224638,-0.18705468351783563,0.4420687981395228,-0.2232544045399492,-0.23461345928530994,nan
1741085796.0263684,-0.8318630012026353,1.3322581095626316,-0.03345654596736442,-1.2224260329265328,nan
1741085796.0302732,-1.3821149428739459,2.2727983478722655,-0.22171174416879366,-2.0857437819395654,nan
1741085796.0341778,-1.2918368178377433,2.681729669235214,-0.23907061139113103,-1.9949616966512353,nan
1741085796.0380824,-0.29535552959434286,1.8049528010098654,0.4448570489999927,-0.5471778226812087,nan
1741085796.041987,1.2925858530224712,-0.5495024748530203,1.6474760996926463,1.7591633479371953,nan
1741085796.04591,2.633255916823055,-3.469068849368737,2.3688125555045283,3.652835443039742,nan
1741085796.0498145,2.801171796036936,-5.192909427139638,1.5279284615803679,3.8230755024970597,nan
1741085796.053719,1.3753456441724552,-4.201096619973909,-0.9699245870341785,1.8083346769862807,nan
1741085796.0576236,-1.1744960800317892,-0.445113457358182,-3.766738318836952,-1.5638115922580014,nan
1741085796.0615282,-3.5896899323619933,4.246960972775581,-4.765824651630717,-4.527298705698984,nan
1741085796.065433,-4.435714920989425,7.078853169286756,-2.676365315668769,-5.3537025866484385,nan
1741085796.0693376,-2.937951584747769,6.050383722824009,1.7464055275755406,-3.3786301389557307,nan
1741085796.0732422,0.43473625968394275,1.4051210874432434,5.846988078589427,0.5430443018811747,nan
1741085796.0771468,4.040802534718611,-4.310776881485803,6.723515141799235,4.436819192191287,nan
1741085796.0810513,5.859130104690362,-7.739677466102019,3.3242443494394833,6.247402407187512,nan
1741085796.084956,4.63509460099363,-6.821561417254193,-2.5587476131210476,4.9428556110804145,nan
1741085796.0888605,0.7278955307995827,-2.1142773204138696,-7.263314160609086,1.0861122899372577,nan
1741085796.0927835,-3.9081309136372693,3.569775226708154,-7.655304208393392,-3.426503961653767,nan
1741085796.096688,-6.712495043314306,6.958582739976669,-3.3091834558797455,-6.321135722989568,nan
1741085796.1005926,-5.980955983398282,6.332626849875085,3.102029688832898,-6.106860750637985,nan
1741085796.1044972,-1.9425605024977488,2.4398148503525494,7.543068360636236,-2.851157738404248,nan
1741085796.1084018,3.254489016462476,-2.19687998582972,7.295551192378939,1.8301167253221067,nan
1741085796.1123064,6.723089023537537,-4.988024269489926,2.7174846957594947,5.58035958390299,nan
1741085796.1162112,6.519845307762506,-4.800025779306685,-3.1134576888274648,6.511099791481289,nan
1741085796.1201158,2.805128686359995,-2.3516250335459525,-6.555103299714237,4.188613303880021,nan
1741085796.1240203,-2.256296189548736,0.5859887257873588,-5.792753703484225,-0.13644246688818967,nan
1741085796.127925,-5.807384404332268,2.4558572240083247,-1.8261936584265974,-4.20212622357759,nan
1741085796.1318295,-6.001623431800961,2.7398746207323392,2.5003740874176184,-5.957481213924839,nan
1741085796.135734,-3.028309768525218,1.9121316808328879,4.571722892432919,-4.654436174077998,nan
1741085796.1396565,1.1521851693089749,0.7841866146172753,3.6404100754670514,-1.190167932183836,nan
1741085796.1435611,4.125586367495201,-0.12886024359740617,0.9689321211593283,2.4823830502048527,nan
1741085796.147466,4.491185411506471,-0.7682136585664365,-1.40127502092836,4.5005508904969105,nan
1741085796.1513705,2.542712539361314,-1.2494080679098323,-2.1729594191045973,4.093855765042257,nan
1741085796.155275,-0.1829433567342347,-1.5288110697140131,-1.478775911843509,1.862097239557149,nan
1741085796.1591797,-2.05699684892348,-1.3696969999783726,-0.391543728444629,-0.7646213669004136,nan
1741085796.1630843,-2.362587380009791,-0.6163774896415678,0.14582032943588674,-2.4594511000605186,nan
1741085796.1669888,-1.5115295155858304,0.5247776070650068,0.03137881210846808,-2.6992901778019887,nan
1741085796.1708934,-0.4642992218306965,1.5042831596841986,-0.1451280082126643,-1.8384193933647053,nan
1741085796.174798,0.09404006898413192,1.7744332761540613,0.16384655528725867,-0.6347529668715687,nan
1741085796.1787028,0.1755382471716825,1.1849141726256656,0.8723861728762649,0.33405801687008313,nan
1741085796.1826074,0.25894684686531083,0.099970767437949,1.332256857039897,0.932091927288523,nan
1741085796.1865296,0.6976314988056426,-0.8600325542582697,0.9584860093290481,1.2964037997119537,nan
1741085796.1904342,1.3129758660159454,-1.241716341494425,-0.18233369896180768,1.4919265483804502,nan
1741085796.1943388,1.5184723243625036,-1.0156839230146488,-1.3540229393493008,1.3523659191334159,nan
1741085796.1982434,0.8531456035308426,-0.4951337953503707,-1.7208337606860282,0.6580810278861534,nan
1741085796.2021482,-0.5396993499954469,-0.029828115702588854,-1.0157940496937783,-0.5298141389691863,nan
1741085796.2060528,-1.903838996330818,0.24598261604795804,0.2525913905371774,-1.7210738896801203,nan
1741085796.2099574,-2.3633998795331985,0.41781421405282954,1.2113703869757797,-2.2278110491182743,nan
1741085796.213862,-1.548561197258401,0.5938166024590772,1.293109522075939,-1.6396506601043486,nan
1741085796.2177665,0.11896581931791499,0.7271730836396315,0.6157663111888066,-0.17521853998873788,nan
1741085796.221671,1.6906514558582895,0.638749437673635,-0.2030311422388782,1.3893130793401833,nan
1741085796.2255757,2.3056877616574893,0.21564039419614778,-0.5919936106397481,2.195126413777463,nan
1741085796.2294803,1.7147096949485365,-0.4139595211263816,-0.4527492153778723,1.8461082035468757,nan
1741085796.2334025,0.3684459265700253,-0.9138873399071593,-0.13341988743947805,0.6352677657395642,nan
1741085796.237307,-0.9394729530256545,-0.9756856314721757,-0.028957101101325853,-0.6940855634410142,nan
1741085796.2412117,-1.5825423672156926,-0.5611759874990103,-0.19933275238929546,-1.453616487205599,nan
1741085796.2451162,-1.413061277757126,0.06052578674822759,-0.34697159340714634,-1.4072785895665318,nan
1741085796.2490208,-0.7196069240914267,0.519772461438344,-0.14973170123407883,-0.805050960590987,nan
1741085796.2529254,0.05715894632575124,0.6235151427039076,0.37780836427400355,-0.09583638100786945,nan
1741085796.25683,0.6032980114421368,0.4684449741652952,0.8407551538208993,0.40865527094415105,nan
1741085796.2607346,0.8293653377602661,0.30102717924840827,0.7914772788247986,0.6606292078256603,nan
1741085796.2646394,0.7919197279485649,0.25978917895026377,0.1434210467412659,0.7526992985899964,nan
1741085796.268544,0.5708313835672786,0.240442596882379,-0.699455081852446,0.7220129485715051,nan
1741085796.2724485,0.22100613149333362,0.014678351625178346,-1.1283960182966006,0.49353394763938213,nan
1741085796.2763531,-0.19223216048495245,-0.4984761879181612,-0.8059571483640515,0.010465708079472402,nan
1741085796.2802749,-0.553562300552479,-1.0609715348252595,0.057826977070678236,-0.5988211344726745,nan
1741085796.2841794,-0.7247182951424019,-1.2280907554753315,0.8567440983170631,-1.0154952725361432,nan
1741085796.2880843,-0.6273445528514936,-0.6906994272620037,1.0451511569297036,-0.9369055786019733,nan
1741085796.2919888,-0.30524404124943316,0.4179156754953567,0.5358123067378102,-0.33717019768152684,nan
1741085796.2958934,0.09595809510843321,1.5172044578113664,-0.2654986722685167,0.4525665315087201,nan
1741085796.299798,0.41781027194258197,1.9218721109971948,-0.7925666930062876,0.9447634453286897,nan
1741085796.3037026,0.5720268191725323,1.3046820540866955,-0.7373184280812353,0.8417459782375316,nan
1741085796.3076072,0.5550018825381776,-0.054169828703156474,-0.2314583388388916,0.257090444529538,nan
1741085796.3115118,0.4010205415791364,-1.4184704646458193,0.31587156842219793,-0.3709194124088848,nan
1741085796.3154166,0.13779681034632874,-2.0479374806405413,0.5539120236030535,-0.6125186266134472,nan
1741085796.3193212,-0.2043414754780659,-1.640804202522418,0.4190862816228344,-0.36499646569971456,nan
1741085796.3232257,-0.5456594610449661,-0.47822504871804866,0.10385707392099572,0.09360040959831875,nan
1741085796.3271472,-0.7414455244115474,0.7951365661609853,-0.15513885041650669,0.35095870714059185,nan
1741085796.3310518,-0.6470668473411545,1.572075552452771,-0.25939975964497297,0.20094565501140116,nan
1741085796.3349566,-0.2334506980534196,1.5906924013989714,-0.25817610739512525,-0.19868969120736527,nan
1741085796.3388612,0.34299160154872826,0.9837123944411671,-0.22321268681505094,-0.4725058731668789,nan
1741085796.3427658,0.7957644293242478,0.10610847793184384,-0.14566788582606408,-0.3485692760304036,nan
1741085796.3466704,0.8739836860024683,-0.6890965581427008,0.03335032980865194,0.11254582022658341,nan
1741085796.350575,0.5271970883203325,-1.1768782223763659,0.3005523704675187,0.5652332026955476,nan
1741085796.3544796,-0.05419240218923583,-1.2621668819618133,0.5040359110392642,0.6572384975795498,nan
1741085796.3583841,-0.5580819608322419,-0.9372964130733994,0.44279821954766196,0.3083946308127897,nan
1741085796.3622887,-0.744807575316208,-0.27663762892312366,0.05516029426462738,-0.2326709027892236,nan
1741085796.3661935,-0.578062518036081,0.5319757380871282,-0.467400540656337,-0.5895187261104129,nan
1741085796.370098,-0.209457223565497,1.1920743930647393,-0.7725453515473016,-0.5458170235819819,nan
1741085796.3740213,0.1511447435477832,1.3993352783223043,-0.6027933190200245,-0.1904919255892828,nan
1741085796.3779259,0.36828486180542364,1.00831525388269,-0.01649570027189422,0.18196054511962442,nan
1741085796.3818305,0.42321704882185346,0.15312276192779944,0.6178609705466716,0.3176591652903973,nan
1741085796.385735,0.362408703775114,-0.7836262507247742,0.8719532467913604,0.19001736542623335,nan
1741085796.3896399,0.2263027628806544,-1.3599507752137163,0.5696448366432071,-0.014235872368012008,nan
1741085796.3935444,0.03132550550319954,-1.3123170652281388,-0.08058594650939921,-0.07850544324957195,nan
1741085796.397449,-0.19157291014985595,-0.6927448941185592,-0.6376109833437382,0.05488763798347806,nan
1741085796.4013536,-0.3637920549540092,0.1766397439120329,-0.7470197153514191,0.24468171066794128,nan
1741085796.4052582,-0.38873433254289114,0.8914914601600747,-0.3838210849922033,0.28067667129359647,nan
1741085796.4091628,-0.23190324779884222,1.170623639188396,0.15794455943168537,0.06676726092351373,nan
1741085796.4130673,0.02526875747537872,0.9622905935718279,0.5032199606609418,-0.2927818904071706,nan
1741085796.4169722,0.2249352379470615,0.41721976587205317,0.46606322231699226,-0.5653881689400284,nan
1741085796.4208949,0.250139014447391,-0.21986557008168184,0.14996270989504415,-0.5554053018293745,nan
1741085796.4247994,0.12333301190893765,-0.71964204747397,-0.1739721798394002,-0.23551855956265805,nan
1741085796.4287043,-0.008754655724184086,-0.9312027661827988,-0.2891472474031631,0.24148506302123166,nan
1741085796.4326088,-0.00492039390190557,-0.8026222909491811,-0.17507887098300215,0.6400384862105042,nan
1741085796.4365134,0.13287674702347044,-0.38451700935361516,0.02303340269726721,0.7691270026589713,nan
1741085796.440418,0.242386160197443,0.17545009615318127,0.14031589648546863,0.5640016412366354,nan
1741085796.4443226,0.1374961760347758,0.6646994405990551,0.11773436818058391,0.0988839586502025,nan
1741085796.4482272,-0.20651300008043397,0.8795347900973479,0.014380324476247597,-0.4483457050128356,nan
1741085796.4521317,-0.5829719051002614,0.720860210922866,-0.07481956283471426,-0.8542543233148983,nan
1741085796.4560363,-0.6819141324856597,0.257379080745783,-0.10287211265772561,-0.9242034571710183,nan
1741085796.4599411,-0.33477958504724964,-0.29467785734183516,-0.08378170757240944,-0.5788158228942427,nan
1741085796.4638457,0.3171522962525031,-0.6777866163290095,-0.04493938201434925,0.07817140433595059,nan
1741085796.4677684,0.8808626184878853,-0.7279628081887358,0.013275755406357314,0.7657986505940569,nan
1741085796.471673,0.9737796792041403,-0.4566225027983227,0.10244620963882865,1.1396523789971784,nan
1741085796.4755776,0.5008546770795261,-0.030440878629682498,0.19765293435672837,0.9766227435913577,nan
1741085796.4794822,-0.2651310505694206,0.333278160678097,0.2223506183943886,0.32342987741185275,nan
1741085796.4833868,-0.8657148702420099,0.4860209813136871,0.10365374604729442,-0.5008977205144847,nan
1741085796.4872913,-0.9665601775587399,0.4105363849023505,-0.14188209019926531,-1.0727706984114935,nan
1741085796.491196,-0.565457252913955,0.1996622169148532,-0.3785870611454066,-1.1067621192479675,nan
1741085796.4951007,0.04509994105342913,-0.01940644416800176,-0.42813925052515833,-0.616870673882184,nan
1741085796.4990053,0.5106238095829418,-0.1589836091043821,-0.20783503332630476,0.10911669490488646,nan
1741085796.50291,0.6495687927855963,-0.20077387280905995,0.18115727287131306,0.6978240123289892,nan
1741085796.5068145,0.5175220192587385,-0.17745936277909005,0.5007884305931043,0.9062447847987174,nan
1741085796.510719,0.2843641459518123,-0.1324096223801842,0.5372791094671309,0.7235848865788911,nan
1741085796.5146415,0.06251115871025556,-0.08911895776919528,0.25729183562433017,0.314355122496328,nan
1741085796.518546,-0.15396157241091232,-0.045633055957100335,-0.16370345241227055,-0.12270047344956987,nan
1741085796.5224507,-0.40107375018429237,0.01108854906556539,-0.4654375432059081,-0.4597910273847783,nan
1741085796.5263555,-0.6186507787063807,0.08588071630822335,-0.483643703903744,-0.6465427636656178,nan
1741085796.53026,-0.6362370661029902,0.16393812770801602,-0.2499273742406142,-0.6552193237544502,nan
1741085796.5341647,-0.3130473121206187,0.21266341687123044,0.05730132339006406,-0.45264902089102127,nan
1741085796.5380692,0.2846369849433563,0.19598855669131543,0.25805183665304393,-0.04427697304458921,nan
1741085796.5419738,0.8461507481741786,0.09586659919616929,0.2894880240925813,0.45531072414495144,nan
1741085796.5458784,0.9942866568262361,-0.0688321498356453,0.2115117803450253,0.8196645856274705,nan
1741085796.549783,0.5664290540305414,-0.23860622725474354,0.11671136994208746,0.8223763431398039,nan
1741085796.5536878,-0.22345353930067377,-0.33346482380933795,0.040466660190079565,0.4025648697333783,nan
1741085796.5575924,-0.8933572431488862,-0.2926686927786393,-0.04680401494518486,-0.24830225746743978,nan
1741085796.5615146,-1.0165956752576522,-0.11410552234356604,-0.17029453074287645,-0.771835997375529,nan
1741085796.5654192,-0.5260167613791908,0.13277369384429832,-0.2857707859570006,-0.864923566520282,nan
1741085796.5693238,0.23430262210427757,0.33467793067866736,-0.29482596159410807,-0.4859872001468309,nan
1741085796.5732284,0.7559323751732461,0.3920298265064756,-0.13543793611499455,0.11135079135291903,nan
1741085796.577133,0.7284719132172058,0.2739744524020167,0.13660977144994016,0.551525951142509,nan
1741085796.5810378,0.24570734570936287,0.03698191403887773,0.36116082754392564,0.5946859907729503,nan
1741085796.5849423,-0.293253053535042,-0.20532104367210766,0.38575912096004844,0.28951326082743706,nan
1741085796.588847,-0.5002654359357424,-0.34304499682657646,0.1877221037027859,-0.08881600122820603,nan
1741085796.5927515,-0.28202569377122394,-0.32520535784707744,-0.09991347461573545,-0.2610172827773978,nan
1741085796.596656,0.1211119105407872,-0.17842377608229884,-0.28712997715956473,-0.15137936613354924,nan
1741085796.6005607,0.3535915668988817,0.0170379579907237,-0.27187008684743996,0.07663571984374158,nan
1741085796.6044652,0.23316905376260405,0.17452495161401296,-0.11073188251138803,0.1747935772281573,nan
1741085796.6083872,-0.11954022263875586,0.2419913669065379,0.04269602480754492,0.023648044041282394,nan
1741085796.612292,-0.3994400219438694,0.21645995173082638,0.07595828826906278,-0.2666339167906779,nan
1741085796.6161966,-0.3717201657743539,0.13089624019158544,0.010390065492127582,-0.4449797365288854,nan
1741085796.6201012,-0.05293216917796027,0.027924243602950826,-0.03261011133340263,-0.32292559333352167,nan
1741085796.6240058,0.31733277183329744,-0.061751152673835685,0.040614295487131635,0.06903730547398772,nan
1741085796.6279104,0.47440276742036946,-0.12584260045176768,0.19227859511231696,0.49244335537689493,nan
1741085796.631815,0.3272221848965523,-0.1629498580649432,0.2730150216186123,0.6674507793187473,nan
1741085796.6357195,0.004942596781555638,-0.17040358107402956,0.15535824451366667,0.46765292749744164,nan
1741085796.6396244,-0.26617516300604405,-0.13858138978978052,-0.13424699919959066,0.0025988757493015384,nan
1741085796.643529,-0.3385359878238739,-0.05771995991825867,-0.40707375463301987,-0.4615682211953586,nan
1741085796.6474335,-0.228958462869736,0.0661226514923217,-0.4481327508805212,-0.6752236375932849,nan
1741085796.651338,-0.06377880574909499,0.19814367700143484,-0.19190060179463858,-0.5484167711163811,nan
1741085796.6552598,0.04634656817079926,0.27916782528074474,0.20838968221843795,-0.17865456818711622,nan
1741085796.6591644,0.08548966681416899,0.2527415806336683,0.48274625306400687,0.2320675633540502,nan
1741085796.663069,0.10760642632467525,0.10351820403370116,0.44359466576211737,0.4977836275634046,nan
1741085796.6669738,0.15098106858841032,-0.11834572328558723,0.12654653842918648,0.5298162041832825,nan
1741085796.6708784,0.1851172371698093,-0.31002682905501594,-0.23838107358917368,0.3494407025942239,nan
1741085796.674783,0.1422814149181395,-0.36776206099895997,-0.4016923649402043,0.05249385017100254,nan
1741085796.6786876,-0.001356251045152038,-0.2500650817074331,-0.2773829947568033,-0.2381470978615342,nan
1741085796.6825922,-0.17968313513745657,-0.010393337391627728,0.006627266752586255,-0.4129931925033261,nan
1741085796.6864967,-0.27708994630211325,0.22787081905374443,0.22227664842166492,-0.40924929618418177,nan
1741085796.6904013,-0.22347019978260788,0.34310787675325394,0.22171567010028354,-0.23636007041733123,nan
1741085796.694306,-0.05737600027647172,0.2879710780849691,0.04080719228821687,0.020540018622305485,nan
1741085796.6982107,0.10316290804769696,0.11322027010329389,-0.14791903499666156,0.23551967564864543,nan
1741085796.7021322,0.15925314833321025,-0.07312950221481639,-0.18367627395699607,0.3083809011330939,nan
1741085796.7060368,0.1116309680852997,-0.18027808343001528,-0.04303564482787785,0.22469978027374282,nan
1741085796.7099414,0.049730783684637826,-0.18744679432973985,0.1527875047206022,0.06373802393957945,nan
1741085796.713846,0.05821688551919573,-0.13846133854631634,0.24356118000539703,-0.05918580885762396,nan
1741085796.7177505,0.12678840309452608,-0.08902298528676737,0.1561611243987616,-0.07789804355396178,nan
1741085796.7216554,0.15026052959097033,-0.0552630468232755,-0.047160607846043985,-0.02278101762737301,nan
1741085796.72556,0.027136476247583797,-0.008516382881349769,-0.22575579085359082,0.010281297733810672,nan
1741085796.7294645,-0.2264409102494713,0.08113615606874394,-0.26709341890011107,-0.05184180339177293,nan
1741085796.733369,-0.4530980758913249,0.19510704613598928,-0.15826465624520222,-0.1852379519403262,nan
1741085796.7372737,-0.45674989226415175,0.26099478634532564,0.022164889464592302,-0.27401067463210993,nan
1741085796.7411783,-0.16017549125620353,0.204583371529199,0.17017920488102664,-0.19887474760558466,nan
1741085796.7450829,0.3075146857601266,0.019375673735330574,0.22183917438254444,0.056126951270729544,nan
1741085796.7490044,0.6722458033398917,-0.2075347019135978,0.17546530672888955,0.3652878162267899,nan
1741085796.752909,0.6913567110958829,-0.3433166548084395,0.07107954137300565,0.5303051519489268,nan
1741085796.7568135,0.3212612585105483,-0.30072351471536357,-0.04266274253159,0.4143416207973717,nan
1741085796.7607183,-0.24396953789555922,-0.10330256693269518,-0.12815963760421226,0.04607899674935639,nan
1741085796.764623,-0.6904987890237827,0.128499841167423,-0.16295856180399396,-0.38358855947725723,nan
1741085796.7685275,-0.7764855441925067,0.26198067988187884,-0.1405745928686869,-0.6342192434935647,nan
1741085796.772432,-0.469705661802074,0.24271248405283943,-0.07381172273722175,-0.5629977327783813,nan
1741085796.7763367,0.050339237363792255,0.12158881683723818,0.007303226571275414,-0.2092101744086119,nan
1741085796.7802413,0.5111825607650013,0.0010060522082109115,0.07092460689154144,0.23536907537442703,nan
1741085796.7841458,0.7000105546695632,-0.05154633443423697,0.1040535491358501,0.5439312372517728,nan
1741085796.7880504,0.5593539029043648,-0.049663395714429924,0.1177943717292745,0.5803722810941515,nan
1741085796.7919552,0.18813022949726008,-0.05803214210027538,0.12679372727878868,0.3583235759677748,nan
1741085796.795878,-0.22865582214489308,-0.11700096744285539,0.1204500406474134,0.010333572799667168,nan
1741085796.7997828,-0.5105435701551306,-0.19186271423107376,0.060292223174787454,-0.2983045064676736,nan
1741085796.8036873,-0.5518269323613396,-0.19529214220714403,-0.08057226803338685,-0.45181149272331517,nan
1741085796.807592,-0.35446429069944724,-0.06690963484523878,-0.26414534096501646,-0.4203030077490676,nan
1741085796.8114965,-0.021273336275827528,0.1580916647581206,-0.37696734749296024,-0.2465995413985407,nan
1741085796.815401,0.2887779099014092,0.3539005539985497,-0.29555767178803305,-0.008644744881637332,nan
1741085796.8193057,0.4331122467907974,0.38600052874222424,0.005335198919709036,0.21402978919715585,nan
1741085796.8232102,0.35770671686309913,0.2095430078461562,0.3894616482325941,0.3576982834504019,nan
1741085796.8271148,0.1275985692284486,-0.0916449634479023,0.6142922316238072,0.38126616513266437,nan
1741085796.8310196,-0.11166231211030654,-0.35567217477750845,0.49135169439110765,0.2730743210495375,nan
1741085796.8349242,-0.22609800039996447,-0.4446545675273452,0.042504217920088704,0.060086829787449815,nan
1741085796.8388288,-0.1800356497718099,-0.32429678345618224,-0.47715708412901564,-0.18914766160680319,nan
1741085796.8427515,-0.0536485807571206,-0.07011367422588025,-0.7320519021254143,-0.3792814081354928,nan
1741085796.846656,0.025988634814329392,0.19181540289082155,-0.5399994882593848,-0.42346973984382524,nan
1741085796.8505607,-0.009568121073570354,0.357406746774338,-0.01525994273590495,-0.2869186305830191,nan
1741085796.8544652,-0.11149258698874334,0.38167367692394777,0.4975946171423509,-0.015261461990993232,nan
1741085796.8583698,-0.15300328709367228,0.27207075266334296,0.6631094486878145,0.27398948771686465,nan
1741085796.8622746,-0.040055994887767205,0.066294673295316,0.39430790675550564,0.4418242225777858,nan
1741085796.8661792,0.19470412884939792,-0.17690323920406334,-0.08952196592097479,0.39971897277939944,nan
1741085796.8700838,0.3956456418434881,-0.3755442331955261,-0.4329550874279751,0.16412503051893884,nan
1741085796.8739884,0.3919570304478054,-0.4374346459543764,-0.4126130473777595,-0.1433223816961589,nan
1741085796.877893,0.13178634876427975,-0.3047321489745343,-0.0962867606782365,-0.3587289874975308,nan
1741085796.8817976,-0.2609386534859103,-0.00807347497651392,0.22819916419550165,-0.370517640260334,nan
1741085796.8857021,-0.5555160268159542,0.3193974856267767,0.2930040966954937,-0.18780922100167224,nan
1741085796.8896248,-0.5637986152865376,0.5006286246546241,0.06457787034136588,0.06513412106093988,nan
1741085796.8935294,-0.2646521042521304,0.4223394719605376,-0.23870564805952282,0.23007599484846195,nan
1741085796.897434,0.18194039894830386,0.11884289025235503,-0.3354346418940267,0.21981873620753942,nan
1741085796.9013386,0.535624135389076,-0.2365209438469605,-0.11904382425960729,0.07400149732860971,nan
1741085796.9052434,0.6176438157038122,-0.437688281570202,0.2504725922158171,-0.07607267185410363,nan
1741085796.909148,0.4019168684276286,-0.37978846745519773,0.47473206021718034,-0.10972296756873312,nan
1741085796.9130526,0.009841974635358379,-0.12458366824724101,0.3588991924775697,-0.010293192431788098,nan
1741085796.9169571,-0.36869621895529736,0.15033085466992338,-0.029704258959199946,0.12282516061660857,nan
1741085796.9208617,-0.5691344271706178,0.27935099459021623,-0.41294276233015786,0.15535538415091865,nan
1741085796.9247663,-0.5140099321463626,0.21758625789100305,-0.5183425804211033,0.03082691676886201,nan
1741085796.928671,-0.23151203040297655,0.05287043776585038,-0.2849703444618336,-0.17494909421166893,nan
1741085796.9325757,0.15832129874678416,-0.07855001384015008,0.1024397664627576,-0.30475468118145854,nan
1741085796.936498,0.48240249002632213,-0.09882266495670307,0.3688636683681202,-0.24064758941072717,nan
1741085796.9404025,0.579697750077195,-0.03367098912797575,0.3604645341643557,-0.001147291702227836,nan
1741085796.9443073,0.38240879207112854,0.030637041297583312,0.14264722127551013,0.26336330579986467,nan
1741085796.948212,-0.026035392048720827,0.03121119386418898,-0.08224966219927267,0.3769568502359669,nan
1741085796.9521165,-0.4284507660005908,-0.021946399537578758,-0.15431627271739365,0.2658444176355182,nan
1741085796.956021,-0.5852625077083048,-0.06814482757489444,-0.07708450426058158,0.009531609673370623,nan
1741085796.9599257,-0.38793798988305356,-0.060754427102101424,0.014220694335501737,-0.2222959225761468,nan
1741085796.9638302,0.0495163273191437,-0.010350988785280827,-0.0040784959894860345,-0.2952324733212163,nan
1741085796.9677348,0.4436810492025685,0.032321055207577484,-0.12313884493975809,-0.19929810096789433,nan
1741085796.9716396,0.5254331408396569,0.03248246661154482,-0.2099938548154127,-0.03645632455193749,nan
1741085796.9755442,0.23432187012098651,0.008252238770852575,-0.13471252151208285,0.07433984403021782,nan
1741085796.9794488,-0.22318905224328742,0.009862780634047169,0.09893412288838986,0.09055421629523673,nan
1741085796.9833708,-0.5106514167352845,0.06045517438362803,0.3369450685021651,0.061700328759001735,nan
1741085796.9872754,-0.406459607513941,0.11858385374881056,0.3912089551055207,0.06232447324474856,nan
1741085796.99118,0.02319800273182555,0.10610138326562465,0.19293597613981694,0.10954377967672091,nan
1741085796.9950845,0.4612437875466327,-0.016145661916601998,-0.14387637607280188,0.14290705596025083,nan
1741085796.998989,0.5701992484221667,-0.19275804970909133,-0.40154223482163054,0.0853774138803844,nan
1741085797.002894,0.2483683124795928,-0.2968949973256316,-0.4168108913713606,-0.07134106779283189,nan
1741085797.0067985,-0.2841893720676254,-0.22484557598404056,-0.19380704300113422,-0.23855455333760403,nan
1741085797.010703,-0.6415995820127584,0.0115634609946994,0.11092217983005105,-0.29173580167989127,nan
1741085797.0146077,-0.5571339236972505,0.2752614852451416,0.30979887466263745,-0.17310366222005286,nan
1741085797.0185122,-0.08269091905500604,0.3941428735409385,0.3116910331581232,0.05271826266126745,nan
1741085797.0224168,0.44873480771232244,0.28565098246389975,0.16221157147693083,0.24145967319161002,nan
1741085797.0263214,0.6686190062698055,0.018349824402779755,-0.017651634722010826,0.278174123668101,nan
1741085797.0302434,0.4396795955907185,-0.23872650782259153,-0.12975866498743907,0.1622778126854629,nan
1741085797.034148,-0.05556623115345408,-0.3385740686155526,-0.15306618119472187,-0.002061294711893988,nan
1741085797.0380526,-0.46345515073856297,-0.25378269285777355,-0.12447615371245391,-0.09962045893990042,nan
1741085797.0419571,-0.5228874625568486,-0.07613327631626317,-0.08297558802558216,-0.09867650214022487,nan
1741085797.0458617,-0.24159721246498916,0.07191827350417902,-0.036213922119898746,-0.06349698543890286,nan
1741085797.0497663,0.13895084453056414,0.1330794595089991,0.02544762015355551,-0.07615226447736029,nan
1741085797.0536711,0.3452660917979848,0.1383810079068882,0.09401645252594698,-0.14238372624969925,nan
1741085797.0575757,0.2728502119291792,0.1471374435801512,0.13317717374591084,-0.173583548050746,nan
1741085797.0614803,0.03547812936257111,0.16865367293965555,0.10753633931330844,-0.0697061069533533,nan
1741085797.0653849,-0.15614271068944424,0.14493654405954484,0.022546793952800098,0.16698438701188806,nan
1741085797.0692894,-0.17067480055458317,0.014409695141107595,-0.06866962245621941,0.39512259799705807,nan
1741085797.073194,-0.04219415437509554,-0.20272172075585765,-0.104545720217172,0.4240373939927291,nan
1741085797.0771158,0.08934467685859232,-0.3837969349161962,-0.06714271797999175,0.17020035493154062,nan
1741085797.0810204,0.11330105067145799,-0.38154815855358454,0.001904074827768475,-0.24748718012785292,nan
1741085797.084925,0.035379819235734744,-0.14576947626865902,0.03894234953129455,-0.5645271519779145,nan
1741085797.0888295,-0.05108559146202434,0.21291457330562447,0.016426271300358345,-0.5524714385131207,nan
1741085797.092734,-0.06826867574326724,0.48007557372800064,-0.032450196090332006,-0.1926756197921879,nan
1741085797.0966387,-0.02731023449001294,0.4822050626529891,-0.046930267567748415,0.29446317174362385,nan
1741085797.1005433,-0.004018661534778255,0.2118609045133596,0.0003520020706826969,0.5954673488845681,nan
1741085797.104448,-0.04601288164922431,-0.1635063525294749,0.0727251238928972,0.5212636235544877,nan
1741085797.1083527,-0.10779019622173536,-0.41725388312087286,0.10084674752903848,0.13616162764759254,nan
1741085797.1122572,-0.08508660165379696,-0.41665791053845697,0.049405514911570574,-0.29495427850167927,nan
1741085797.1161618,0.07536075798569317,-0.20063740411606712,-0.04379072869543543,-0.4974222169225258,nan
1741085797.1200664,0.29291152560708095,0.06818988949242122,-0.09727272809288817,-0.371853962115127,nan
1741085797.1239896,0.3864802928907667,0.22980474117313363,-0.06156703649984559,-0.04231240548025007,nan
1741085797.1278944,0.21553864018169347,0.2303552242424438,0.028428201498406573,0.25380690134744094,nan
1741085797.131799,-0.18103921098731324,0.13112662405346756,0.07845682566254089,0.33887118889215767,nan
1741085797.1357036,-0.5715889186591321,0.032898636078782455,0.022543626938475125,0.20133162298504742,nan
1741085797.1396081,-0.6748543307232174,-0.010313973418672783,-0.10377364594760308,-0.028546896582260627,nan
1741085797.1435127,-0.3643098280105605,-0.01772486551242899,-0.17802655606646756,-0.19292531754476158,nan
1741085797.1474173,0.21942022499290942,-0.03862876846768458,-0.09351476425645408,-0.2122677429479728,nan
1741085797.151322,0.7398024865298015,-0.09039469537776537,0.13209333835647125,-0.11133320253540586,nan
1741085797.1552267,0.8765088541226385,-0.13754027679581735,0.3419687368737225,0.02999126844731228,nan
1741085797.1591313,0.5319266219388964,-0.12735147470021527,0.3484306696315475,0.1409264511940753,nan
1741085797.1630359,-0.10857837026419453,-0.04392687423561699,0.08865502141389792,0.18651679112844347,nan
1741085797.1669405,-0.6961917025939718,0.07160051448680321,-0.298922477692622,0.15546539643838825,nan
1741085797.1708634,-0.9280263439627053,0.1522566261471541,-0.5520777758795714,0.04674544240028014,nan
1741085797.174768,-0.7073698917941978,0.15731512510000828,-0.47087023484829743,-0.11771852437898836,nan
1741085797.1786726,-0.16757713351877473,0.09815561455773453,-0.07464542388207802,-0.2708840843663202,nan
1741085797.1825771,0.42691696704123777,0.01865600901797977,0.39465568013907587,-0.311991440359238,nan
1741085797.1864817,0.8195164070723027,-0.04578217248384308,0.634055499309267,-0.16966020543800492,nan
1741085797.1903863,0.860943699985468,-0.0895337712746761,0.4903694374624467,0.12244887641838434,nan
1741085797.1942909,0.5431497068380149,-0.12142229975627931,0.06491037425921352,0.40917094832336875,nan
1741085797.1981957,-0.012829158778867302,-0.13536385502396095,-0.36370332021012464,0.4953783682744781,nan
1741085797.2021003,-0.592494163807363,-0.10440800523120022,-0.5374620613719168,0.2838810091517295,nan
1741085797.2060049,-0.9482292061530273,-0.010287150385006712,-0.3890391699454965,-0.1324731349974656,nan
1741085797.2099094,-0.8929387065047268,0.12001234428909079,-0.063746572594415,-0.5079494473888496,nan
1741085797.213814,-0.40499420880014053,0.21343521785013186,0.2091785484621019,-0.6003844613367195,nan
1741085797.2177386,0.318798018416641,0.1988917270056743,0.28642469949027816,-0.3400376395061611,nan
1741085797.2216432,0.9256741842678574,0.06885555238144263,0.19178888478600545,0.11535144667471786,nan
1741085797.2255478,1.084147836836748,-0.1014493709968286,0.05988923224173141,0.4851705754733328,nan
1741085797.2294526,0.6844640382750051,-0.202432104855361,0.00511060945691583,0.5559751173865498,nan
1741085797.2333572,-0.07172268604032807,-0.17253551301902298,0.030295187852277368,0.31795118398470346,nan
1741085797.2372618,-0.7714691403166353,-0.04683449444299251,0.04535795680638534,-0.048294022996902254,nan
1741085797.2411664,-1.0333972947322874,0.07185776394120838,-0.031325006801088684,-0.31458629892062523,nan
1741085797.245071,-0.7392443779146624,0.09795990049373118,-0.18337291070833198,-0.3618028514256318,nan
1741085797.2489755,-0.0979413825277636,0.03280132350061216,-0.2978801192094224,-0.2341235853275211,nan
1741085797.25288,0.5013269006647726,-0.04142374170704773,-0.2566303150375277,-0.06561112935591365,nan
1741085797.2567847,0.7429020194891431,-0.038914717671854726,-0.03999516488475265,0.043013340494127104,nan
1741085797.2606895,0.5685925495243279,0.04892141186967737,0.24292992132823096,0.08932679072782572,nan
1741085797.264612,0.17251156880272941,0.14161727341210922,0.4233296570996284,0.13079295227742205,nan
1741085797.2685165,-0.17012724074814378,0.1395645411255974,0.3875794970695107,0.19431293623456833,nan
1741085797.2724211,-0.2997411032428475,0.0156330241908641,0.15204225924497755,0.22904073582907072,nan
1741085797.276326,-0.24949895763390592,-0.15287187711680164,-0.15297219175567053,0.1522411613103349,nan
1741085797.2802305,-0.16338909328177537,-0.2425789029888266,-0.3705961971849249,-0.05386243936613578,nan
1741085797.284135,-0.14325913478570992,-0.18427431732836275,-0.4087496834842007,-0.2900944167836534,nan
1741085797.2880397,-0.16044662772872853,-0.018932288569470053,-0.2759914102568752,-0.39427958741389746,nan
1741085797.2919443,-0.10205712933172918,0.13831036819190456,-0.05216622842096567,-0.26754261613826613,nan
1741085797.2958488,0.097552614279916,0.19332891199619198,0.1690185347248172,0.03176657201068353,nan
1741085797.2997534,0.3624507434915076,0.14307708524788765,0.31997239919115383,0.3133051549851393,nan
1741085797.303658,0.507812723651825,0.060818138882749416,0.365169436787729,0.38983229816759885,nan
1741085797.3075628,0.38083042938284617,0.01538444369220807,0.2909069714852198,0.21862606891548433,nan
1741085797.311485,-0.0026475356124694483,0.0042523474284104235,0.10519452603630863,-0.06532369892030503,nan
1741085797.3153896,-0.44005539110865843,-0.03356675150405738,-0.14725912614365017,-0.25408429231965884,nan
1741085797.3192942,-0.665876609659417,-0.13644411355406325,-0.37682314455717175,-0.22727120673320278,nan
1741085797.3231988,-0.5301880894670915,-0.25261580293022823,-0.47322578187744535,-0.039915048662437794,nan
1741085797.3271034,-0.10244959319629349,-0.2625934029184094,-0.36267333014199415,0.1317057391647656,nan
1741085797.331008,0.37265974158147586,-0.08616933664216528,-0.06472306043585854,0.13980254208697757,nan
