timestamps,TP9,AF7,AF8,TP10,Right AUX
1740447701.1454747,-0.056982461515725315,0.042847162299755236,-0.40180852361046404,-0.20843105396909553,nan
1740447701.1493804,-0.03965033016102684,0.028407769390935835,-0.40187791595508504,-0.1846503486751619,nan
1740447701.1532862,-0.023608455043415532,0.014801162115048394,-0.4005023186775226,-0.1614588499810051,nan
1740447701.157192,-0.00905515261469233,0.0022170946826883223,-0.3977505931693297,-0.13905139577061582,nan
1740447701.1610978,0.0038319063116134013,-0.009174234666926484,-0.39370298623550093,-0.11760975670833675,nan
1740447701.1650035,0.014897654212172923,-0.01922357555661285,-0.388449980961991,-0.09730088565117247,nan
1740447701.1689093,0.02401134273704401,-0.027803774758556898,-0.38209106844419927,-0.0782753391283043,nan
1740447701.172815,0.03106799864384518,-0.03481067515182644,-0.3747334556248255,-0.060665886651700224,nan
1740447701.1767209,0.03598960424033682,-0.0401637592137308,-0.3664907248651765,-0.044586321609244715,nan
1740447701.1806266,0.038725989592052146,-0.04380653452220853,-0.35748146107377826,-0.030130485340530602,nan
1740447701.1845324,0.03925542668426002,-0.045706661357245056,-0.34782786224021794,-0.017371513727762525,nan
1740447701.1884384,0.03758491876433694,-0.045855825071617236,-0.33765434907299485,-0.006361313273535331,nan
1740447701.1923468,0.03375018120122605,-0.04426935842971598,-0.3270861891217133,0.00286972879199285,nan
1740447701.1962526,0.02781531335177683,-0.04098562156305314,-0.31624815028223485,0.010312798304703451,nan
1740447701.2001584,0.019872164087888847,-0.0360651495388074,-0.3052631979458494,0.015980472281679793,nan
1740447701.2040641,0.010039396781583191,-0.02958957976061865,-0.29425124926932417,0.019906304261525388,nan
1740447701.20797,-0.001538737364137575,-0.021660373497989605,-0.28332799712247586,0.02214418222281527,nan
1740447701.2118757,-0.014693905743703762,-0.012397347752236339,-0.27260381522559407,0.022767466824330184,nan
1740447701.2157815,-0.029235465748752614,-0.001937035395524442,-0.26218275483387954,0.0218679200180158,nan
1740447701.2196872,-0.044952483601586345,0.009569106950950349,-0.2521616420741625,0.019554436285715147,nan
1740447701.223593,-0.061615980506232224,0.021956622516608765,-0.2426292837058364,0.015951590820878336,nan
1740447701.2274988,-0.07898138361994836,0.035050087583163025,-0.23366578767882362,0.011198020895337238,nan
1740447701.2314045,-0.09679115718880534,0.04866523155298707,-0.22534200341307462,0.005444658398955784,nan
1740447701.2353106,-0.11477758727559983,0.06261112052942447,-0.21771908524323672,-0.0011471669015276369,nan
1740447701.239222,-0.13266569185664487,0.07669238067915372,-0.2108481809757091,-0.008407732485036953,nan
1740447701.2431278,-0.15017622669303696,0.09071143751784752,-0.20477024601027904,-0.016161014546923078,nan
1740447701.2470336,-0.16702875630621128,0.10447074737692837,-0.19951598200166154,-0.024226842882338447,nan
1740447701.2509394,-0.1829447586183862,0.11777499766819505,-0.19510589759396338,-0.03242309558473466,nan
1740447701.2548451,-0.19765073136432698,0.1304332531588522,-0.19155048736919086,-0.04056790954778319,nan
1740447701.258751,-0.2108812682469496,0.14226102629407017,-0.18885052382462802,-0.048481882596789296,nan
1740447701.2626567,-0.22238207299779622,0.15308225064751255,-0.18699745594742015,-0.055990243167311674,nan
1740447701.2665625,-0.2319128800132085,0.16273113782985965,-0.18597390680142978,-0.0629249637934536,nan
1740447701.2704682,-0.23925025106379078,0.17105389962690742,-0.18575426149331278,-0.06912679526269266,nan
1740447701.274374,-0.24419021871097693,0.17791031875610827,-0.18630533595279616,-0.07444719913232825,nan
1740447701.2782798,-0.24655074849972403,0.1831751534054687,-0.1875871161557072,-0.07875015737611282,nan
1740447701.2821856,-0.24617399371673945,0.18673936263214802,-0.18955355674531116,-0.0819138392274903,nan
1740447701.2860932,-0.2429283184930483,0.18851114172920475,-0.19215342747454972,-0.08383210679497397,nan
1740447701.289999,-0.2367100672686373,0.1884167587957959,-0.19533119550336592,-0.08441584273001629,nan
1740447701.2939048,-0.22744506110393628,0.18640118594625515,-0.199027931344838,-0.08359408511093058,nan
1740447701.2978106,-0.21508980399380442,0.18242852084341735,-0.20318222616256948,-0.08131495674867537,nan
1740447701.3017163,-0.1996323851884631,0.17648219651769584,-0.20773110817948798,-0.07754637830057598,nan
1740447701.305622,-0.1810930665245398,0.1685649797120296,-0.2126109461630459,-0.07227655687408208,nan
1740447701.3095279,-0.15952454688842407,0.15869876024998528,-0.21775832829997793,-0.0655142441905463,nan
1740447701.3134336,-0.1350118991429559,0.14692413613691047,-0.22311090526032937,-0.05728876083439695,nan
1740447701.3173397,-0.10767217811506886,0.1332998012490269,-0.22860818686841086,-0.04764978561031043,nan
1740447701.3212454,-0.07765370153426207,0.11790174452097833,-0.2341922825397077,-0.036666911544444895,nan
1740447701.3251512,-0.04513500909675431,0.10082227148749233,-0.23980857649779566,-0.024428972569223516,nan
1740447701.329057,-0.010323508075304999,0.08216886084981923,-0.24540632974339358,-0.01104314739859089,nan
1740447701.3329642,0.026546182932548273,0.0620628704042605,-0.2509392017966969,0.003366150493601415,nan
1740447701.33687,0.06521417745637369,0.04063810817159301,-0.2563656863613311,0.01865858556056517,nan
1740447701.3407757,0.10539753420970006,0.018039285887815927,-0.2616494562497486,0.03467940209576609,nan
1740447701.3446815,0.14679271938736216,-0.005579626854601726,-0.2667596141513452,0.051261099859883585,nan
1740447701.3485873,0.18907829526218814,-0.03005712860090077,-0.27167084710093053,0.06822526599222688,nan
1740447701.352493,0.2319178097817737,-0.05522597223697273,-0.2763634838012256,0.08538454403699426,nan
1740447701.3563988,0.2749628597508351,-0.08091499098094852,-0.28082345525322494,0.10254471936982823,nan
1740447701.3603046,0.31785629833384577,-0.10695094347280844,-0.28504216043706354,0.11950689897705541,nan
1740447701.3642104,0.3602355560455407,-0.13316035722590036,-0.28901624004821685,0.13606976243336716,nan
1740447701.3681161,0.4017360431299149,-0.15937134988314525,-0.29274726251423766,0.15203186005578068,nan
1740447701.372022,0.4419946002748552,-0.18541540812108506,-0.29624132768161393,0.16719393359218937,nan
1740447701.3759277,0.48065296398019547,-0.21112910466167056,-0.2995085946565454,0.18136123443915092,nan
1740447701.3798344,0.5173612125987765,-0.23635573467727453,-0.30256274129477756,0.19434581428026296,nan
1740447701.3837402,0.5517811591071807,-0.2609468538993637,-0.30542036375188086,0.20596876319577007,nan
1740447701.387646,0.5835896570358042,-0.28476370195372697,-0.3081003253156236,0.2160623707150835,nan
1740447701.3915517,0.6124817866941767,-0.30767849583173523,-0.3106230644367011,0.22447218596351556,nan
1740447701.3954575,0.6381738898610648,-0.32957557995222736,-0.3130098724445879,0.23105895398658072,nan
1740447701.3993633,0.6604064224606241,-0.3503524209553276,-0.31528215187473946,0.23570040651117183,nan
1740447701.403269,0.6789465964033955,-0.369920437179317,-0.31746066663637684,0.23829288681161487,nan
1740447701.407175,0.6935907837188555,-0.38820565468483254,-0.319564795412664,0.23875278997642657,nan
1740447701.4110808,0.704166658326109,-0.40514918368633124,-0.3216117997050512,0.23701780170273823,nan
1740447701.4149866,0.7105350532602711,-0.4207075113073833,-0.3236161178101941,0.23304792076175515,nan
1740447701.4188924,0.7125915138702945,-0.4348526086716199,-0.32558869575220994,0.2268262524603209,nan
1740447701.4227982,0.7102675304037142,-0.4475718524524571,-0.3275363657878061,0.21835956274889531,nan
1740447701.426708,0.7035314364670024,-0.4588677631093139,-0.3294612825611346,0.20767858507176007,nan
1740447701.4306138,0.6923889630670529,-0.46875756411323843,-0.3313604263151055,0.19483807459634664,nan
1740447701.4345195,0.6768834412686733,-0.47727256848830857,-0.3332251817735432,0.17991660706955034,nan
1740447701.4384253,0.6570956499122392,-0.48445740094509804,-0.3350410004028403,0.16301612220326084,nan
1740447701.442331,0.6331433082915675,-0.4903690657379686,-0.3367871527527162,0.1442612141618877,nan
1740447701.4462368,0.605180217160654,-0.4950758721188288,-0.3384365764747654,0.1237981743841515,nan
1740447701.4501426,0.5733950548851606,-0.49865623086772054,-0.33995582443696554,0.10179379459234644,nan
1740447701.4540484,0.5380098389462311,-0.5011973368375934,-0.341305116105841,0.07843394039757183,nan
1740447701.4579542,0.49927806630701976,-0.502793753741289,-0.34243849406957516,0.05392190837255529,nan
1740447701.46186,0.45748254933325244,-0.503545918518988,-0.3433040862401409,0.028476581808778118,nan
1740447701.4657657,0.4129329669866237,-0.5035585835420778,-0.3438444729157551,0.002330402577089597,nan
1740447701.4696715,0.3659631538535874,-0.5029392156245056,-0.34399715652250507,-0.024272821452528636,nan
1740447701.473581,0.31692815220354925,-0.5017963713172626,-0.34369513050176076,-0.05108025212769095,nan
1740447701.4774868,0.2662010546631236,-0.5002380682499659,-0.34286754248381396,-0.0778324769214913,nan
1740447701.4813926,0.21416966722263475,-0.4983701723520682,-0.34144044560396297,-0.10426606067091301,nan
1740447701.4852984,0.16123302413582324,-0.4962948206341467,-0.3393376305901433,-0.13011616761121994,nan
1740447701.4892042,0.1077977878145726,-0.4941088988378387,-0.33648153009619486,-0.15511922725271524,nan
1740447701.49311,0.054274568041459054,-0.49190259267531666,-0.3327941856860215,-0.17901561699279325,nan
1740447701.4970157,0.0010741957110874517,-0.4897580305812055,-0.3281982669043953,-0.2015523339765506,nan
1740447701.5009215,-0.051396013143358656,-0.4877480348998405,-0.3226181310124616,-0.2224856286189801,nan
1740447701.5048273,-0.10273596708538532,-0.485934997238948,-0.31598091123092537,-0.24158357238341716,nan
1740447701.5087333,-0.15255644697475154,-0.4843698923494817,-0.3082176207314945,-0.2586285328744019,nan
1740447701.512639,-0.20048265634077822,-0.48309144335475684,-0.2992642591556312,-0.273419530045407,nan
1740447701.5165448,-0.24615763999334034,-0.4821254494661903,-0.289062908126031,-0.2857744483370223,nan
1740447701.5204537,-0.2892455376301797,-0.4814842855055566,-0.27756280205577705,-0.2955320808405835,nan
1740447701.5243595,-0.32943464072332723,-0.481166580623833,-0.264721360556394,-0.30255398311445314,nan
1740447701.5282652,-0.36644022280702715,-0.48115708158474646,-0.2505051689010911,-0.3067261160512341,nan
1740447701.532171,-0.4000071154274484,-0.4814267038885408,-0.2348908933134065,-0.30796025918753217,nan
1740447701.5360768,-0.4299120044305044,-0.48193277187042216,-0.21786611832272018,-0.30619517804472896,nan
1740447701.5399826,-0.45596542393541944,-0.4826194467414656,-0.19943009405336243,-0.30139753146855336,nan
1740447701.5438883,-0.47801342824262366,-0.48341833937074447,-0.17959438208817158,-0.29356250747398505,nan
1740447701.547794,-0.4959389250274415,-0.4842493024592857,-0.15838338946362407,-0.2827141787756202,nan
1740447701.5516999,-0.5096626564458214,-0.4850213946524577,-0.13583478140367894,-0.26890557196574155,nan
1740447701.555606,-0.5191438181933867,-0.48563400710037596,-0.11199976457317103,-0.25221844716554204,nan
1740447701.5595117,-0.524380310081173,-0.4859781410281322,-0.08694323391766744,-0.23276278789081542,nan
1740447701.5634174,-0.5254086152862505,-0.4859378230404802,-0.06074377754226628,-0.21067600381278018,nan
1740447701.5673258,-0.5223033090678066,-0.48539164317951405,-0.03349353555291136,-0.18612185202799109,nan
1740447701.5712316,-0.5151762013735639,-0.484214399197869,-0.005297910325264351,-0.1592890853488535,nan
1740447701.5751374,-0.5041751213619322,-0.48227882912167974,0.023724872737897605,-0.13038983895858078,nan
1740447701.5790431,-0.48948235539636226,-0.47945741297299077,0.05344435326639862,-0.09965776951249997,nan
1740447701.582949,-0.4713127534951171,-0.4756242235145545,0.08371857045147713,-0.06734596338315793,nan
1740447701.5868547,-0.44991152250803446,-0.47065680508320074,0.11439494003972125,-0.033724633212554055,nan
1740447701.5907605,-0.425551727408904,-0.46443805900116253,0.14531126814784626,0.0009213757749340906,nan
1740447701.5946665,-0.3985315250067513,-0.4568581137057195,0.17629689464753004,0.0362952461549239,nan
1740447701.5985723,-0.3691711570621573,-0.44781615762173144,0.20717395731465893,0.07209098996851411,nan
1740447701.602478,-0.33780973221858873,-0.43722221292210167,0.23775876645179594,0.10799636463314871,nan
1740447701.6063838,-0.30480182829896424,-0.4249988286785439,0.26786327829340306,0.14369587469614004,nan
1740447701.6102896,-0.2705139483522519,-0.4110826724974411,0.297296654206707,0.1788738299393791,nan
1740447701.6141975,-0.2353208653447353,-0.39542600055873744,0.32586689152245973,0.21321742954395784,nan
1740447701.6181033,-0.1996018915598737,-0.3779979870229377,0.35338251078357913,0.2464198415228255,nan
1740447701.6220093,-0.16373710958663262,-0.35878589503340697,0.3796542832987757,0.2781832464351298,nan
1740447701.625915,-0.12810360222971387,-0.3377960730068241,0.4044969821445672,0.308221814511903,nan
1740447701.6298208,-0.09307171876054701,-0.31505476156026313,0.4277311391826259,0.33626458575008766,nan
1740447701.6337266,-0.05900141464316218,-0.29060869825339214,0.44918479025873037,0.36205822326865206,nan
1740447701.6376324,-0.026238701215730183,-0.26452550931113644,0.46869519053151815,0.3853696112615383,nan
1740447701.6415381,0.004887759208127273,-0.2368938796165286,0.4861104818485402,0.4059882702191303,nan
1740447701.645444,0.0340698787254264,-0.20782349450454704,0.501291294246849,0.42372856371166046,nan
1740447701.6493497,0.061023157337992004,-0.17744474922338616,0.5141122640065471,0.43843167292038676,nan
1740447701.6532555,0.08548945421537399,-0.14590822433633985,0.5244634512273185,0.44996731724837813,nan
1740447701.6571612,0.1072394887346647,-0.11338392779119885,0.5322516406269434,0.458235201722957,nan
1740447701.661069,0.12607504593821295,-0.08006030685974039,0.5374015101722663,0.4631661744940631,nan
1740447701.6649747,0.141830863943426,-0.04614303562226301,0.5398566532398591,0.4647230805128087,nan
1740447701.6688805,0.15437618396477923,-0.011853586115633202,0.5395804412570022,0.4629013004158934,nan
1740447701.6727862,0.16361594693667844,0.022572406347432423,0.5365567151826407,0.4577289667162255,nan
1740447701.676692,0.16949162422483938,0.05688697087022393,0.5307902957402848,0.4492668525783943,nan
1740447701.6805978,0.17198167354936114,0.09083180665124937,0.5223073039961736,0.4376079317086271,nan
1740447701.6845036,0.17110161497920778,0.12414044954833552,0.5111552856707451,0.4228766111807628,nan
1740447701.6884093,0.16690372565880618,0.15654058049636307,0.4974031344624843,0.4052276423200139,nan
1740447701.692315,0.15947635575553185,0.18775645498971924,0.4811408116323048,0.38484471804215925,nan
1740447701.6962209,0.14894287193420655,0.21751143127362635,0.4624788611244272,0.361938768264472,nan
1740447701.7001266,0.13546023843350283,0.24553057353019228,0.44154772156613725,0.33674596813366187,nan
1740447701.7040324,0.11921724950185024,0.2715433052112476,0.4184968385729383,0.3095254768236189,nan
1740447701.7079396,0.10043243051017994,0.29528608677455476,0.39349358286634134,0.28055692751089234,nan
1740447701.7118454,0.07935162845991658,0.31650509143430117,0.36672198176725723,0.25013769180907874,nan
1740447701.7157512,0.056245315812556325,0.33495885215001997,0.33838127363725795,0.21857994440658562,nan
1740447701.7196572,0.031405634549393886,0.3504208529568113,0.3086842967815042,0.1862075558794991,nan
1740447701.723563,0.005143210095918654,0.36268203788782943,0.2778557261801281,0.15335284361844817,nan
1740447701.7274687,-0.022216232813125108,0.3715532111589277,0.2461301731589701,0.12035321249383514,nan
1740447701.7313745,-0.050335418120485566,0.37686730297352244,0.21375016472660038,0.08754771826859153,nan
1740447701.7352803,-0.07886919427840904,0.37848147625920425,0.18096402077404514,0.055273587835478935,nan
1740447701.739186,-0.10746830047229806,0.3762790508595276,0.14802364863976072,0.0238627310937378,nan
1740447701.7430918,-0.13578318470329312,0.37017122316535417,0.11518227566937582,-0.006361720322492151,nan
1740447701.7469976,-0.16346783449842223,0.3600985608681235,0.08269214133378822,-0.035088812200876576,nan
1740447701.7509034,-0.19018358070759428,0.34603225443808094,0.05080217119809665,-0.06202306982928943,nan
1740447701.75481,-0.2156028349316729,0.327975109056956,0.019755655547382,-0.0868876686825428,nan
1740447701.7587159,-0.239412721606312,0.30596226304796437,-0.010212044234646373,-0.10942744040109469,nan
1740447701.7626216,-0.26131856663952563,0.28006162132528895,-0.03887573837767621,-0.12941168208249018,nan
1740447701.7665274,-0.2810472057604166,0.25037399500755947,-0.06602257754384779,-0.14663673857323054,nan
1740447701.7704332,-0.29835007737187996,0.2170329410809054,-0.09145412517780213,-0.1609283294320131,nan
1740447701.774339,-0.3130060666971001,0.1802042988310567,-0.11498831145309477,-0.17214359451801794,nan
1740447701.7782447,-0.32482407035070887,0.14008542266381904,-0.13646124775233895,-0.18017283472035361,nan
1740447701.7821505,-0.3336452531291375,0.09690411387111732,-0.1557288817153432,-0.1849409271641283,nan
1740447701.7860563,-0.33934497177666034,0.05091725684731418,-0.17266847420335052,-0.18640839727948796,nan
1740447701.789962,-0.341834343716145,0.0024091681888304423,-0.18717988104800526,-0.18457213337446504,nan
1740447701.7938678,-0.3410614422064237,-0.048310330009691135,-0.19918662416840924,-0.17946573278045286,nan
1740447701.7977738,-0.3370121030683299,-0.10090809854592062,-0.20863673853399617,-0.17115947220852878,nan
1740447701.8016837,-0.329710331973987,-0.15503011437170727,-0.21550338350839648,-0.1597598986320079,nan
1740447701.8055894,-0.31921830528164286,-0.2103041293445885,-0.21978520931159465,-0.14540904076042857,nan
1740447701.8094952,-0.30563596148281613,-0.2663425326795194,-0.221506471664383,-0.12828324495665397,nan
1740447701.813401,-0.28910018447005986,-0.32274539308733685,-0.22071689010885465,-0.10859164323522413,nan
1740447701.8173068,-0.26978358399164054,-0.3791036545694606,-0.21749124800849387,-0.08657426472947216,nan
1740447701.8212125,-0.2478928827931518,-0.43500245805008947,-0.211928734797445,-0.062499805690267946,nan
1740447701.8251183,-0.22366692401445465,-0.49002455948724066,-0.20415203364581533,-0.03666307664406455,nan
1740447701.829024,-0.19737431637298772,-0.5437538138297698,-0.19430616031100176,-0.009382148756299344,nan
1740447701.8329298,-0.1693107384815724,-0.5957786931940137,-0.18255706152815981,0.01900477531646059,nan
1740447701.8368356,-0.1397959272818925,-0.6456958069331954,-0.16908998383005033,0.04814273777923917,nan
1740447701.8407414,-0.10917037898675833,-0.6931133908748999,-0.15410762615175377,0.07766361817260035,nan
1740447701.8446472,-0.07779179408006869,-0.7376547329135829,-0.1378280919437106,0.10718990838209946,nan
1740447701.8485568,-0.04603130079016702,-0.778961502370007,-0.12048265876225689,0.13633863439745,nan
1740447701.8524625,-0.014269493999932091,-0.8166969510686722,-0.10231338540651264,0.16472538716197901,nan
1740447701.8563683,0.017107671241989114,-0.8505489549355001,-0.08357057860114182,0.19196842332695607,nan
1740447701.860274,0.04771309061385388,-0.8802328660761265,-0.06451014296483858,0.21769279556531657,nan
1740447701.8641798,0.07716278338329353,-0.9054941467519741,-0.04539083953448795,0.24153447131991443,nan
1740447701.8680856,0.10508018377455225,-0.9261107584157166,-0.026471479416786906,0.2631443984741146,nan
1740447701.8719914,0.13110040676608872,-0.9418952809858475,-0.00800808019670672,0.28219247644481477,nan
1740447701.8758972,0.15487444406537915,-0.9526967398151515,0.009748986468357142,0.2983713916138034,nan
1740447701.879803,0.17607324626477114,-0.9584021203206118,0.026557827109944008,0.31140027683274585,nan
1740447701.8837087,0.19439164787586485,-0.9589375529709624,0.042187809355231774,0.32102815595616,nan
1740447701.8876145,0.2095520930668192,-0.9542691542487164,0.05642226630243051,0.32703713596792117,nan
1740447701.8915203,0.22130812147967888,-0.9444035122900135,0.06906109351031205,0.32924531125848316,nan
1740447701.8954294,0.22944757547161207,-0.9293878091302807,0.07992321035889059,0.32750934696701145,nan
1740447701.8993351,0.23379549248900677,-0.9093095748170394,0.088848858437428,0.3217267110060515,nan
1740447701.903241,0.234216649027071,-0.8842960720626241,0.09570171079786623,0.3118375274139144,nan
1740447701.9071467,0.2306177257263386,-0.8545133135674071,0.10037076736905604,0.29782602700601096,nan
1740447701.9110525,0.22294906658424873,-0.8201647176160323,0.10277201354933317,0.2797215748922464,nan
1740447701.9149582,0.2112060089843094,-0.7814894110023858,0.1028498209691174,0.2575992582617435,nan
1740447701.918864,0.1954297652337422,-0.7387601917406753,0.1005780716256506,0.2315800218746074,nan
1740447701.9227698,0.17570784051670701,-0.6922811673375261,0.09596098902056419,0.20183034290680107,nan
1740447701.9266756,0.15217397657540196,-0.6423850876012079,0.08903366255732101,0.16856144113030286,nan
1740447701.9305813,0.12500761498478657,-0.5894303940178214,0.07986225425691675,0.13202802483671433,nan
1740447701.9344873,0.0944328785457813,-0.5337980106003257,0.06854387980210101,0.09252657738743603,nan
1740447701.938393,0.0607170740427248,-0.47588790378601636,0.0552061589962883,0.05039319375552721,nan
1740447701.9423015,0.024168724348785996,-0.41611544139445045,0.040006433895376045,0.006000980871113441,nan
1740447701.9462073,-0.014864857427265869,-0.3549075828359702,0.02313065610973363,-0.04024296004856366,nan
1740447701.950113,-0.056000434423491764,-0.292698934658031,0.004791948049356037,-0.08790094675376238,nan
1740447701.9540188,-0.09882213128947986,-0.2299277071122811,-0.014771153833287485,-0.13650849828204126,nan
1740447701.9579248,-0.1428851120317148,-0.16703160870215106,-0.03529676249230665,-0.18557845593595923,nan
1740447701.9618306,-0.18771962008913068,-0.10444371661375795,-0.05650199592025372,-0.23460540886315603,nan
1740447701.9657364,-0.23283534638661876,-0.0425883615305737,-0.07808560734370358,-0.2830703868113929,nan
1740447701.9696422,-0.27772608749899313,0.018122934424123823,-0.09973086937305324,-0.33044577956996474,nan
1740447701.973548,-0.3218746527660353,0.07729542798883615,-0.12110868865652252,-0.37620043989040153,nan
1740447701.9774537,-0.36475797626489337,0.13455499515849262,-0.14188092492693957,-0.41980492433250893,nan
1740447701.9813595,-0.4058523870003355,0.18955180435853117,-0.16170388587542692,-0.4607368245323033,nan
1740447701.9852653,-0.44463898854371425,0.24196378627742274,-0.18023196706491273,-0.49848613985862544,nan
1740447701.9891734,-0.48060909766190524,0.2914998657765786,-0.19712140413283843,-0.5325606413337137,nan
1740447701.9930792,-0.5132696902478295,0.33790292317243975,-0.21203410284879468,-0.5624911760545401,nan
1740447701.996985,-0.5421488021102749,0.38095245438265196,-0.22464151120904205,-0.5878368611768612,nan
1740447702.0008907,-0.5668008319138972,0.42046690192900144,-0.23462849668324962,-0.6081901168191345,nan
1740447702.0047965,-0.5868116937875333,0.4563056315734385,-0.24169719099391684,-0.6231814880108787,nan
1740447702.0087023,-0.6018037678425996,0.48837053240674366,-0.24557076441745884,-0.6324842070474428,nan
1740447702.012608,-0.61144059806108,0.5166072214860009,-0.24599709155639377,-0.6358184493140148,nan
1740447702.0165138,-0.6154312887175794,0.5410058375988267,-0.24275227084980952,-0.6329552377950755,nan
1740447702.0204196,-0.613534552680562,0.5616014123885866,-0.2356439607664445,-0.6237199540762962,nan
1740447702.0243254,-0.6055623675782068,0.5784738108733855,-0.22451449665994713,-0.6079954166547151,nan
1740447702.0282311,-0.5913831988938433,0.5917472372985021,-0.2092437536547001,-0.5857244907766602,nan
1740447702.032137,-0.5709247525500422,0.6015893062419994,-0.18975172266488385,-0.5569121977941192,nan
1740447702.0360448,-0.5441762234203414,0.6082096829103939,-0.16600076871807723,-0.5216272961383509,nan
1740447702.0399506,-0.5111900104409066,0.6118583005788942,-0.1379975431429861,-0.4800033104204438,nan
1740447702.0438564,-0.4720828735450068,0.6128231671117513,-0.10579452387126895,-0.43223898984500986,nan
1740447702.0477622,-0.4270365124718934,0.611427776405963,-0.06949116107513766,-0.3785981820254833,nan
1740447702.051668,-0.37629755256640945,0.6080281443993785,-0.029234608591887118,-0.31940911337516,nan
1740447702.0555737,-0.3201769279417921,0.6030094929365094,0.014779974952423055,-0.25506307247293614,nan
1740447702.0594795,-0.259048657779101,0.5967826082574296,0.06230956774401217,-0.1860124981207174,nan
1740447702.0633852,-0.19334801703405977,0.5897799041338521,0.11306387769515813,-0.11276847917342417,nan
1740447702.067291,-0.12356910836635321,0.5824512226903383,0.16670639128372058,-0.03589767858454141,nan
1740447702.0711968,-0.05026184764714341,0.5752594086881301,0.22285587885189448,0.04398130057823741,nan
1740447702.0751026,0.02597161911288613,0.5686756954872932,0.2810883527494523,0.12620208417972925,nan
1740447702.0790083,0.10448104419088056,0.5631749430149795,0.34093947052679663,0.21005520309231462,nan
1740447702.0829155,0.18457272348340795,0.5592307698321477,0.40190737120921993,0.2947932433921013,nan
1740447702.0868213,0.2655146252677018,0.5573106227890892,0.4634559285538297,0.3796364331346284,nan
1740447702.090727,0.34654196414547994,0.5578708287763108,0.5250184011428598,0.4637786238166776,nan
1740447702.0946329,0.4268631774461927,0.561351673699478,0.5860014552392985,0.5463936206029352,nan
1740447702.0985386,0.5056662572299074,0.5681725540267255,0.6457895325600538,0.6266418117313247,nan
1740447702.1024446,0.5821253872730312,0.5787272460686633,0.7037495315444674,0.7036770442448097,nan
1740447702.1063504,0.6554078310797758,0.5933793375545979,0.7592357673465671,0.776653690362923,nan
1740447702.1102562,0.7246810140721872,0.6124578650651591,0.8115951726912376,0.8447338464323126,nan
1740447702.114162,0.7891197407013291,0.6362531994779396,0.8601726989385624,0.9070946045072761,nan
1740447702.1180677,0.847913485317377,0.6650132197885081,0.9043168742257802,0.9629353352295934,nan
1740447702.1219735,0.9002736942579691,0.6989398134977933,0.9433854734289059,1.0114849198185072,nan
1740447702.1258793,0.9454410357786981,0.7381857392251383,0.9767512529294005,1.0520088686585856,nan
1740447702.1297896,0.9826925341687736,0.7828518843345561,1.0038077018057545,1.083816264192664,nan
1740447702.1336954,1.011348524675334,0.8329849471733256,1.0239747601124296,1.1062664665918691,nan
1740447702.1376011,1.030779366703473,0.8885755700434809,1.0367044543728208,1.1187755219824829,nan
1740447702.141507,1.0404118541623013,0.949556945287122,1.0414864003086868,1.1208222148531597,nan
1740447702.1454127,1.039735263782043,1.0158039128976355,1.0378531231619201,1.1119537086338036,nan
1740447702.1493185,1.0283069847197912,1.0871325639047313,1.0253851467379427,1.0917907213127243,nan
1740447702.1532242,1.0057576757838687,1.1633003594576259,1.003715803511656,1.0600321863202598,nan
1740447702.15713,0.9717959001157113,1.244006771085337,0.9725357197813715,1.0164593527292973,nan
1740447702.1610358,0.926212191146169,1.3288944430846505,0.9315969319237477,0.9609392830761112,nan
1740447702.1649415,0.8688825080581285,1.4175508734147475,0.8807165922804444,0.8934277117548988,nan
1740447702.1688473,0.799771043803326,1.5095106049031488,0.8197802260774805,0.8139712319486344,nan
1740447702.1727533,0.7189323538983325,1.6042579140310755,0.7487445040206582,0.7227087843865352,nan
1740447702.1766632,0.6265127797196455,1.701229980108236,0.6676394988004535,0.6198724268204318,nan
1740447702.180569,0.5227511457842632,1.799820513307168,0.5765703976497889,0.5057873689420128,nan
1740447702.1844747,0.40797871649114953,1.8993838158450387,0.4757186472976068,0.3808712634712725,nan
1740447702.1883805,0.2826184039592361,1.999239246613911,0.36534251211630436,0.24563275028276574,nan
1740447702.1922863,0.14718322487620217,2.0986760558054347,0.24577703093595082,0.10066925664814726,nan
1740447702.196192,0.0022740106148418197,2.196958552587146,0.1174333628542603,-0.05333593709211666,nan
1740447702.2000978,-0.15142361877482824,2.293331565697293,-0.01920248263183929,-0.21561735091180612,nan
1740447702.2040036,-0.31314299978478294,2.3870261539631463,-0.16357153075141187,-0.3853316559023878,nan
1740447702.2079093,-0.4820408667638816,2.4772655212409567,-0.31504433626849904,-0.561562694882237,nan
1740447702.211815,-0.6572024601666708,2.5632710881481464,-0.4729240772388966,-0.7433271394071855,nan
1740447702.215721,-0.8376472667384488,2.644268671230422,-0.6364502318488628,-0.9295807442293942,nan
1740447702.2196267,-1.0223353510651605,2.7194947188956498,-0.8048028174176532,-1.1192251549932792,nan
1740447702.223536,-1.2101742326548253,2.788202552565877,-0.9771071657156818,-1.311115220036054,nan
1740447702.2274418,-1.4000262578145735,2.849668561058824,-1.1524392039857556,-1.5040667526203704,nan
1740447702.2313476,-1.590716411088219,2.903198296216186,-1.3298312064988533,-1.696864685808473,nan
1740447702.2352533,-1.7810405069646176,2.948132418250391,-1.5082779771694221,-1.8882715585287357,nan
1740447702.239159,-1.9697736989939536,2.9838524401818804,-1.6867434197374527,-2.0770362682199175,nan
1740447702.2430649,-2.155679240390734,3.0097862220797595,-1.864167448332705,-2.2619030227956003,nan
1740447702.246971,-2.337517427687205,3.0254131675898175,-2.039473187904955,-2.4416204225759826,nan
1740447702.2508767,-2.5140546570532556,3.0302690774218983,-2.211574411064598,-2.614950601307038,nan
1740447702.2547824,-2.6840725215377335,3.0239506170558785,-2.3793831553589873,-2.7806783544435283,nan
1740447702.2586882,-2.846376876725367,3.006119358891216,-2.5418174629363883,-2.9376201825231845,nan
1740447702.262594,-2.9998068021522726,2.976505362384739,-2.6978091829429136,-3.084633177709923,nan
1740447702.2664998,-3.1432433862844658,2.9349102593674186,-2.8463117758755914,-3.2206236824346988,nan
1740447702.2704086,-3.27561826393644,2.8812098156729284,-2.9863080584903106,-3.3445556505086507,nan
1740447702.2743144,-3.3959218366832,2.815355944415448,-3.116817827745882,-3.4554586431145182,nan
1740447702.2782202,-3.503211109086899,2.737378150685947,-3.2369053026597236,-3.552435394683958,nan
1740447702.282126,-3.5966170764006713,2.6473843920573215,-3.3456863238572345,-3.6346688868202035,nan
1740447702.2860317,-3.675351602804596,2.5455613440597262,-3.4423352520116093,-3.7014288721027873,nan
1740447702.2899375,-3.73871373314449,2.432174064667586,-3.5260915082856177,-3.75207779378426,nan
1740447702.2938433,-3.786095385551175,2.307565056786908,-3.5962657022885556,-3.786076052024361,nan
1740447702.297749,-3.8169863771793495,2.172152732703303,-3.652245295933569,-3.8029865723669114,nan
1740447702.3016548,-3.8309787405808327,2.0264292894044624,-3.6934997549012345,-3.8024786376074804,nan
1740447702.3055608,-3.8277702938722555,1.8709580085831672,-3.7195851431599882,-3.78433094998044,nan
1740447702.3094666,-3.807167433824873,1.7063699999155975,-3.730148120133192,-3.7484338966646304,nan
1740447702.3133724,-3.76908712724353,1.5333604108535608,-3.7249293046042147,-3.694790997916797,nan
1740447702.3172808,-3.7135580824601253,1.352684130627732,-3.7037659742789413,-3.6235195236386977,nan
1740447702.3211865,-3.640721089389289,1.1651510203935391,-3.666594075040587,-3.534850270812833,nan
1740447702.3250923,-3.5508285233241597,0.9716207054250532,-3.6134495192933813,-3.429126500947551,nan
1740447702.328998,-3.4442430144307,0.7729969689405919,-3.544468758355539,-3.306802043398546,nan
1740447702.3329039,-3.3214352916722425,0.5702217904947354,-3.459888619582289,-3.168438577123762,nan
1740447702.3368096,-3.1829812166039595,0.36426907486589327,-3.3600454047291715,-3.0147021100262616,nan
1740447702.3407156,-3.0295580290625543,0.1561381199803397,-3.2453732519558183,-2.8463586814889177,nan
1740447702.3446214,-2.86193983318338,-0.053153125379911605,-3.1164017697718176,-2.664269319951593,nan
1740447702.3485272,-2.680992358350727,-0.262574961556209,-2.9737529570893266,-2.4693842933729435,nan
1740447702.352433,-2.487667035574422,-0.4710929418084165,-2.8181374293224506,-2.262736696104592,nan
1740447702.3563387,-2.282994435337062,-0.677674925165215,-2.6503499761121017,-2.0454354210372303,nan
1740447702.3602445,-2.0680771181236204,-0.8812981231381558,-2.4712644817090896,-1.8186575708111732,nan
1740447702.3641524,-1.8440819535851571,-1.0809560851407596,-2.2818282442710096,-1.5836403663764724,nan
1740447702.3680582,-1.612231968560342,-1.275665567949442,-2.083055735275325,-1.3416726152021268,nan
1740447702.3719642,-1.373797787946553,-1.4644732354970238,-1.8760218448792496,-1.0940858049363784,nan
1740447702.37587,-1.130088735644485,-1.6464621366935306,-1.6618546633266296,-0.8422448912813382,nan
1740447702.3797758,-0.8824436654694298,-1.8207579108106953,-1.4417278523758932,-0.5875388512404636,nan
1740447702.3836815,-0.6322215940064337,-1.986534672229807,-1.2168526641674013,-0.33137107470688687,nan
1740447702.3875873,-0.3807922088682965,-2.1430205290175626,-0.9884696679329987,-0.0751496685694563,nan
1740447702.391493,-0.1295263266829078,-2.289502692837983,-0.7578402474486492,0.17972225188809354,nan
1740447702.3953989,0.1202136246167604,-2.4253321411037243,-0.5262379341204584,0.4318562095356293,nan
1740447702.3993046,0.3670830250017523,-2.549927795987561,-0.29493964205702355,0.6798878757636728,nan
1740447702.4032104,0.6097643098497822,-2.6627801889221034,-0.0652168724031977,0.9224863717779378,nan
1740447702.4071162,0.8469759741366291,-2.7634545834778153,0.16167304541701286,1.1583632897648444,nan
1740447702.4110239,1.077481263905393,-2.8515935339893925,0.3844956080819836,1.38628136528635,nan
1740447702.4149296,1.3000964883697819,-2.926918861959237,0.6020476216469929,1.6050627352361957,nan
1740447702.4188354,1.5136988893229657,-2.9892330370639484,0.8131654482637846,1.8135967191963127,nan
1740447702.4227412,1.7172340083574604,-3.0384199544838206,1.016732952719702,2.0108470660410767,nan
1740447702.426647,1.9097224967199773,-3.0744451052239294,1.2116890875178756,2.1958586121135197,nan
1740447702.4305527,2.0902663173899407,-3.0973551410558526,1.3970350580726187,2.3677633022027242,nan
1740447702.4344585,2.2580542941394746,-3.107276840638639,1.5718410129293803,2.5257855298431053,nan
1740447702.4383643,2.4123669678605815,-3.104415488234084,1.7352522077089354,2.6692467590885465,nan
1740447702.44227,2.552580726283709,-3.089052681172911,1.8864945956897319,2.797569395838941,nan
1740447702.4461758,2.6781711793097305,-3.061543586814849,2.0248798025455055,2.9102798829629126,nan
1740447702.4500818,2.788715758481731,-3.0223136741376706,2.1498094477091363,3.0070109998155687,nan
1740447702.4539876,2.8838955255787972,-2.971854949250941,2.260778780096922,3.087503353239814,nan
1740447702.4578948,2.9634961818657435,-2.9107217280244018,2.35737960145594,3.151606053708903,nan
1740447702.4618006,3.0274082761235293,-2.8395259826161388,2.439302456344726,3.199276576860779,nan
1740447702.4657063,3.0756266161584715,-2.7589323019519685,2.5063380736757606,3.230579817235473,nan
1740447702.4696121,3.1082488949879163,-2.669652509118068,2.558378050787644,3.2456863475002895,nan
1740447702.473518,3.125473549270165,-2.5724399811601533,2.595414777124525,3.244869902779078,nan
1740447702.4774237,3.127596873733157,-2.468083718914232,2.617540600728869,3.22850411583884,nan
1740447702.4813294,3.1150094213072084,-2.3574022162095547,2.6249462468495746,3.1970585347779474,nan
1740447702.4852352,3.0881917243319448,-2.241237179071079,2.6179185039793786,3.1510939604566794,nan
1740447702.489141,3.047709377539166,-2.1204471463973364,2.596837198512827,3.0912571461664604,nan
1740447702.4930468,2.99420752846721,-1.995901063995131,2.5621714849094777,3.0182749069061767,nan
1740447702.4969525,2.9284048254980757,-1.8684718638137279,2.5144754837085506,2.9329476900827913,nan
1740447702.5008583,2.8510868777887315,-1.7390300997408346,2.4543833049250803,2.836142663443468,nan
1740447702.5047686,2.763099284960345,-1.6084376904074555,2.382603499220323,2.7287863795460474,nan
1740447702.5086744,2.6653402974849505,-1.4775418181090594,2.2999129837401067,2.611857079056788,nan
1740447702.5125802,2.558753171244891,-1.3471690312005802,2.207150493616231,2.4863766976062327,nan
1740447702.516486,2.4443182817173192,-1.2181195951804091,2.1052096137941576,2.3534026428181174,nan
1740447702.5203917,2.3230450646403016,-1.0911621351647969,1.9950314490543184,2.214019409439438,nan
1740447702.5242975,2.1959638508401147,-0.9670286095933784,1.8775969928084186,2.069330101234374,nan
1740447702.5282032,2.0641176631373983,-0.8464096518261555,1.7539192574538007,1.9204479284578282,nan
1740447702.5321093,1.928554042904837,-0.7299503128221669,1.6250352307406075,1.7684877492981308,nan
1740447702.536015,1.7903169729275723,-0.6182462343628089,1.4919977237351054,1.6145577226803212,nan
1740447702.5399208,1.650438961731615,-0.511840278332734,1.3558671765396022,1.4597511382634045,nan
1740447702.5438266,1.5099333525117447,-0.4112196334348965,1.2177034879512534,1.305138487364207,nan
1740447702.5477324,1.3697869172304373,-0.3168134164314404,1.078557934709868,1.151759835918508,nan
1740447702.5516422,1.230952793399165,-0.22899078060755276,0.9394652449044255,1.0006175574729845,nan
1740447702.555548,1.0943438175233855,-0.14805953969092542,0.8014358884900297,0.8526694806194908,nan
1740447702.5594537,0.9608263052269984,-0.0742653109650771,0.665448645726652,0.7088225012702928,nan
1740447702.5633595,0.8312143237089644,-0.0077911768305479814,0.532443511707978,0.5699267057668223,nan
1740447702.5672653,0.7062644974654296,0.05124214036630512,0.4033149920269051,0.43677004605607933,nan
1740447702.571171,0.5866713831793314,0.10277559976246925,0.27890584105187016,0.3100736031017577,nan
1740447702.5750768,0.4730634443827325,0.14681067340931322,0.1600012902970855,0.1904874693675961,nan
1740447702.5789826,0.3659996509838006,0.18340770550412433,0.04732380999543233,0.07858727566644559,nan
1740447702.5828884,0.2659667230708776,0.21268382107703282,-0.058471557736194966,-0.025128618040109123,nan
1740447702.5867941,0.17337703261191234,0.23481040941308734,-0.15680126077118484,-0.12024125412932313,nan
1740447702.5907,0.0885671708109728,0.2500102108521981,-0.2471566658000798,-0.20641252321474127,nan
1740447702.5946057,0.011797183016987175,0.2585540386827671,-0.32910683151640907,-0.28338592247184824,nan
1740447702.5985153,-0.05674953274450704,0.26075717060281295,-0.40230060922609223,-0.3509866302651651,nan
1740447702.602421,-0.11696567327658854,0.2569754466432614,-0.46646805971867533,-0.40912090671348517,nan
1740447702.6063268,-0.16881883900002945,0.247601112512877,-0.521421181077696,-0.45777483545235664,nan
1740447702.6102328,-0.21234972466754443,0.23305844901750986,-0.5670539479613247,-0.49701242728640765,nan
1740447702.6141386,-0.24766971780001693,0.21379922951597718,-0.6033416687025815,-0.5269731116225652,nan
1740447702.6180444,-0.27495793551394887,0.19029804829249283,-0.6303396723108631,-0.5478686464953022,nan
1740447702.6219501,-0.2944577349576738,0.16304756324640368,-0.6481813430540265,-0.5599794825957867,nan
1740447702.625856,-0.306472736760032,0.13255369642294665,-0.6570755257151267,-0.5636506209607752,nan
1740447702.6297617,-0.3113624046848357,0.09933083563631748,-0.6573033298039498,-0.559287007829953,nan
1740447702.6336675,-0.3095372280470356,0.06389707977488028,-0.6492143659168663,-0.5473485136118402,nan
1740447702.6375732,-0.30145355635555643,0.026769569337310777,-0.6332224520378074,-0.5283445458818344,nan
1740447702.641479,-0.2876081380811344,-0.01154005765874662,-0.6098008318199087,-0.5028283488492201,nan
1740447702.6453917,-0.2685324173875582,-0.050530046011096404,-0.5794769507461978,-0.47139104375509144,nan
1740447702.6492975,-0.24478664409842069,-0.08971270361355135,-0.5428268395069601,-0.4346554661867633,nan
1740447702.6532032,-0.2169538530904585,-0.12861834778108877,-0.5004691569230375,-0.39326985730751624,nan
1740447702.657109,-0.18563376970529583,-0.1667989863962092,-0.45305894726442614,-0.34790146649928816,nan
1740447702.6610148,-0.15143669765505202,-0.20383170558646527,-0.40128116884238296,-0.29923012290063983,nan
1740447702.6649206,-0.11497744526967624,-0.23932173880197052,-0.34584405227546877,-0.2479418327980607,nan
1740447702.6688263,-0.0768693448056524,-0.27290519551441816,-0.2874723478348146,-0.1947224588050198,nan
1740447702.672732,-0.03771841792181298,-0.3042514312725617,-0.22690052175502848,-0.14025153525417103,nan
1740447702.676638,0.0018822616522079004,-0.3330650444889013,-0.16486596135310078,-0.08519627225197145,nan
1740447702.6805437,0.04135795975232915,-0.3590874890629893,-0.10210224823132324,-0.03020579842408193,nan
1740447702.6844497,0.08015738215710799,-0.3820982957326628,-0.0393325577593082,0.024094310459662094,nan
1740447702.6883554,0.11775744146439508,-0.4019158988492053,0.022736758553227644,0.07710717302038901,nan
1740447702.6922638,0.15366765189953738,-0.41839806906019517,0.08342235325067651,0.12826937358958607,nan
1740447702.6961696,0.1874341174732508,-0.4314419561187358,0.14206977368519025,0.17705532684139086,nan
1740447702.7000754,0.218643083166617,-0.4409837496853128,0.19805901429737338,0.22298120345244968,nan
1740447702.7039814,0.24692402331117105,-0.4469979695148131,0.25080968477880583,0.26560838893087313,nan
1740447702.7078872,0.27195224600994594,-0.44949639979400335,0.29978575223820353,0.30454645238087186,nan
1740447702.711793,0.293450997265423,-0.4485266855834421,0.3444998196047227,0.33945560674899283,nan
1740447702.7156987,0.3111930533964636,-0.4441706122937322,0.38451690691997165,0.3700486469863993,nan
1740447702.7196045,0.32500179529188294,-0.43654209186284965,0.41945770685410344,0.39609235751374894,nan
1740447702.7235103,0.3347517630164859,-0.42578488177515333,0.4490012906878557,0.4174083853451639,nan
1740447702.727416,0.34036869420998944,-0.4120700652523788,0.4728872460870582,0.4338735801699026,nan
1740447702.7313218,0.34182905455445045,-0.39559332283413035,0.4909172332126611,0.44541980755985144,nan
1740447702.7352276,0.33915907328748496,-0.3765720271348613,0.5029559510108793,0.4520332462239141,nan
1740447702.7391357,0.33243330126376963,-0.35524219380396416,0.5089315108668591,0.4537531848245011,nan
1740447702.7430415,0.3217727133753976,-0.3318553226164859,0.5088352201337709,0.45067033826603337,nan
1740447702.7469473,0.3073423811942088,-0.30667516317868065,0.502720783319903,0.44292470752234064,nan
1740447702.750853,0.2893487454605942,-0.2799744399429084,0.4907029338826194,0.4307030109532881,nan
1740447702.7547588,0.26803652148076956,-0.2520315710914976,0.4729555145943652,0.4142357186379482,nan
1740447702.7586646,0.2436852735789223,-0.2231274153736046,0.44970902926833023,0.39379372449228334,nan
1740447702.7625704,0.21660569745609118,-0.19354208017067648,0.42124769321788225,0.3696846938172677,nan
1740447702.7664762,0.187135651612245,-0.16355182293572781,0.3879060141347499,0.34224912641571487,nan
1740447702.770382,0.1556359808737291,-0.13342607671339002,0.3500649390690955,0.31185617750382194,nan
1740447702.7742877,0.1224861765211957,-0.10342462871837048,0.3081476068460213,0.2788992803113976,nan
1740447702.7781935,0.08807991852357609,-0.07379497894930959,0.26261474852681804,0.2437916155018605,nan
1740447702.7820992,0.052820545946231104,-0.04476990356508353,0.21395978139221739,0.2069614733423877,nan
1740447702.7860072,0.01711650171493531,-0.01656524527580741,0.1627036443653876,0.16884755491320963,nan
1740447702.789913,-0.018623202414966504,0.010622049672341599,0.10938942478502531,0.12989425856434159,nan
1740447702.7938187,-0.053993455605805624,0.03661563118272538,0.05457682796801493,0.09054699731331281,nan
1740447702.7977245,-0.08859740852069249,0.061261167912313626,-0.0011634579442512058,0.05124759193822689,nan
1740447702.8016303,-0.12205068247153722,0.08442748213568133,-0.057255448788758684,0.012429783169946853,nan
1740447702.805536,-0.15398538686291582,0.1060073893815922,-0.11312354967668718,-0.025485095357582865,nan
1740447702.8094418,-0.18405390703420416,0.12591823857153295,-0.16819818601895906,-0.06209224385829273,nan
1740447702.8133476,-0.21193242731719003,0.1441021516191289,-0.22192132838727427,-0.09700728577387449,nan
1740447702.8172534,-0.2373241571552532,0.16052596465933655,-0.2737518606509031,-0.12986988550127798,nan
1740447702.8211591,-0.2599622314411838,0.17518087623447684,-0.32317074261484763,-0.16034706327058518,nan
1740447702.825065,-0.2796122597891447,0.18808181083916617,-0.36968592060269945,-0.18813617932089757,nan
1740447702.8289707,-0.296074503225799,0.1992665091875605,-0.41283694205506166,-0.21296756309312537,nan
1740447702.8328779,-0.30918566072764503,0.2087943593848636,-0.45219923322589034,-0.23460676691990703,nan
1740447702.8367836,-0.31882025210664394,0.21674498583333637,-0.48738800242510155,-0.25285642760664234,nan
1740447702.8406894,-0.32489158791341755,0.22321661515516972,-0.5180617349439299,-0.26755772332491246,nan
1740447702.8445954,-0.3273523212455814,0.2283242406470442,-0.5439252497746754,-0.27859141734087517,nan
1740447702.8485012,-0.32619458057652095,0.2321976087726049,-0.5647322924609286,-0.2858784842366177,nan
1740447702.852407,-0.3214496869161333,0.23497905293056653,-0.580287642848638,-0.2893803184120769,nan
1740447702.8563128,-0.3131874627389314,0.23682120119161523,-0.5904487211109043,-0.289098528739532,nan
1740447702.8602185,-0.30151514412704494,0.23788458586333766,-0.5951266801476569,-0.2850743272431484,nan
1740447702.8641243,-0.28657591143769656,0.23833518360874145,-0.5942869772715814,-0.2773875235550869,nan
1740447702.86803,-0.26854705748028534,0.23834191540307348,-0.5879494229398091,-0.26615514062120516,nan
1740447702.8719358,-0.2476378156428448,0.23807413586156548,-0.5761877091325623,-0.2515296706591901,nan
1740447702.8758416,-0.22408687360935498,0.23769914140609022,-0.5591284247712365,-0.23369699367796828,nan
1740447702.8797483,-0.19815960122883822,0.2373797263637037,-0.5369495702658674,-0.2128739839197369,nan
1740447702.883654,-0.1701450237080216,0.2372718154096932,-0.5098785878433967,-0.1893058323580344,nan
1740447702.88756,-0.14035257357841005,0.23752219979027117,-0.4781899286926705,-0.16326311585281258,nan
1740447702.8914657,-0.10910865681608091,0.23826640349652242,-0.44220218213074136,-0.13503864570559246,nan
1740447702.8953714,-0.0767530700522064,0.23962670402563718,-0.4022747959108403,-0.10494413015685189,nan
1740447702.8992772,-0.043635306991646514,0.24171033057437147,-0.3588044204209953,-0.0733066868096543,nan
1740447702.9031832,-0.010110792947293857,0.2446078604823518,-0.3122209128320224,-0.0404652420375846,nan
1740447702.907089,0.02346291320577803,0.24839183250062782,-0.262983040215984,-0.0067668551343246525,nan
1740447702.9109948,0.0567299103507949,0.2531155930274497,-0.2115739232458658,0.027436994716589093,nan
1740447702.9149005,0.08933970080936714,0.2588123888539144,-0.15849626428248087,0.06179412062973831,nan
1740447702.9188063,0.12095085224199777,0.2654947172240623,-0.1042674054373369,0.09595530177154928,nan
1740447702.922712,0.1512345387805757,0.2731539411654614,-0.049414263556242566,0.12957788188391448,nan
1740447702.926622,0.17987792591604887,0.28176017511679974,0.005531810012529135,0.16232925693287514,nan
1740447702.9305277,0.20658736551945864,0.29126244289866204,0.060040196525841354,0.19389021772903575,nan
1740447702.9344335,0.23109136955220294,0.3015891070731295,0.11358615545892026,0.22395811518067946,nan
1740447702.9383392,0.25314333349793955,0.3126485657479522,0.16565590066703462,0.2522498179570829,nan
1740447702.942245,0.2725239832974392,0.32433020993240436,0.21575155998898404,0.2785044347348058,nan
1740447702.9461508,0.28904352255986726,0.33650563167477654,0.2633959724638731,0.302485775847909,nan
1740447702.9500566,0.3025434600281294,0.34903007043518647,0.3081372790246697,0.3239845320358727,nan
1740447702.9539623,0.3128981006589003,0.36174408250046625,0.34955326462045355,0.3428201510503819,nan
1740447702.957868,0.32001568720503165,0.3744754157573454,0.38725541218315435,0.35884239611220614,nan
1740447702.9617739,0.32383918282326135,0.387041069831505,0.42089263166952323,0.37193257356906817,nan
1740447702.9656796,0.32434668893670904,0.3992495194970051,0.45015463054780963,0.38200442056043743,nan
1740447702.9695857,0.3215514963222986,0.4109030773846726,0.47477489553082003,0.389004647010805,nan
1740447702.973495,0.3155017711305399,0.4218003703885652,0.49453325905003304,0.39291312981402127,nan
1740447702.9774008,0.30627988124191213,0.43173890280350957,0.509258027884203,0.3937427606025696,nan
1740447702.9813066,0.29400137198384124,0.4405176781380588,0.5188276554636392,0.391538951982371,nan
1740447702.9852123,0.2788136037394069,0.4479398507475609,0.5231719436296145,0.3863788105218861,nan
1740447702.989118,0.2608940673391268,0.4538153779298879,0.5222727639975842,0.37836998808067107,nan
1740447702.9930239,0.24044839630785256,0.4579636429272813,0.5161642935127077,0.3676492262155624,nan
1740447702.9969296,0.2177080980092796,0.460216019384398,0.5049327632556807,0.35438061138210736,nan
1740447703.0008354,0.19292802846235438,0.46041834822440525,0.48871572401516183,0.3387535614266205,nan
1740447703.0047412,0.16638363807107373,0.4584332986183991,0.46770083654959976,0.32098056641425626,nan
1740447703.008647,0.13836801768859802,0.4541425857320002,0.44212419877595843,0.3012947091372658,nan
1740447703.012553,0.10918877630804046,0.44744901922716085,0.4122682263069199,0.2799469926741137,nan
1740447703.0164587,0.07916478321872673,0.4382783580647875,0.3784591067740322,0.25720350410633847,nan
1740447703.0203676,0.048622808674340955,0.4265809489796167,0.34106385218617424,0.23334244493078443,nan
1740447703.0242734,0.017894097977919198,0.41233312806524364,0.30048697714690503,0.20865105981809173,nan
1740447703.0281792,-0.012689085608725649,0.39553836719432367,0.25716683405932905,0.18342249615533177,nan
1740447703.032085,-0.042796913580115226,0.37622814948442074,0.2115716394542177,0.15795262726588638,nan
1740447703.0359907,-0.0721054051910893,0.35446256067954673,0.1641952282603906,0.1325368723208384,nan
1740447703.0398965,-0.10029976598429022,0.3303305861250923,0.11555257517291566,0.10746704574446227,nan
1740447703.0438023,-0.12707761799367218,0.3039501059421073,0.06617512424496412,0.08302826837615204,nan
1740447703.047708,-0.1521520890311257,0.27546758402698074,0.016605969417039387,0.059495971789996015,nan
1740447703.0516138,-0.17525473004055311,0.24505744958467696,-0.032605070109725284,0.03713302600187933,nan
1740447703.0555196,-0.19613823138634875,0.21292117301770933,-0.0809064349603752,0.016187019326218785,nan
1740447703.0594254,-0.2145789111110193,0.17928604110780982,-0.1277498260570131,-0.003112282603200991,nan
1740447703.0633314,-0.23037895062672611,0.14440363951232935,-0.17259517542786634,-0.020555273642083104,nan
1740447703.06724,-0.24336835597232795,0.10854805362197255,-0.2149155427467946,-0.03595461701511966,nan
1740447703.0711458,-0.2534066256433691,0.07201380176049549,-0.2542018938354764,-0.049147107969203206,nan
1740447703.0750515,-0.26038410905775483,0.03511351752124425,-0.289967718592746,-0.05999527155450903,nan
1740447703.0789573,-0.26422304292318677,-0.0018245992982556106,-0.32175344742669776,-0.06838868070009838,nan
1740447703.082863,-0.2648782560912418,-0.038459541210850906,-0.3491306272386637,-0.07424498269537332,nan
1740447703.0867689,-0.2623375368833903,-0.07444043675889289,-0.3717058203241345,-0.07751062523542075,nan
1740447703.0906749,-0.2566216603221422,-0.10940965312466625,-0.38912419219131106,-0.0781612763059033,nan
1740447703.0945807,-0.247784076160934,-0.14300602949440253,-0.40107275722757524,-0.07620193534007179,nan
1740447703.0984864,-0.2359102620448033,-0.1748682114766793,-0.407283254339579,-0.07166673624484896,nan
1740447703.1023922,-0.2211167495158992,-0.20463805559389472,-0.40753462812342955,-0.06461844603309919,nan
1740447703.106298,-0.20354983386983289,-0.23196407187632806,-0.40165509475513855,-0.05514766588374943,nan
1740447703.1102037,-0.1833839820381199,-0.25650487190292315,-0.3895237755940731,-0.043371744449884675,nan
1740447703.114112,-0.1608199556872539,-0.2779325892592602,-0.3710718854280869,-0.029433416117636984,nan
1740447703.1180177,-0.13608266955656295,-0.29593623932615754,-0.34628346632193935,-0.013499179657465084,nan
1740447703.1219234,-0.10941880767727717,-0.31022498557385375,-0.31519566212333433,0.004242564722520639,nan
1740447703.1258292,-0.08109422249867873,-0.32053128011560533,-0.27789853279607934,0.023583599538876312,nan
1740447703.129735,-0.051391144070634776,-0.3266138471665104,-0.23453441184993473,0.04429817287416385,nan
1740447703.1336408,-0.020605228275001088,-0.32826047925125923,-0.18529681418470353,0.06614545544505329,nan
1740447703.1375465,0.010957525356352324,-0.3252906174980409,-0.13042890562561835,0.08887214578604087,nan
1740447703.1414523,0.04298395446624738,-0.31755768913196564,-0.07022154926272059,0.1122151960508468,nan
1740447703.145358,0.0751569806598287,-0.3049511773243168,-0.005010947384763729,0.13590462983142276,nan
1740447703.1492639,0.1071588889979653,-0.28739840084520674,0.06482409871416887,0.15966642258661834,nan
1740447703.1531699,0.1386746066985202,-0.26486598348615426,0.13886528551008748,0.183225414765794,nan
1740447703.1570756,0.16939494764482002,-0.23736099594248075,0.2166582320430465,0.20630822751045808,nan
1740447703.1609833,0.19901978973382528,-0.20493175574831615,0.297716201422387,0.22864615092011903,nan
1740447703.164889,0.22726115286041643,-0.16766827391258374,0.38152408528995985,0.24997797527446555,nan
1740447703.1687949,0.25384614642011466,-0.12570234008420128,0.4675426153598113,0.2700527363072551,nan
1740447703.1727006,0.27851975660875417,-0.07920724134939047,0.5552127643596236,0.2886323466195425,nan
1740447703.1766064,0.3010474454892454,-0.028397113102835263,0.6439602972551245,0.30549408658985616,nan
1740447703.1805122,0.321217535764838,0.02647407619376529,0.7332004325543499,0.32043292967265624,nan
1740447703.184418,0.33884335742476773,0.08511390117895506,0.8223425727715196,0.33326367875737933,nan
1740447703.1883237,0.3537651348888673,0.1471932081549608,0.9107950627843303,0.3438228922696661,nan
1740447703.1922295,0.36585159594736777,0.21234818423651744,0.9979699348441692,0.3519705809127781,nan
1740447703.1961353,0.37500128664348936,0.28018275208592436,1.0832875993933815,0.3575916583477794,nan
1740447703.200041,0.381143579250456,0.35027127216965526,1.1661814416009977,0.36059713167078367,nan
1740447703.2039468,0.38423936362088235,0.4221615315582105,1.2461022846388035,0.36092502023821976,nan
1740447703.207854,0.3842814154034123,0.4953779955568581,1.3225226821707399,0.3585409941890675,nan
1740447703.2117598,0.38129443789666323,0.5694252959264465,1.394941004304629,0.35343872688786465,nan
1740447703.2156656,0.3753347776110329,0.6437919271547352,1.462885283337676,0.345639958434837,nan
1740447703.2195714,0.3664898169015993,0.717954120191738,1.5259167879949462,0.33519427033024696,nan
1740447703.2234771,0.3548770502873874,0.791379861287047,1.583633297489332,0.32217857430946434,nan
1740447703.2273831,0.34064285425106605,0.8635330220802592,1.6356720495967414,0.3066963212539051,nan
1740447703.231289,0.32396096338720054,0.9338775659119274,1.6817123400133032,0.288876438902103,nan
1740447703.2351947,0.30503066870585255,1.0018817944536393,1.7214777535130774,0.2688720098067339,nan
1740447703.2391005,0.2840747566726014,1.0670225982106183,1.7547380108239132,0.24685870358045514,nan
1740447703.2430062,0.2613372101484245,1.1287896742344552,1.7813104186538558,0.22303297992030552,nan
1740447703.246912,0.2370806947580407,1.1866896744998672,1.8010609138980045,0.1976100811732581,nan
1740447703.2508178,0.21158385633989374,1.2402502488474056,1.813904696702549,0.17082183528195347,nan
1740447703.2547283,0.18513845699437045,1.2890239471701863,1.8198064507255016,0.14291429180971715,nan
1740447703.258634,0.15804637883081044,1.3325919466206468,1.818780152578857,0.11414521536963458,nan
1740447703.2625399,0.13061652580317573,1.3705675710232794,1.810888476031649,0.08478146215825977,nan
1740447703.2664456,0.10316165500660607,1.402599571388968,1.796241800065494,0.05509626640756161,nan
1740447703.2703514,0.0759951694731106,1.42837513842062,1.7749968332722947,0.02536646440858554,nan
1740447703.2742572,0.04942790484846397,1.4476226201604105,1.7473548703382293,-0.004130315680414791,nan
1740447703.278163,0.02376494235093363,1.4601139204356746,1.7135596994403413,-0.03311846975467969,nan
1740447703.2820687,-0.0006975198936485024,1.4656665564907174,1.673895182265779,-0.061327210938975016,nan
1740447703.2859745,-0.02367520567327103,1.4641453571207932,1.6286825310243085,-0.08849331184475888,nan
1740447703.2898805,-0.044898679141950205,1.45546378572552,1.578277309240184,-0.11436376831581464,nan
1740447703.2937863,-0.06411611362302383,1.4395848759440848,1.5230661852599447,-0.1386983579266329,nan
1740447703.297692,-0.08109588302114644,1.4165217708939533,1.4634634692811614,-0.16127206762096138,nan
1740447703.301602,-0.09562894991335777,1.3863378604780792,1.399907466279301,-0.1818773662549027,nan
1740447703.3055077,-0.10753102645948072,1.3491465147212862,1.3328566784740226,-0.20032629942550476,nan
1740447703.3094134,-0.11664448657768117,1.3051104146128225,1.2627858919241846,-0.21645238580470866,nan
1740447703.3133192,-0.12284001034921566,1.2544404854370375,1.190182182466625,-0.23011229624099455,nan
1740447703.317225,-0.1260179443214529,1.1973944410357438,1.1155408765153225,-0.24118729911585585,nan
1740447703.3211308,-0.12610936424299948,1.1342749508327141,1.0393615022150655,-0.2495844578265816,nan
1740447703.3250365,-0.12307682976033886,1.0654274447320735,0.9621437661008617,-0.2552375687864806,nan
1740447703.3289423,-0.11691482370157985,0.9912375741483377,0.884383589757509,-0.2581078309628339,nan
1740447703.332848,-0.10764987173876404,0.9121283504079928,0.8065692400121954,-0.25818424068508966,nan
1740447703.3367538,-0.09534034142391302,0.8285569845538882,0.7291775849388323,-0.2554837082235884,nan
1740447703.3406596,-0.08007592280349887,0.7410114551590368,0.652670506420639,-0.2500508954346168,nan
1740447703.3445654,-0.061976795999398565,0.6500068330926467,0.5774914982243328,-0.24195777656279102,nan
1740447703.3484747,-0.0411924942697009,0.5560813942573213,0.5040624765045326,-0.2313029270586501,nan
1740447703.3523808,-0.01790047409897311,0.4597925531138545,0.43278082740192514,-0.2182105479803809,nan
1740447703.3562865,0.007695593215466708,0.3617126513130599,0.36401671394675317,-0.20282923617664955,nan
1740447703.3601923,0.03536779124610807,0.2624246369493626,0.29811066185487195,-0.18533051296677622,nan
1740447703.364098,0.06486616955851204,0.16251767082813542,0.23537144103335397,-0.16590712641977226,nan
1740447703.3680038,0.09592117405566374,0.06258269669063328,0.17607425672354735,-0.1447711445617819,nan
1740447703.3719096,0.12824627215722958,-0.03679198743755317,0.12045926122971613,-0.12215185889027871,nan
1740447703.3758154,0.16154074650738776,-0.1350251197175948,0.06873039413962641,-0.09829351942292847,nan
1740447703.3797212,0.1954926292499379,-0.23154679016954766,0.021054555868506918,-0.07345292414149719,nan
1740447703.383627,0.22978174753584607,-0.3258026456899826,-0.02243888372125691,-0.04789688709064541,nan
1740447703.3875327,0.2640828498496394,-0.4172579496394439,-0.06165824292695519,-0.021899610544721577,nan
1740447703.3914385,0.2980687819675207,-0.5054014626102223,-0.09654935634317602,0.004260012448295537,nan
1740447703.3953474,0.33141368089905743,-0.5897491126638064,-0.12709508075660197,0.03030113820587073,nan
1740447703.3992531,0.3637961550201666,-0.6698474252830411,-0.15331448884020785,0.05594372793357923,nan
1740447703.4031591,0.39490241877875,-0.7452766854977692,-0.17526176337387048,0.08091129124619875,nan
1740447703.407065,0.4244293508438663,-0.8156538070936268,-0.1930248072484306,0.10493359049033403,nan
1740447703.4109707,0.45208744536928086,-0.8806348864787559,-0.20672358686391024,0.1277492791314181,nan
1740447703.4148765,0.4776036271444768,-0.9399174216374007,-0.2165082286900657,0.1491084481936575,nan
1740447703.4187822,0.5007239027992598,-0.9932421796160752,-0.22255689070081017,0.16877505572539842,nan
1740447703.422688,0.5212158218977943,-1.0403946991392938,-0.2250734321079848,0.1865292154938353,nan
1740447703.4265938,0.5388707236872778,-1.0812064182083256,-0.22428490629108722,0.20216932257901793,nan
1740447703.4304996,0.5535057474359216,-1.1155554198682718,-0.22043890303730992,0.2155139952224361,nan
1740447703.4344053,0.564965586682587,-1.1433667927050415,-0.21380076716230373,0.22640381417263897,nan
1740447703.438311,0.5731239703021926,-1.164612606023858,-0.20465072127093087,0.23470284283988782,nan
1740447703.4422197,0.5778848560409395,-1.1793115030334287,-0.1932809208358335,0.24029991380262894,nan
1740447703.4461255,0.5791833250657156,-1.187527918684598,-0.17999246991961157,0.24310966957772875,nan
1740447703.4500313,0.5769861690739694,-1.1893709320586001,-0.1650924257458609,0.24307334804996078,nan
1740447703.453937,0.5712921645933867,-1.184992766339048,-0.1488908199401985,0.24015930552885797,nan
1740447703.4578428,0.5621320322344224,-1.1745869524050605,-0.13169772362164398,0.2343632730368702,nan
1740447703.4617486,0.5495680818113376,-1.1583861749238609,-0.11382038263718705,0.22570834410506044,nan
1740447703.4656546,0.5336935473876115,-1.136659822474434,-0.09556044810968374,0.21424469503459892,nan
1740447703.4695604,0.5146316193979192,-1.1097112656762729,-0.07721132612541876,0.2000490412470512,nan
1740447703.4734662,0.49253418402037064,-1.0778748895073418,-0.059055668838689394,0.1832238359672391,nan
1740447703.477372,0.4675802828892332,-1.0415129079544747,-0.04136302753418383,0.1638962200332102,nan
1740447703.4812777,0.4399743090208571,-1.0010119908305342,-0.024387686283173286,0.14221673408297927,nan
1740447703.4851835,0.4099439574461708,-0.9567797340021394,-0.008366692777151508,0.1183578067030771,nan
1740447703.4890916,0.3777379514758419,-0.9092410053879686,0.00648189925552027,0.09251203431612472,nan
1740447703.4929974,0.34362356774488234,-0.8588341999022844,0.019960563925487784,0.06489027061234602,nan
1740447703.4969032,0.3078839851698064,-0.806007437025485,0.03189360358673955,0.0357195451728498,nan
1740447703.500809,0.2708154846840367,-0.7512147348805969,0.04212820842138202,0.0052408325729924096,nan
1740447703.5047147,0.23272452807850258,-0.6949121945815686,0.0505352703039115,-0.02629330532417552,nan
1740447703.5086205,0.19392474545027752,-0.6375542281992468,0.05700994849838039,-0.058621179984777,nan
1740447703.5125263,0.15473386164057681,-0.5795898629696415,0.06147198717898332,-0.09147451488596263,nan
1740447703.516432,0.11547059261634122,-0.5214591533554173,0.0638657871615212,-0.12458103672403126,nan
1740447703.5203378,0.07645154301091261,-0.46358973127657627,0.06416023656662745,-0.1576670931757763,nan
1740447703.5242436,0.03798813598696011,-0.40639352326415,0.06234830738408066,-0.19046027106806446,nan
1740447703.5281494,0.0003836062191373511,-0.3502636614776252,0.058446427049888304,-0.22269198890248812,nan
1740447703.5320551,-0.03606991388094047,-0.29557161348135813,0.05249363616485147,-0.25410003803565556,nan
1740447703.5359633,-0.07109418555223408,-0.2426645534182742,0.04455054535690587,-0.28443104742725683,nan
1740447703.539869,-0.1044275048090558,-0.19186299477291704,0.03469810600336095,-0.3134428477305489,nan
1740447703.5437748,-0.13582716697736244,-0.143458702305009,0.023036211068793055,-0.3409067116039848,nan
1740447703.5476806,-0.16507173013045345,-0.09771289798433053,0.009682143666950301,-0.3666094484567159,nan
1740447703.5515864,-0.1919630549712586,-0.05485477289500291,-0.005231107889765443,-0.3903553333904476,nan
1740447703.5554922,-0.21632810099274058,-0.015080314129614341,-0.021556648840541925,-0.41196785184951584,nan
1740447703.559398,-0.2380204612342734,0.02144854731048249,-0.03913557007667756,-0.43129124342189484,nan
1740447703.5633037,-0.25692162061518886,0.054604464624429416,-0.057798912622602346,-0.4481918303261079,nan
1740447703.5672095,-0.2729419256402928,0.08429487937751928,-0.07736968322582036,-0.4625591183512374,nan
1740447703.5711153,-0.2860212562076385,0.11046190477188625,-0.09766489970042629,-0.47430666036637686,nan
1740447703.575021,-0.29612939327687937,0.1330818940150204,-0.11849764480083601,-0.48337267495795133,nan
1740447703.5789268,-0.30326607924649457,0.1521647026383607,-0.13967910774533746,-0.4897204152633594,nan
1740447703.582834,-0.3074607710091745,0.1677526563662313,-0.16102059305646235,-0.4933382856217257,nan
1740447703.5867398,-0.30877208877525525,0.1799192387472267,-0.1823354771283151,-0.4942397062313192,nan
1740447703.5906456,-0.3072869668428788,0.18876751521169793,-0.20344109385932455,-0.4924627285621222,nan
1740447703.5945513,-0.3031195155196171,0.19442831248871287,-0.22416053179024475,-0.4880694067954063,nan
1740447703.598457,-0.2964096063329791,0.1970581743831746,-0.24432432644769597,-0.481144933024137,nan
1740447703.6023629,-0.28732119547727647,0.19683711676113616,-0.2637720329979201,-0.4717965463240636,nan
1740447703.606269,-0.27604040310318045,0.1939662062024579,-0.2823536658470924,-0.4601522280711316,nan
1740447703.6101747,-0.2627733685374303,0.18866498814183966,-0.299930993465953,-0.44635919801386476,nan
1740447703.6140804,-0.2477439037983112,0.18116879142056413,-0.31637867844912915,-0.4305822275879769,nan
1740447703.6179862,-0.23119096982490028,0.17172593700401942,-0.33158525462414035,-0.41300178876500765,nan
1740447703.621892,-0.21336600164375677,0.16059487917815024,-0.3454539348819838,-0.3938120583390674,nan
1740447703.6257977,-0.1945301102375606,0.14804130781872654,-0.357903245290493,-0.3732187989599413,nan
1740447703.6297045,-0.1749511901404424,0.13433524033003322,-0.36886748295320354,-0.3514371394027635,nan
1740447703.6336102,-0.15490096275159543,0.11974813157699096,-0.3782969969704338,-0.3286892775127566,nan
1740447703.637516,-0.13465198602225933,0.10455002959141164,-0.38615829372602967,-0.3052021299687455,nan
1740447703.6414218,-0.11447466152450672,0.08900680402711032,-0.39243396954378584,-0.28120495346474256,nan
1740447703.6453276,-0.09463426994950967,0.07337747327949969,-0.3971224755135167,-0.2569269621104017,nan
1740447703.6492333,-0.0753880658077076,0.057911654886164114,-0.40023772096084614,-0.23259496579726702,nan
