timestamps,TP9,AF7,AF8,TP10,Right AUX
1740789384.4576063,0.15395126545086765,0.5748831585737142,-0.0906940877565181,-0.019890010454430933,nan
1740789384.461512,0.1597499786835727,0.534847531542944,-0.06970988262337438,-0.02014034780694964,nan
1740789384.465418,0.16537965310421127,0.4911582073941947,-0.047246667463795605,-0.019297801956398034,nan
1740789384.4693239,0.17075057234126617,0.4440786073097302,-0.023483107935789845,-0.017395236968896027,nan
1740789384.4732296,0.1757704463610119,0.39390062589228775,0.0013872266885198463,-0.014479591184420677,nan
1740789384.4771357,0.18034549175516457,0.3409422834142084,0.027157796266064363,-0.010611188566881159,nan
1740789384.4810414,0.18438155948962506,0.28554514306815426,0.05361116427520735,-0.005862899601387584,nan
1740789384.4849472,0.18778529798231477,0.22807151675518916,0.08052119279227059,-0.00031916173804912755,nan
1740789384.4888532,0.19046533881008063,0.1689014849008547,0.10765533540257524,0.005925129126779205,nan
1740789384.492759,0.1923334919090151,0.10842975750112903,0.1347770044420316,0.01276584327562408,nan
1740789384.4966648,0.1933059368347503,0.04706240505193299,0.16164798815192538,0.020090943820037507,nan
1740789384.5005708,0.193304396494082,-0.01478651080552044,0.1880308927659536,0.027781900222209093,nan
1740789384.504478,0.1922572797493625,-0.07669837619647366,0.21369158424068602,0.0357151726260189,nan
1740789384.5083838,0.19010077943401837,-0.13825350215172785,0.2384016042920539,0.043763750200294216,nan
1740789384.5122895,0.18677991260117227,-0.19903460833896966,0.2619405356119345,0.05179872614228872,nan
1740789384.5161955,0.18224949025602125,-0.25863028174555597,0.2840982916087986,0.05969089162102015,nan
1740789384.5201013,0.1764750043931803,-0.31663837896555,0.3046773067400793,0.0673123307613878,nan
1740789384.524007,0.16943342086798263,-0.3726693413332917,0.3234946044746875,0.07453799878298528,nan
1740789384.527913,0.16111386746947443,-0.4263493930248227,0.3403837211321367,0.08124726561152887,nan
1740789384.5318189,0.15151820752518208,-0.4773235934083037,0.35519646527844667,0.08732540767390057,nan
1740789384.5357249,0.1406614904444731,-0.5252587163531905,0.3678044940037903,0.09266503116531802,nan
1740789384.5396307,0.1285722717885733,-0.5698459308913585,0.3781006892467048,0.0971674108332613,nan
1740789384.5435364,0.11529279672944011,-0.6108032595447249,0.38600031934583523,0.10074372924910277,nan
1740789384.5474424,0.1008790421145533,-0.647877792774361,0.391441973172788,0.10331620262546796,nan
1740789384.5513494,0.08540061377668155,-0.6808476403444662,0.3943882565065102,0.10481908047329044,nan
1740789384.5552552,0.06894049720292525,-0.7095236029081678,0.3948262427278659,0.10519950776476551,nan
1740789384.5591612,0.05159466119073668,-0.7337505497861554,0.3927676724179349,0.10441823976198374,nan
1740789384.563067,0.033471515655123234,-0.7534084916979239,0.38824889901010984,0.10245020127074177,nan
1740789384.5669727,0.014691226294878368,-0.7684133400916447,0.3813305802479341,0.09928488376759308,nan
1740789384.5708787,-0.00461510963921974,-0.7787173476745322,0.3720971178117447,0.09492657560823328,nan
1740789384.5747845,-0.024306420720837503,-0.7843092277424261,0.36065585007075973,0.08939442233808739,nan
1740789384.5786903,-0.044232744645689,-0.7852139529162642,0.34713600546708245,0.08272231597251439,nan
1740789384.5825963,-0.0642364288127686,-0.7814922368852132,0.3316874265179332,0.07495861397491789,nan
1740789384.586502,-0.08415343820863924,-0.7732397057028432,0.3144790768071721,0.06616569051670536,nan
1740789384.590408,-0.10381475935681062,-0.7605857680555016,0.29569734560202676,0.05641932443385073,nan
1740789384.5943139,-0.12304788793609622,-0.7436921966938147,0.275544166853026,0.045807930081597156,nan
1740789384.5982203,-0.14167838662604246,-0.7227514358623737,0.25423497129204714,0.034431639012590144,nan
1740789384.6021261,-0.15953149881559206,-0.6979846520544187,0.23199649211533827,0.022401242046367856,nan
1740789384.6060321,-0.17643380302409653,-0.6696395477339437,0.2090644463064593,0.009837002842119729,nan
1740789384.609938,-0.19221489224070742,-0.6379879597856083,0.1856811150021933,-0.0031326444843245717,nan
1740789384.6138437,-0.20670906189729585,-0.6033232663533135,0.16209284741809782,-0.01637249985954861,nan
1740789384.6177497,-0.21975698985778108,-0.5659576273937248,0.13854751371772803,-0.029742088873207884,nan
1740789384.6216555,-0.23120739163813617,-0.5262190856862753,0.1152919328211149,-0.04309722552773505,nan
1740789384.6255612,-0.24091863406977013,-0.4844485561933541,0.09256930149688056,-0.056291629293750624,nan
1740789384.6294672,-0.24876029078612663,-0.44099673254352806,0.0706166511642435,-0.06917857899348445,nan
1740789384.633373,-0.2546146232483337,-0.396220940009129,0.04966235864433219,-0.08161258556396073,nan
1740789384.637279,-0.25837797152877134,-0.3504819646628424,0.02992373664601522,-0.09345106547014242,nan
1740789384.6411848,-0.25996203973832904,-0.30414088842399606,0.011604729053391777,-0.10455599644940114,nan
1740789384.645091,-0.259295061808671,-0.2575559594451729,-0.0051062648930541125,-0.1147955373736388,nan
1740789384.6489968,-0.2563228343185462,-0.21107952674707323,-0.020038414653076406,-0.12404559431398714,nan
1740789384.6529028,-0.25100960417465007,-0.16505506719090432,-0.033040309272387,-0.13219131538229334,nan
1740789384.6568086,-0.24333880021314427,-0.1198143317919156,-0.04398161537128543,-0.13912849759931029,nan
1740789384.6607144,-0.23331359916644479,-0.07567463703691996,-0.05275452439871776,-0.14476488989496147,nan
1740789384.6646204,-0.22095731792875192,-0.03293632528685394,-0.05927497339078087,-0.14902137737292667,nan
1740789384.6685262,-0.20631362563942263,0.008119583460887403,-0.06348362571670806,-0.15183303315998517,nan
1740789384.672432,-0.18944657077076207,0.047233528187681825,-0.06534660068466142,-0.15315002549802784,nan
1740789384.676338,-0.17044042014055416,0.08416931378120528,-0.06485594339071864,-0.15293836921015924,nan
1740789384.6802437,-0.14939930855300437,0.11871577257015446,-0.06202982880226032,-0.15118051226677798,nan
1740789384.6841495,-0.12644669958771,0.15068816726026432,-0.0569124967455701,-0.1478757498768933,nan
1740789384.6880555,-0.10172465988713542,0.1799293246786904,-0.0495739171901565,-0.1430404603168158,nan
1740789384.6919641,-0.07539295112092688,0.20631049243437724,-0.04010918796164753,-0.13670815856446597,nan
1740789384.6958702,-0.04762794561234089,0.22973191336323243,-0.028637669743748158,-0.12892936571392982,nan
1740789384.699776,-0.018621373379937654,0.2501231154211833,-0.015301865919940934,-0.1197712940817245,nan
1740789384.7036817,0.011421089941004037,0.26744291748791127,-0.00026605743030861436,-0.1093173498637562,nan
1740789384.7075877,0.042281383195637616,0.28167915432147045,0.016285294648729198,-0.09766645713973796,nan
1740789384.7114935,0.07373075517699941,0.2928481266318094,0.034149363679604895,-0.08493220892990475,nan
1740789384.7153995,0.1055315813755912,0.3009937848925942,0.053106971799986954,-0.07124185286717934,nan
1740789384.7193053,0.13743928660475355,0.3061866580598563,0.07292478452121931,-0.05673512083710206,nan
1740789384.723211,0.1692043569129814,0.3085225407879633,0.09335766417222545,-0.04156291363893645,nan
1740789384.727117,0.20057442316028495,0.3081209550047972,0.11415115906280472,-0.025885853316457392,nan
1740789384.7310228,0.23129639776138983,0.30512340380700126,0.1350441037566326,-0.009872717278984396,nan
1740789384.7349286,0.2611186453940922,0.29969143754259375,0.1557713046023718,0.006301230333495312,nan
1740789384.7388399,0.2897931679445648,0.29200455364397193,0.1760662836845076,0.022455993407243566,nan
1740789384.7427456,0.31707778361965017,0.2822579532436634,0.19566405363462183,0.03840866708589445,nan
1740789384.7466514,0.34273828000402523,0.27066017883415433,0.214303895297296,0.05397531099141227,nan
1740789384.7505574,0.3665505208806077,0.2574306582109186,0.23173211007805958,0.06897285330078291,nan
1740789384.7544632,0.388302486867045,0.24279718065553757,0.2477047189166472,0.08322100608907212,nan
1740789384.7583692,0.40779623034878065,0.22699333176768036,0.261990080227301,0.09654417209430527,nan
1740789384.762275,0.4248497258076037,0.21025591353738246,0.27437139982600395,0.1087733230081202,nan
1740789384.7661808,0.439298597449277,0.19282237616194667,0.28464910681681227,0.1197478295499491,nan
1740789384.7700868,0.4509977070185476,0.1749282877570313,0.2926430706273413,0.12931722394092002,nan
1740789384.7739925,0.45982258584649355,0.1568048674939095,0.29819463585596345,0.13734287595422365,nan
1740789384.7778983,0.4656706964940195,0.13867660682194413,0.30116845330663355,0.14369956447654655,nan
1740789384.7818043,0.46846251082485774,0.12075900231698856,0.30145408752537717,0.1482769274636726,nan
1740789384.7857122,0.4681423929487048,0.10325642234523293,0.2989673832968951,0.15098077430362217,nan
1740789384.789618,0.4646792772057753,0.08636012816258609,0.29365157588993746,0.15173424590234433,nan
1740789384.7935238,0.45806713320224124,0.07024646829910754,0.2854781323334818,0.15047880926727517,nan
1740789384.7974298,0.44832521183499646,0.05507526312504659,0.2744473136382605,0.14717507496924775,nan
1740789384.8013356,0.4354980682460479,0.04098839438044446,0.2605884506239693,0.14180342759740885,nan
1740789384.8052413,0.419655359702787,0.028108612196397365,0.24395992884469306,0.13436446116804585,nan
1740789384.8091474,0.4008914184913175,0.01653856976633802,0.2246488809959388,0.12487921338835227,nan
1740789384.8130531,0.37932460201582857,0.006360093365118181,0.20277058810732035,0.11338919469075552,nan
1740789384.816959,0.35509642439776734,-0.0023663071124050135,0.17846759374667065,0.09995621002245356,nan
1740789384.820865,0.3283704759441207,-0.009601684486847489,0.15190853835490653,0.08466197347749052,nan
1740789384.8247707,0.299331138884225,-0.015328657475325226,0.12328672366736718,0.06760751797369019,nan
1740789384.8286765,0.26818210973956336,-0.019551173253609555,0.09281841992816606,0.048912404282734086,nan
1740789384.8325841,0.23514474057170018,-0.022294034458796352,0.06074093124150043,0.02871373579712569,nan
1740789384.83649,0.20045621313106696,-0.023602198149496986,0.027310436901079985,0.007164987441293633,nan
1740789384.840396,0.16436756158637314,-0.02353985660695508,-0.007200371129528483,-0.015565340914901847,nan
1740789384.8443017,0.12714156103390312,-0.022189312111301842,-0.04250483227085631,-0.03929523432405188,nan
1740789384.8482075,0.08905050035279335,-0.019649659939688965,-0.07830501867070387,-0.06383082194848157,nan
1740789384.8521135,0.050373859172204855,-0.01603529578561589,-0.11429456789308524,-0.08896816998982449,nan
1740789384.8560193,0.011395909736702065,-0.011474265571763054,-0.15016161956093763,-0.11449519131650007,nan
1740789384.859925,-0.027596734713775394,-0.0061064772041340915,-0.18559182737739632,-0.1401936534407309,nan
1740789384.863831,-0.06631760280254491,-8.179517744588706e-05,-0.22027141704561648,-0.16584126537056904,nan
1740789384.8677368,-0.10448285644284468,0.006441959923063519,-0.25389025999084,-0.191213822926152,nan
1740789384.8716426,-0.14181376795047146,0.013301084081145413,-0.28614493246822537,-0.21608739137384092,nan
1740789384.8755486,-0.17803915996423958,0.020328111077915878,-0.3167417296203647,-0.24024050370556427,nan
1740789384.879456,-0.21289778551688054,0.02735395829956703,-0.34539960433100814,-0.2634563525801188,nan
1740789384.8833618,-0.24614062603563214,0.03421007299439025,-0.3718530013049056,-0.2855249538527885,nan
1740789384.8872676,-0.2775330857016128,0.04073055496621878,-0.3958545576835175,-0.30624525975167083,nan
1740789384.8911736,-0.30685706145502684,0.04675423206425317,-0.4171776426752548,-0.3254272001134543,nan
1740789384.8950794,-0.333912868992395,0.052126665453455706,-0.43561871012669406,-0.3428936306658855,nan
1740789384.8989851,-0.3585210063534497,0.05670206251830272,-0.45099943967488343,-0.3584821681342772,nan
1740789384.9028912,-0.3805237381281677,0.06034507635600675,-0.46316864408460395,-0.3720468929484632,nan
1740789384.906797,-0.3997864849160266,0.06293247214146233,-0.4720039225701266,-0.38345990152579323,nan
1740789384.910703,-0.41619900442563,0.06435464218084337,-0.47741304230793746,-0.3926126914942042,nan
1740789384.9146087,-0.42967635249745023,0.06451695319739348,-0.4793350329422349,-0.3994173647842554,nan
1740789384.9185145,-0.4401596143482094,0.06334091129321764,-0.47774098164406503,-0.40380763524561497,nan
1740789384.9224205,-0.4476163984538676,0.060765132084406426,-0.47263451918114896,-0.40573962931540547,nan
1740789384.9263272,-0.4520410876895516,0.05674610569178385,-0.4640519904608735,-0.4051924702651985,nan
1740789384.9302332,-0.4534548446084895,0.05125874856277186,-0.45206230609429154,-0.4021686386608602,nan
1740789384.934139,-0.4519053700468078,0.04429673647680445,-0.4367664746643173,-0.39669410386450665,nan
1740789384.9380448,-0.44746641656514907,0.03587261552234962,-0.4182968185357558,-0.3888182236689555,nan
1740789384.9419508,-0.4402370605592066,0.026017690301777918,-0.3968158791873642,-0.378613411459943,nan
1740789384.9458566,-0.4303407391674544,0.0147816910950246,-0.37251502114569035,-0.36617457262727576,nan
1740789384.9497626,-0.41792406035329405,0.002232224167766791,-0.34561274662618185,-0.35161831426969004,nan
1740789384.9536684,-0.40315539671888456,-0.011545988181433256,-0.3163527359086731,-0.33508193453620466,nan
1740789384.9575741,-0.386223275697831,-0.026452068903575224,-0.28500163126262945,-0.31672220019613534,nan
1740789384.9614801,-0.36733458075318987,-0.04237013763951951,-0.2518465848641451,-0.2967139232076074,nan
1740789384.965386,-0.34671258005640204,-0.05917063902684964,-0.2171925935849776,-0.27524834913834917,nan
1740789384.9692917,-0.3245948008234417,-0.07671183260587419,-0.18135964575892827,-0.252531372261182,nan
1740789384.9731984,-0.3012307690195218,-0.09484142724608674,-0.14467970701946475,-0.2287815939795589,nan
1740789384.9771042,-0.2768796354977198,-0.11339834138738102,-0.10749357403401827,-0.20422824291658367,nan
1740789384.98101,-0.2518077107958524,-0.13221456896553005,-0.0701476264163567,-0.17910897650640709,nan
1740789384.984916,-0.22628593176778908,-0.15111712968427837,-0.032990508263121776,-0.1536675852435462,nan
1740789384.9888217,-0.2005872839599702,-0.16993008132035917,0.00363022837888462,-0.12815162185926895,nan
1740789384.9927275,-0.17498420415308272,-0.1884765710137732,0.03937148526189935,-0.10280997859224217,nan
1740789384.9966335,-0.14974598776647344,-0.20658090201223225,0.07389795182520513,-0.07789043639279543,nan
1740789385.0005393,-0.125136225865317,-0.22407059211161723,0.1068853782444891,-0.05363721033836974,nan
1740789385.004445,-0.10141029631602318,-0.24077840006678636,0.13802375509119696,-0.030288515735993875,nan
1740789385.008351,-0.07881293320466207,-0.2565442965395867,0.16702036779996274,-0.008074179342559896,nan
1740789385.0122569,-0.057575897969129514,-0.27121735670115493,0.1936026952093144,0.01278668015592389,nan
1740789385.0161629,-0.037915774803692896,-0.28465755240856716,0.21752112281682948,0.032087878797736176,nan
1740789385.020069,-0.020031911781753342,-0.2967374229238924,0.23855144306278714,0.04963827829532183,nan
1740789385.023975,-0.00410452781876177,-0.3073436044264946,0.2564971169113259,0.0652637594510354,nan
1740789385.0278807,0.009706995926141269,-0.3163782000742138,0.27119127321739517,0.07880903743849085,nan
1740789385.0317867,0.021265623320350403,-0.3237599740805667,0.28249842483095233,0.09013929979354773,nan
1740789385.0356925,0.030457954190034997,-0.3294253551760668,0.2903158830740658,0.09914164960439509,nan
1740789385.0395982,0.03719528593717107,-0.333329236892573,0.2945748551065902,0.10572633822147036,nan
1740789385.0435042,0.04141443503120898,-0.3354455643289165,0.295241211744643,0.10982777380826067,nan
1740789385.04741,0.043078309846422067,-0.3357676994008767,0.2923159164842008,0.11140529420442133,nan
1740789385.0513158,0.042176228690078234,-0.33430855902446105,0.285835109779207,0.11044369485286823,nan
1740789385.0552218,0.038723979311105286,-0.3311005232026917,0.275869845997793,0.10695350493057262,nan
1740789385.0591276,0.032763618670740444,-0.326195112556166,0.262525483898888,0.10097100729578515,nan
1740789385.0630333,0.02436301427202718,-0.31966243742934386,0.24594073490130836,0.09255800039829741,nan
1740789385.0669422,0.013615130859798444,-0.31159042329011877,0.22628637682469802,0.08180130286924248,nan
1740789385.070848,0.000637068792764629,-0.30208381969216214,0.2037636441329286,0.06881200408767336,nan
1740789385.074754,-0.01443113716965918,-0.29126300256019017,0.17860230897246,0.05372446658697504,nan
1740789385.0786598,-0.03142794755485002,-0.2792625819607107,0.1510584704382945,0.036695088689679946,nan
1740789385.0825655,-0.05017196295555082,-0.26622982980860965,0.12141207248687466,0.017900838218839,nan
1740789385.0864716,-0.07046376836237722,-0.2523229441079674,0.08996417371849645,-0.002462429496956655,nan
1740789385.0903773,-0.0920879594990105,-0.23770916830974445,0.05703399484291093,-0.02418185385373607,nan
1740789385.094283,-0.11481533175479303,-0.22256278616703246,0.022955771994120754,-0.04702963385038219,nan
1740789385.098189,-0.13840521063422861,-0.2070630140598715,-0.01192455385056819,-0.07076525607191592,nan
1740789385.102095,-0.1626079011635853,-0.1913918141275509,-0.047252779288376866,-0.09513786445954253,nan
1740789385.1060007,-0.1871672324269582,-0.1757316526704777,-0.08266997918785564,-0.11988874897349257,nan
1740789385.1099067,-0.2118231723610193,-0.16026322915212926,-0.11781611092889067,-0.14475392889560673,nan
1740789385.113815,-0.23631448713075717,-0.14516320173293773,-0.15233364660704588,-0.16946680539128472,nan
1740789385.1177208,-0.2603814188469153,-0.13060193559337815,-0.18587119712529276,-0.19376085706765894,nan
1740789385.1216269,-0.2837683550763772,-0.116741300347227,-0.21808709195021017,-0.21737235163728721,nan
1740789385.1255326,-0.3062264635439522,-0.1037325426048609,-0.24865287851936255,-0.24004304643232313,nan
1740789385.1294384,-0.3275162656299076,-0.09171425922042838,-0.27725670585216294,-0.2615228504187365,nan
1740789385.1333444,-0.3474101227317144,-0.0808104959487224,-0.30360655783463275,-0.2815724205365773,nan
1740789385.1372502,-0.36569461027791256,-0.07112899515328094,-0.3274333029124903,-0.2999656656409165,nan
1740789385.141156,-0.3821727551513886,-0.06275961485551707,-0.34849352852671367,-0.31649213203654153,nan
1740789385.145062,-0.3966661134908536,-0.05577293980697406,-0.3665721305477258,-0.33095924558278406,nan
1740789385.1489677,-0.4090166672827269,-0.050219103417462274,-0.38148463019196344,-0.34319438658530615,nan
1740789385.1528738,-0.4190885198184898,-0.04612683729788441,-0.39307919341800535,-0.35304677517899413,nan
1740789385.1567795,-0.426769371960215,-0.04350276289727331,-0.40123833057612157,-0.3603891466276544,nan
1740789385.1606874,-0.43197176321269837,-0.042330937250743855,-0.4058802570996375,-0.36511919790672626,nan
1740789385.1645932,-0.43463406382574776,-0.042572662232487374,-0.40695989925108844,-0.3671607890774081,nan
1740789385.168499,-0.4347212065244028,-0.04416656395127939,-0.40446953234081195,-0.3664648852848174,nan
1740789385.172405,-0.4322251489662137,-0.047028946062454356,-0.3984390423883652,-0.36301022769774993,nan
1740789385.1763108,-0.4271650606299017,-0.05105441782872365,-0.38893580586441673,-0.3568037243299497,nan
1740789385.1802168,-0.4195872305243544,-0.05611679477213042,-0.37606418589761165,-0.34788055441795207,nan
1740789385.1841226,-0.409564694845575,-0.06207026675153343,-0.3599646471214223,-0.33630398285237284,nan
1740789385.1880283,-0.39719658647593237,-0.06875082530520495,-0.34081249513365625,-0.32216488404110644,nan
1740789385.1919343,-0.3826072109882802,-0.07597793914764073,-0.31881625030913113,-0.30558097749617874,nan
1740789385.1958401,-0.3659448565606642,-0.08355646383463362,-0.2942156694073235,-0.28669578035281473,nan
1740789385.199746,-0.34738034789868727,-0.09127876884157889,-0.26727943201502574,-0.26567728492079773,nan
1740789385.203652,-0.32710535687596526,-0.09892706266683453,-0.23830251232357216,-0.24271637220586195,nan
1740789385.2075622,-0.30533048511265737,-0.10627589410348784,-0.20760326002644663,-0.21802497509435864,nan
1740789385.211468,-0.2822831360929513,-0.1130948055465533,-0.17552021720288594,-0.19183400753991306,nan
1740789385.2153738,-0.2582051966506979,-0.11915111214423624,-0.14240870089508542,-0.1643910785994027,nan
1740789385.2192798,-0.23335054970559366,-0.1242127787853549,-0.10863718366151778,-0.13595801251149212,nan
1740789385.2231855,-0.2079824419893113,-0.1280513653619452,-0.07458350666969446,-0.10680819816969234,nan
1740789385.2270913,-0.18237073214244637,-0.13044500947584703,-0.04063096185423034,-0.07722379329070558,nan
1740789385.2309973,-0.1567890459716657,-0.13118141478728373,-0.007164281288862218,-0.04749281029663408,nan
1740789385.234903,-0.13151186681661448,-0.1300608125459913,0.025434426814182436,-0.01790611239758519,nan
1740789385.238809,-0.10681158987498793,-0.12689886351209467,0.056789755172242475,0.011245650437313669,nan
1740789385.242715,-0.08295556996086687,-0.12152946747254259,0.08653704675521497,0.0396751350117512,nan
1740789385.2466207,-0.06020319251790301,-0.1138074478938227,0.11432637543605045,0.06710139669972562,nan
1740789385.2505267,-0.03880299776950721,-0.10361107992425912,0.13982641732301465,0.09325294794427949,nan
1740789385.2544339,-0.018989887660018547,-0.09084443096718532,0.1627281728066455,0.1178707518730348,nan
1740789385.2583396,-0.0009824447236461004,-0.0754394843842342,0.18274850042670057,0.1407111197364556,nan
1740789385.2622457,0.015019608785628965,-0.0573580185470053,0.19963342512322912,0.1615484814756185,nan
1740789385.2661514,0.028837784254825586,-0.036593215423416516,0.213161185270395,0.18017799963481512,nan
1740789385.2700572,0.040317006673074106,-0.01317097514665264,0.22314498508723415,0.19641799804471877,nan
1740789385.2739632,0.04932757692336957,0.012849084448442016,0.2294354215580903,0.21011217820530798,nan
1740789385.277869,0.0557668940053571,0.04137296154595622,0.2319225578554806,0.22113159808259503,nan
1740789385.2817748,0.05956091689346431,0.07227195253029232,0.23053761841501708,0.2293763900849748,nan
1740789385.2856808,0.06066534805447422,0.10538269460842185,0.22525428423788293,0.23477719728649624,nan
1740789385.2895865,0.059066523164185585,0.1405075774551123,0.21608957066092124,0.23729630949586808,nan
1740789385.2934923,0.054781994251973845,0.17741552892203094,0.20310427370457065,0.2369284835093912,nan
1740789385.2973983,0.047860796340982156,0.21584317620000626,0.18640297514961177,0.2337014348090209,nan
1740789385.3013053,0.038383390614729125,0.2554963800958219,0.16613360066789576,0.2276759910471031,nan
1740789385.3052113,0.026461280201337846,0.2960521363162823,0.14248652960141725,0.2189459008690218,nan
1740789385.309117,0.012236297796277513,0.33716083387898343,0.1156932593084595,0.20763729493450697,nan
1740789385.3130229,-0.004120432485379444,0.3784488570280717,0.08602463133460338,0.19390779937698874,nan
1740789385.3169289,-0.02240985345512147,0.41952151336102306,0.05378863097911019,0.17794530535656303,nan
1740789385.3208346,-0.042406644661357795,0.4599662673058214,0.019327776072559297,0.15996640178339513,nan
1740789385.3247404,-0.06386119181637043,0.49935625466281036,-0.016983885081126877,0.14021448168232203,nan
1740789385.3286464,-0.08650184095727863,0.5372540506771415,-0.05474414265590827,0.11895753600309616,nan
1740789385.3325522,-0.11003741953113148,0.5732156610699067,-0.09352633340355852,0.09648565192198996,nan
1740789385.336458,-0.13416000380289578,0.6067947026610001,-0.13288335657994754,0.07310823579730986,nan
1740789385.340364,-0.15854790935719668,0.6375467376947757,-0.17235196305753225,0.049150983902959605,nan
1740789385.3442698,-0.18286887902617957,0.6650337237587151,-0.2114572799596294,0.024952626840725904,nan
1740789385.3481762,-0.20678344035136922,0.6888285392911012,-0.24971753045208614,0.0008614760951471691,nan
1740789385.3520823,-0.22994840269961356,0.708519543128827,-0.2866489059805778,-0.022768196481811522,nan
1740789385.355988,-0.2520204624228453,0.7237151253705957,-0.32177054627189544,-0.0455799134101115,nan
1740789385.3598938,-0.2726598829969872,0.73404820604035,-0.35460958084701844,-0.06721884592650888,nan
1740789385.3637998,-0.29153421591297224,0.7391806376436505,-0.3847061846405619,-0.08733573185049862,nan
1740789385.3677056,-0.3083220272361013,0.7388074677253496,-0.4116185995998018,-0.10559081974443,nan
1740789385.3716114,-0.3227165942096254,0.7326610179657744,-0.4349280738573136,-0.12165780133610993,nan
1740789385.3755174,-0.3344295360625689,0.7205147371966103,-0.4542436702408318,-0.1352276937162685,nan
1740789385.3794231,-0.3431943432954471,0.7021867869745577,-0.46920689650446756,-0.14601263272416123,nan
1740789385.383329,-0.3487697701628058,0.6775433200146929,-0.47949611073513987,-0.15374953919710982,nan
1740789385.387235,-0.35094305584749036,0.6465014138463439,-0.4848306569009256,-0.15820362038532454,nan
1740789385.3911407,-0.34953294092427534,0.6090316244985456,-0.4849746874538314,-0.1591716698199709,nan
1740789385.3950472,-0.34439244713294326,0.565160127832185,-0.4797406322639969,-0.15648513026484376,nan
1740789385.398953,-0.3354113902131948,0.5149704192908959,-0.4689922759273525,-0.15001288607148147,nan
1740789385.402859,-0.32251859758290813,0.45860454631789016,-0.4526474086321778,-0.13966375328212305,nan
1740789385.4067647,-0.3056838049517227,0.3962638514536274,-0.43068001926619176,-0.12538863816942472,nan
1740789385.4106705,-0.28491920853515157,0.3282092081586011,-0.403122003265637,-0.10718233754797661,nan
1740789385.4145765,-0.26028065234968734,0.2547607356630322,-0.37006436181888613,-0.0850849571191661,nan
1740789385.4184823,-0.23186843310326724,0.17629698359486082,-0.33165787340434616,-0.059182927293824086,nan
1740789385.422388,-0.1998277084226209,0.09325358174085539,-0.28811322322790706,-0.02960959934971756,nan
1740789385.426294,-0.16434849755207526,0.006121355012845438,-0.23970058088885984,0.003454591605602518,nan
1740789385.4301999,-0.12566526718818138,-0.08455609151951284,-0.18674862150313135,0.0397824066129021,nan
1740789385.4341056,-0.0840560987505275,-0.17818530784913864,-0.1296429905052336,0.07910053160659551,nan
1740789385.4380116,-0.03984143709958373,-0.27412644001977315,-0.06882421739093246,0.12109075673113738,nan
1740789385.4419203,0.006617575535351326,-0.37169715764943134,-0.004785088705800147,0.16539160394317381,nan
1740789385.445826,0.05492117289426841,-0.47017704411043704,0.0619325044151761,0.21160039649486018,nan
1740789385.4497318,0.10463343403119402,-0.5688124209860955,0.13074122394057702,0.25927575978159434,nan
1740789385.4536378,0.1552851337292558,-0.6668215741097003,0.20101242287459173,0.30794053896976986,nan
1740789385.4575436,0.20637695546506335,-0.7634003444054107,0.27208073383566017,0.35708511483446725,nan
1740789385.4614494,0.2573830449415865,-0.8577280429319663,0.34324907431148455,0.4061710953701752,nan
1740789385.4653554,0.30775487890575925,-0.9489736460167796,0.41379403050477065,0.45463535702586155,nan
1740789385.4692612,0.35692542085164947,-1.0363022231947452,0.4829715778701243,0.5018944058941488,nan
1740789385.473167,0.40431353231151523,-1.1188815478654623,0.5500230929666216,0.5473490258865242,nan
1740789385.477073,0.4493286057829262,-1.1958888381839297,0.6141816081465553,0.5903891778844608,nan
1740789385.4809787,0.49137538295607575,-1.266517573729057,0.6746782578992988,0.6303991110998528,nan
1740789385.4848847,0.5298589198146163,-1.3299843319740592,0.7307488633974181,0.6667626454348029,nan
1740789385.488793,0.5641896584069094,-1.3855355875315216,0.7816405999735095,0.6988685815254969,nan
1740789385.4926987,0.5937885636406405,-1.4324544165782285,0.8266186909104,0.7261161934097595,nan
1740789385.4966047,0.6180922823578087,-1.4700670487911585,0.8649730700696701,0.7479207573918587,nan
1740789385.5005105,0.6365582812116319,-1.4977492095524043,0.8960249555251637,0.7637190697071424,nan
1740789385.5044162,0.6486699195012222,-1.5149321961088824,0.9191332765159196,0.7729749050252744,nan
1740789385.5083222,0.6539414131302403,-1.5211086327997303,0.9337008966889925,0.7751843676832635,nan
1740789385.512228,0.65192264624491,-1.5158378523830391,0.9391805777647299,0.769881087812988,nan
1740789385.5161338,0.6422037878744021,-1.4987508528923168,0.9350806294182361,0.756641215224225,nan
1740789385.5200398,0.6244196720388806,-1.4695547823157866,0.9209701933197812,0.735088165020696,nan
1740789385.5239456,0.598253901300398,-1.4280369066979992,0.8964841118979354,0.7048970704573891,nan
1740789385.5278516,0.5634426355988685,-1.374068020988833,0.8613273354622086,0.6657989004825088,nan
1740789385.5317574,0.5197780304261702,-1.3076052660815285,0.8152788248227859,0.6175842017332716,nan
1740789385.535668,0.4671112909291806,-1.2286943199568443,0.7581949104453768,0.5601064274544506,nan
1740789385.5395737,0.4053553113777915,-1.1374709356493844,0.690012073447476,0.49328481886135234,nan
1740789385.5434797,0.33448687256421017,-1.0341618038359712,0.6107491183431673,0.41710680785118365,nan
1740789385.5473855,0.2545483730900835,-0.9190847231733114,0.5205087123386459,0.3316299136515015,nan
1740789385.5512912,0.16564907412087387,-0.7926480670391874,0.41947827112866215,0.23698310995192362,nan
1740789385.5551972,0.06796584101269902,-0.6553495410121097,0.3079301765015289,0.13336764326319606,nan
1740789385.559103,-0.038256630785832274,-0.5077742312110809,0.18622131658148072,0.02105728765130365,nan
1740789385.5630088,-0.15270611401870612,-0.35059194946098227,0.05479194517469655,-0.09960197443313763,nan
1740789385.5669148,-0.27500367631716344,-0.18455388710020523,-0.08583613760934194,-0.228192850806913,nan
1740789385.5708206,-0.4047050352191903,-0.010488595055374634,-0.23506207556574107,-0.36422821847070036,nan
1740789385.5747263,-0.5413024370900695,0.1707026864769228,-0.3922091038434785,-0.5071531787296353,nan
1740789385.5786324,-0.6842270511862995,0.3580513198292703,-0.5565283344368033,-0.6563476796060275,nan
1740789385.5825398,-0.8328518658134121,0.5505271488508467,-0.7272031550382847,-0.8111296918145441,nan
1740789385.5864458,-0.9864950693153726,0.7470449256492926,-0.9033542112702453,-0.9707589198280432,nan
1740789385.5903516,-1.1444238945355447,0.9464712407969041,-1.0840449372338086,-1.1344410249372407,nan
1740789385.5942576,-1.3058589014421313,1.1476319081833017,-1.2682875945075736,-1.3013323327401192,nan
1740789385.5981634,-1.4699786688488037,1.3493197515384323,-1.4550497752338563,-1.4705449932270038,nan
1740789385.6020691,-1.6359248626167715,1.5503027358990833,-1.6432613207896982,-1.6411525575924997,nan
1740789385.6059752,-1.802807644428855,1.7493323839836168,-1.8318216037897677,-1.812195932142225,nan
1740789385.609881,-1.9697113822083734,1.9451524146045611,-2.0196071178427117,-1.982689666204361,nan
1740789385.6137867,-2.1357006205425058,2.136507537914198,-2.2054793166119566,-2.15162852783511,nan
1740789385.6176927,-2.29982626708564,2.32215234046734,-2.388292641342728,-2.3179943183517713,nan
1740789385.6215985,-2.4611319488845327,2.5008601918168183,-2.5669026741315615,-2.4807628743631596,nan
1740789385.6255043,-2.618660490902481,2.671432103644728,-2.7401743528507385,-2.6389112040167366,nan
1740789385.6294117,-2.7714604677397374,2.832705472285651,-2.906990182811444,-2.7914247026642105,nan
1740789385.6333177,-2.9185927786642027,2.9835626359212806,-3.0662583799647174,-2.937304392077532,nan
1740789385.6372235,-3.059137195589084,3.122939178718839,-3.216920880702632,-3.0755741267368313,nan
1740789385.6411293,-3.192198833567958,3.2498319157429933,-3.357961154132918,-3.205287710568218,nan
1740789385.6450353,-3.3169144937247625,3.363306494582597,-3.488411754052882,-3.32553586783613,nan
1740789385.648941,-3.4324588292947493,3.4625045522844493,-3.6073615497328855,-3.435453012691507,nan
1740789385.6528468,-3.5380502866176897,3.5466503693567004,-3.7139625770209053,-3.534223763138752,nan
1740789385.6567528,-3.632956774487632,3.615056966270433,-3.8074364541783776,-3.6210891469027695,nan
1740789385.6606586,-3.7165010172127575,3.667131592020596,-3.887080310230023,-3.6953524488395346,nan
1740789385.6645644,-3.7880655490586768,3.7023805588743355,-3.952272177428493,-3.7563846521232915,nan
1740789385.6684704,-3.847097310420629,3.7204133823991943,-4.0024758036668295,-3.8036294284402206,nan
1740789385.6723762,-3.8931118090729737,3.7209461911857677,-4.037244845282305,-3.836607635798669,nan
1740789385.6762834,-3.9256968131535923,3.703804376315689,-4.0562264056452815,-3.8549212863023685,nan
1740789385.6801891,-3.944515546129532,3.6689244565304873,-4.059163890174647,-3.858256950295276,nan
1740789385.684095,-3.9493093578289136,3.6163551411811006,-4.0458991539224956,-3.8463885676416276,nan
1740789385.688001,-3.9398998496812507,3.546257579331261,-4.016373923578325,-3.8191796415163863,nan
1740789385.6919067,-3.9161904365504094,3.458904789798371,-3.9706304816087314,-3.7765847949117313,nan
1740789385.6958125,-3.8781673319364605,3.3546802733895413,-3.908811606222181,-3.7186506750741177,nan
1740789385.6997185,-3.825899947828191,3.2340758150742404,-3.8311597668791446,-3.6455161962323097,nan
1740789385.7036242,-3.759540705069771,3.097688490274266,-3.738015581104274,-3.5574121162164354,nan
1740789385.70753,-3.6793242547249627,2.9462168957925194,-3.6298155443477222,-3.4546599478578006,nan
1740789385.711436,-3.585566115541875,2.780456632091213,-3.5070890505361407,-3.3376702113544083,nan
1740789385.7153418,-3.4786607372023948,2.6012950696155186,-3.3704547266999962,-3.2069400390434657,nan
1740789385.7192478,-3.3590790035448044,2.4097054375898708,-3.2206161106136317,-3.0630501491952065,nan
1740789385.7231543,-3.2273651943385127,2.2067402791430113,-3.058356705690613,-2.906661210488652,nan
1740789385.72706,-3.0841334284296607,1.9935243216982417,-2.884534452394239,-2.738509623706723,nan
1740789385.7309659,-2.9300636151306496,1.7712468162546997,-2.7000756601089875,-2.559402751854409,nan
1740789385.7348719,-2.7658969445616175,1.5411534034437735,-2.505968447733294,-2.3702136343198106,nan
1740789385.7387776,-2.592430951236028,1.3045375680362687,-2.303255745161066,-2.1718752248267297,nan
1740789385.7426836,-2.4105141884861854,1.0627317468683504,-2.093027911285683,-1.9653741967339917,nan
1740789385.7465894,-2.22104055432051,0.8170981579198245,-1.8764150271568556,-1.7517443626887916,nan
1740789385.7504952,-2.0249433119683835,0.5690194204935974,-1.6545789254227137,-1.5320597587098514,nan
1740789385.7544012,-1.8231888506784037,0.3198890380913191,-1.4287050191761996,-1.307427445435237,nan
1740789385.758307,-1.616770234273592,0.07110181664350827,-1.199993994780069,-1.0789800814968709,nan
1740789385.7622128,-1.4067005865167423,-0.17595570877617928,-0.9696534341571718,-0.8478683257604743,nan
1740789385.7661188,-1.1940063634886875,-0.4199147657472956,-0.7388894323953255,-0.6152531264809696,nan
1740789385.7700248,-0.9797205639229059,-0.6594336825233561,-0.5088982763271184,-0.382297956258499,nan
1740789385.7739308,-0.7648759287664252,-0.8932070012982626,-0.28085824900719153,-0.15016105203235378,nan
1740789385.7778366,-0.5504981811475026,-1.1199742976242522,-0.05592162373053952,0.08001228078333159,nan
1740789385.7817423,-0.33759935742695024,-1.3385286393328866,0.1647930905725124,0.307097241535838,nan
1740789385.7856483,-0.12717127909741277,-1.547724621296316,0.3802085930489612,0.5299969275516655,nan
1740789385.789554,0.07982078601787791,-1.7464859158664159,0.5892958670383693,0.7476494915100972,nan
1740789385.7934601,0.2824442265162136,-1.9338122828144453,0.7910808351615612,0.9590350091661527,nan
1740789385.797366,0.47980490943943116,-2.1087859870297696,0.9846505436652407,1.1631820060732474,nan
1740789385.8012717,0.6710526793218826,-2.270577577085008,1.1691588304190705,1.3591735948283974,nan
1740789385.8051777,0.8553864947743165,-2.418450982995594,1.343831435441655,1.5461531776262916,nan
1740789385.8090835,1.0320591661852905,-2.5517678970497593,1.5079705176378577,1.7233296725347622,nan
1740789385.8129892,1.2003816614734308,-2.669991407413269,1.6609585465194892,1.889982225861862,nan
1740789385.816898,1.3597269504285747,-2.772688860272518,1.8022615430097706,2.0454643772397856,nan
1740789385.8208039,1.5095333620064755,-2.85953393251851,1.9314316489524324,2.189207648566761,nan
1740789385.82471,1.6493074329575135,-2.930307903340061,2.0481090106104247,2.3207245326859964,nan
1740789385.8286157,1.7786262303404317,-2.9849001195337754,2.1520229671977944,2.43961086260033,nan
1740789385.8325214,1.897139134761899,-3.0233076557964145,2.242992541291033,2.545547547080286,nan
1740789385.8364275,2.00456907555546,-3.0456341776883713,2.3209262337631653,2.6383016636787913,nan
1740789385.8403332,2.100713213532084,-3.052088021291023,2.385821131624749,2.7177269053739352,nan
1740789385.8442392,2.1854430713620054,-3.0429795097729544,2.43776134279165,2.78376338227773,nan
1740789385.848145,2.258704116046711,-3.0187175330788842,2.4769157772816004,2.836436785029757,nan
1740789385.8520508,2.3205148022741438,-2.979805422710923,2.50353529962359,2.8758569215961325,nan
1740789385.8559568,2.370965089683454,-2.9268361590369096,2.5179492823011693,2.9022156441735416,nan
1740789385.8598626,2.4102144511631156,-2.860486953690312,2.52056159480061,2.9157841877136157,nan
1740789385.863771,2.438489393234235,-2.7815132543785994,2.5118460672576495,2.916909946194239,nan
1740789385.8676767,2.4560805132974974,-2.690742223753683,2.492341471755795,2.906012717133617,nan
1740789385.8715827,2.463339122017402,-2.5890657478842223,2.4626460679915114,2.8835804489337837,nan
1740789385.8754885,2.460673462353127,-2.477433033274607,2.4234117632575094,2.8501645294193696,nan
1740789385.8793943,2.448544559696121,-2.3568428542725957,2.3753379394790146,2.8063746573742008,nan
1740789385.8833003,2.4274617402172622,-2.2283355150751385,2.31916500234783,2.752873341945023,nan
1740789385.887206,2.397977856840901,-2.092984592362134,2.2556677094177418,2.6903700774541317,nan
1740789385.891112,2.360684264232171,-1.9518885258485468,2.1856483353396956,2.6196152434201574,nan
1740789385.8950179,2.3162055857931336,-1.8061621247382862,2.1099297332175313,2.5413937814116165,nan
1740789385.8989236,2.2651943169018347,-1.6569280581861525,2.0293483513514916,2.456518701737835,nan
1740789385.9028296,2.2083253094881736,-1.505308397428789,1.944747264407652,2.3658244739071606,nan
1740789385.9067354,2.1462901835172743,-1.352416276239185,1.8569692773125481,2.2701603552476697,nan
1740789385.9106433,2.0797917110435256,-1.1993477348035593,1.7668501589332497,2.1703837120894174,nan
1740789385.914549,2.0095382182088906,-1.0471738100310874,1.675212060878372,2.0673533874525325,nan
1740789385.918455,1.936238049892711,-0.8969329327068472,1.5828571745634248,1.96192316827863,nan
1740789385.922361,1.8605941406860014,-0.7496236888120428,1.4905616770470895,1.8549354038947459,nan
1740789385.9262667,1.783298734472498,-0.6061979987924402,1.3990700130898523,1.7472148256236884,nan
1740789385.9301727,1.705028293166664,-0.46755476458928474,1.3090895574429187,1.6395626152702552,nan
1740789385.9340785,1.6264386331027705,-0.33453402989357056,1.221285697576684,1.5327507676408005,nan
1740789385.9379842,1.5481603252095002,-0.20791169438429044,1.1362773729405424,1.4275167893188152,nan
1740789385.9418902,1.4707943924640008,-0.08839481770693183,1.054633102448292,1.3245587726493346,nan
1740789385.945796,1.394908335223021,0.02338245631488094,0.9768675272470535,1.2245308803107464,nan
1740789385.9497018,1.3210325119036677,0.12686233021694235,0.9034384909953924,1.1280392720068908,nan
1740789385.9536078,1.2496568991614663,0.221566118802113,0.8347446748928383,1.0356385007305826,nan
1740789385.9575152,1.1812282522189832,0.30709633679083376,0.7711237996137484,0.9478284017689621,nan
1740789385.961421,1.1161476823660152,0.38313810040225665,0.7128514011498084,0.8650514931799651,nan
1740789385.965327,1.0547686649148498,0.4494598408808835,0.6601401824037793,0.787690901907665,nan
1740789385.9692328,0.9973954870844519,0.505913333772584,0.6131399372488692,0.7160688250627992,nan
1740789385.9731386,0.9442821414394279,0.5524330534547701,0.5719380387188786,0.6504455312146551,nan
1740789385.9770446,0.8956316666567684,0.5890348679897098,0.536560478068865,0.5910189018627725,nan
1740789385.9809504,0.8515959335691514,0.6158140947501507,0.5069734366877399,0.537924508622603,nan
1740789385.9848561,0.8122758706709158,0.6329429424175268,0.483085368294412,0.49123621710850485,nan
1740789385.9887621,0.7777221196037698,0.6406673698319449,0.46474956454723937,0.4509673040696563,nan
1740789385.992668,0.7479361075948042,0.6393033967398282,0.4517671731793545,0.4170720700673847,nan
1740789385.996574,0.7228715204291848,0.62923290570226,0.4438906340739695,0.38944792591241034,nan
1740789386.0004797,0.7024361563318885,0.6108989782609618,0.44082749534481447,0.3679379272417766,nan
1740789386.004387,0.6864941381332985,0.584800811879252,0.442244568515001,0.35233372803972324,nan
1740789386.008293,0.6748684583263906,0.5514882671559882,0.44777237931651825,0.3423789206238925,nan
1740789386.0121987,0.667343829110545,0.5115560973291613,0.45700986848248804,0.3377727266546433,nan
1740789386.0161045,0.6636698072779934,0.4656379141246098,0.46952929519110187,0.338174001104354,nan
1740789386.0200105,0.6635641618504791,0.4143999455506352,0.4848812945559382,0.3432055088658969,nan
1740789386.0239162,0.6667164507297637,0.3585346422822019,0.5026000397497667,0.3524584318017522,nan
1740789386.027822,0.6727917712975826,0.298754189814289,0.5222084590015964,0.36549706255107073,nan
1740789386.031728,0.6814346488966865,0.23578398359295955,0.5432234578189007,0.3818636403310834,nan
1740789386.0356338,0.6922730264502092,0.17035612385939616,0.5651610973537134,0.4010832832977905,nan
1740789386.0395396,0.7049223181340465,0.10320298597555778,0.5875416808436065,0.42266897177117985,nan
1740789386.0434456,0.7189894900057495,0.03505092055362208,0.6098947015033942,0.4461265367810664,nan
1740789386.0473514,0.7340771308099278,-0.03338586419743574,0.6317636071037265,0.4709596089459645,nan
1740789386.0512586,0.7497874768180626,-0.10141118784430429,0.6527103387279339,0.49667448365060596,nan
1740789386.0551643,0.7657263555105644,-0.1683525035219689,0.6723196038244303,0.5227848598257041,nan
1740789386.05907,0.7815070141589725,-0.23356617999905024,0.6902028466411692,0.5488164113407363,nan
1740789386.0629761,0.7967538009019219,-0.29644241937418286,0.7060018824108815,0.5743111520782885,nan
1740789386.066882,0.8111056677128424,-0.3564097735869151,0.719392165217887,0.5988315581449822,nan
1740789386.0707877,0.8242194667112186,-0.41293922703340374,0.7300856632839037,0.621964413364683,nan
1740789386.0746937,0.8357730135513626,-0.46554781692586733,0.7378333194240216,0.6433243471674891,nan
1740789386.0785995,0.8454678941099117,-0.5138017675835679,0.7424270786058169,0.6625570372033387,nan
1740789386.0825052,0.8530319933610325,-0.5573191195488788,0.7437014688541547,0.6793420524406445,nan
1740789386.0864112,0.8582217281504764,-0.5957718392406028,0.7415347261403459,0.6933953161248572,nan
1740789386.090317,0.8608239685289725,-0.6288873997432621,0.7358494583352261,0.7044711717347704,nan
1740789386.094223,0.8606576353539311,-0.6564498282405035,0.7266128477496444,0.7123640389499869,nan
1740789386.0981295,0.8575749649873341,-0.6783002204883032,0.7138363961911607,0.7169096505948311,nan
1740789386.1020353,0.8514624350779778,-0.6943367275448709,0.6975752207916083,0.7179858655153655,nan
1740789386.1059413,0.842241348588859,-0.7045140246859787,0.6779269130666755,0.7155130563400127,nan
1740789386.109847,0.8298680763864529,-0.7088422769948564,0.6550299777173875,0.7094540750341011,nan
1740789386.1137528,0.8143339618195399,-0.7073856204847953,0.6290618715375923,0.6998138030483027,nan
1740789386.1176589,0.7956648937532967,-0.7002601817521773,0.6002366664166873,0.6866382966453695,nan
1740789386.1215646,0.7739205574627933,-0.6876316630322841,0.5688023637905789,0.6700135416349224,nan
1740789386.1254704,0.7491933756032227,-0.6697125231071873,0.5350378909668476,0.6500638352199904,nan
1740789386.1293764,0.72160715413797,-0.6467587877645767,0.4992498125055161,0.6269498159310822,nan
1740789386.1332822,0.6913154505973704,-0.6190665264021159,0.4617687922514295,0.6008661656654134,nan
1740789386.1371882,0.6584996843400681,-0.5869680338909914,0.4229458436679252,0.572039010634482,nan
1740789386.141094,0.6233670105764045,-0.5508277589354499,0.3831484077976771,0.5407230505290779,nan
1740789386.1450028,0.586147981772703,-0.5110380218770711,0.3427562994625555,0.5071984474163126,nan
1740789386.1489086,0.5470940216722937,-0.4680145661818305,0.3021575632009579,0.4717675077706807,nan
1740789386.1528146,0.5064747385317178,-0.42219198870738534,0.26174428092306096,0.4347511925958422,nan
1740789386.1567204,0.46457510526925294,-0.3740190942741529,0.22190837334053726,0.3964854918043727,nan
1740789386.1606264,0.4216925350508235,-0.3239542200575051,0.18303743689980945,0.35731769988094925,nan
1740789386.1645322,0.37813388139108667,-0.27246057488453773,0.145510657223262,0.3176026303555934,nan
1740789386.168438,0.3342123921232924,-0.22000163766625486,0.10969483895086796,0.2776988067561925,nan
1740789386.172344,0.29024464659121646,-0.1670366579372245,0.07594059038908917,0.23796466749551315,nan
1740789386.1762497,0.2465475051433819,-0.11401629982615062,0.04457869953158142,0.19875482158247074,nan
1740789386.1801555,0.20343509946986624,-0.06137846876220686,0.015916735837579424,0.1604163911390928,nan
1740789386.1840615,0.1612158915234306,-0.00954435785654047,-0.009764090337912167,0.12328547546487453,nan
1740789386.1879673,0.12018982772018215,0.04108525178777533,-0.03221178154660691,0.08768376983380465,nan
1740789386.1918762,0.08064561383318869,0.09013340556185734,-0.051206094203448266,0.05391537035360473,nan
1740789386.195782,0.042858134490362014,0.1372500765957605,-0.06656074388256608,0.0222637940818608,nan
1740789386.1996877,0.007086039482138816,0.18211492918908076,-0.07812525559654025,-0.007010758797747252,nan
1740789386.2035937,-0.02643048280644754,0.22443972351040442,-0.0857864433210822,-0.0336738765590819,nan
1740789386.2074995,-0.057471726580845345,0.2639703444585921,-0.08946950676948585,-0.05751911992521985,nan
1740789386.2114053,-0.0858402683807746,0.3004884415049544,-0.08913873725066576,-0.07836990012088554,nan
1740789386.2153113,-0.11136253164576711,0.3338126703387382,-0.0847978283239301,-0.09608103578948353,nan
1740789386.219217,-0.1338901047850983,0.3637995311797497,-0.0764897908552883,-0.11053997684499031,nan
1740789386.2231228,-0.15330080392855155,0.39034380266219715,-0.06429647594655928,-0.12166768667883682,nan
1740789386.2270288,-0.16949947407792082,0.4133785741940474,-0.048337713012929676,-0.1294191775426823,nan
1740789386.2309346,-0.1824185249479081,0.4328748836182986,-0.028770073990770507,-0.13378369734696063,nan
1740789386.2348406,-0.192018200354208,0.44884097080947766,-0.005785278230456248,-0.13478456951955609,nan
1740789386.238749,-0.19828658255214102,0.4613211614948159,0.020391743964692042,-0.1324786909267312,nan
1740789386.2426548,-0.20123933542710162,0.4703943990611377,0.049505107984146875,-0.12695569613788518,nan
1740789386.2465606,-0.20091919286545118,0.4761724453637112,0.08127052759107938,-0.11833679948621842,nan
1740789386.2504666,-0.19739520096896762,0.47879777456279443,0.11537813676354813,-0.10677332940966895,nan
1740789386.2543724,-0.19076172499668884,0.4784411867506115,0.1514955513751541,-0.09244497242263698,nan
1740789386.2582781,-0.1811372340050878,0.475299170572088,0.18927113924965028,-0.0755577467431231,nan
1740789386.2621841,-0.16866287809290023,0.46959104616606934,0.2283374652990363,-0.05634172805786821,nan
1740789386.26609,-0.15350087492387754,0.46155592154232095,0.2683148769651229,-0.03504855212817677,nan
1740789386.269996,-0.13583272378458697,0.45144949694922903,0.30881519404239843,-0.011948720901931144,nan
1740789386.2739017,-0.11585726682214777,0.43954075286704636,0.34944546617415184,0.012671259513873245,nan
1740789386.2778075,-0.09378861828770009,0.4261085579747414,0.38981176088937,0.038511879264945495,nan
1740789386.2817135,-0.06985398357660683,0.4114382337814607,0.42952294498671423,0.06526373268922744,nan
1740789386.2856214,-0.04429139059936748,0.3958181125865288,0.46819442237218023,0.09261070213342741,nan
1740789386.2895272,-0.017347356533515556,0.37953612503849227,0.5054517921135195,0.12023318551454662,nan
1740789386.293433,0.010725486705774629,0.3628764528113509,0.540934391478657,0.14781133532809748,nan
1740789386.297339,0.03967078487994932,0.3461162808154737,0.5742986900651312,0.17502827695256787,nan
1740789386.3012447,0.06923084849766552,0.3295226819259201,0.6052215027879914,0.20157327455800617,nan
1740789386.3051505,0.09914901170315622,0.3133496654591521,0.6334029914565029,0.22714481368857517,nan
1740789386.3090565,0.1291719407494766,0.2978354185806578,0.6585694269145171,0.25145357064501356,nan
1740789386.3129623,0.15905187063651066,0.2831997675037838,0.6804756862219716,0.27422524013076277,nan
1740789386.3168683,0.18854874950315953,0.269641882769451,0.6989074620898506,0.2952031942301977,nan
1740789386.320774,0.2174322715571802,0.25733825010527883,0.7136831647201143,0.31415094764142815,nan
1740789386.3246799,0.24548378069093382,0.2464409253804694,0.7246554993158497,0.3308544061699362,nan
1740789386.3285859,0.2724980284513998,0.23707608903101451,0.7317127057839219,0.3451238777810776,nan
1740789386.3324933,0.2982847716916375,0.22934291206105717,0.7347794505202981,0.3567958279856148,nan
1740789386.3363993,0.3226701970104913,0.22331274236416912,0.7338173636135641,0.3657343639677882,nan
1740789386.340305,0.34549816096900327,0.21902861668735613,0.7288252182911179,0.37183243463335297,nan
1740789386.3442109,0.3666312370360414,0.2165051001153476,0.7198387529309084,0.37501273662789913,nan
1740789386.3481169,0.3859515622419606,0.2157284515179764,0.7069301394354446,0.3752283193250955,nan
1740789386.3520226,0.40336147858703353,0.21665711001342816,0.6902071051804527,0.372462884781256,nan
1740789386.3559284,0.4187839663402493,0.21922249418861747,0.6698117190752788,0.3667307816674814,nan
1740789386.3598344,0.4321628684530428,0.22333010261748423,0.6459188554740344,0.35807669519432334,nan
1740789386.3637402,0.4434629073812273,0.22886090116003152,0.6187343527252902,0.3465750380074382,nan
1740789386.3676462,0.4526694976366233,0.23567297963908046,0.5884928860150406,0.3323290499276641,nan
1740789386.371552,0.45978835935827883,0.2436034578058677,0.5554555768158694,0.315469617207754,nan
1740789386.3754578,0.4648449400829857,0.2524706180454161,0.5199073636801947,0.2961538246542097,nan
1740789386.3793678,0.46788365368842005,0.262076240061269,0.4821541612848198,0.274563256491123,nan
1740789386.3832738,0.46896694716305526,0.2722081108373531,0.4425198365283051,0.25090206420018846,nan
1740789386.3871796,0.4681742074098077,0.2826426815202534,0.40134303208488803,0.22539482173526515,nan
1740789386.3910854,0.4656005217012885,0.2931478415128856,0.3589738691150882,0.19828419046141976,nan
1740789386.3949914,0.4613553066613315,0.30348577903215646,0.31577056181278057,0.16982841788966274,nan
1740789386.3988972,0.4555608217395079,0.31341589666733166,0.2720959771237509,0.14029869575438514,nan
1740789386.4028032,0.4483505840636848,0.3226977500877195,0.22831417329703277,0.10997640419809011,nan
1740789386.406709,0.4398677022933647,0.3310939779899255,0.18478695092641748,0.07915026977718162,nan
1740789386.4106147,0.4302631476482952,0.3383731916450571,0.14187044980732696,0.04811346567584437,nan
1740789386.4145207,0.41969398064937385,0.3443127930001925,0.09991182427894556,0.017160682907577128,nan
1740789386.4184265,0.4083215522808471,0.3487016911984937,0.059246028751293714,-0.013414798606267174,nan
1740789386.4223323,0.3963096982646842,0.35134288859747653,0.02019274384315131,-0.04332401036393805,nan
1740789386.4262395,0.3838229449322594,0.35205590887137156,-0.016946528006471312,-0.07228513875068864,nan
1740789386.4301453,0.37102474478935604,0.35067904156437196,-0.051891170426309065,-0.1000262841036451,nan
1740789386.4340513,0.3580757593040386,0.3470713794974621,-0.08438393956193041,-0.12628810881907357,nan
1740789386.437957,0.3451322057108514,0.3411146277006457,-0.11419320646744222,-0.150826349187061,nan
1740789386.4418628,0.3323442837285827,0.33271466502047814,-0.14111493534823913,-0.17341416711780025,nan
1740789386.4457688,0.3198546970431992,0.32180284221396427,-0.1649743802713892,-0.19384431962603627,nan
1740789386.4496746,0.3077972832248689,0.30833700315610135,-0.1856274858221682,-0.2119311258480687,nan
1740789386.4535804,0.29629576444173916,0.29230221873055173,-0.20296198017189493,-0.2275122134590084,nan
1740789386.4574864,0.2854626299179398,0.27371122601060915,-0.2168981521037876,-0.2404500286154574,nan
1740789386.4613922,0.27539815957463853,0.2526045684397159,-0.22738930668925986,-0.2506330959474594,nan
1740789386.4652982,0.26618959670731096,0.22905043585543636,-0.23442189748567577,-0.25797701763921066,nan
1740789386.469204,0.25791047590659466,0.20314420633616853,-0.23801533630681174,-0.2624252032455281,nan
1740789386.4731133,0.25062011074157314,0.17500769495417542,-0.23822148476789923,-0.2639493245645768,nan
1740789386.477019,0.24436324401070597,0.14478811756034737,-0.2351238348973675,-0.26254949260032223,nan
1740789386.4809248,0.23916986164466492,0.11265678067482893,-0.22883638910732224,-0.25825415637411575,nan
1740789386.4848309,0.23505516963455625,0.0788075113838117,-0.21950225269541923,-0.2511197260570648,nan
1740789386.4887366,0.23201973167586826,0.04345484381798109,-0.20729195478444506,-0.24122992556704134,nan
1740789386.4926424,0.23004976357977108,0.006831981285860903,-0.19240151616664092,-0.22869488238063218,nan
1740789386.4965484,0.22911757892542295,-0.030811444569195986,-0.1750502848832899,-0.2136499648260234,nan
1740789386.5004542,0.22918217892518566,-0.06921179414906713,-0.15547856251425174,-0.1962543795236999,nan
1740789386.50436,0.23018997806372526,-0.10809399455323214,-0.13394504605702565,-0.17668954390533173,nan
1740789386.508266,0.2320756557652228,-0.14717424167629045,-0.11072411192324293,-0.1551572508460038,nan
1740789386.5121717,0.23476312315295012,-0.18616280163916482,-0.08610296995720279,-0.13187764437141905,nan
1740789386.5160775,0.23816659290287945,-0.22476688244848458,-0.060378716474357004,-0.10708702713216882,nan
1740789386.5199838,0.24219173926775453,-0.26269354608427953,-0.03385531611809646,-0.08103552185595127,nan
1740789386.5238898,0.24673693456798054,-0.29965263082772103,-0.006840542834635084,-0.05398461028197826,nan
1740789386.5277956,0.25169454781752043,-0.3353596535613029,0.020357089535186147,-0.026204574138645333,nan
1740789386.5317016,0.25695229068142816,-0.36953866200377344,0.04743137665191648,0.0020281364632087043,nan
1740789386.5356073,0.26239459565018486,-0.4019250073782102,0.07408142306972113,0.030433581289932603,nan
1740789386.539513,0.2679040111660639,-0.4322680088478844,0.1000145623311837,0.058731028662888055,nan
1740789386.5434191,0.2733625984482492,-0.46033348218181597,0.12494916945489136,0.08664164827411006,nan
1740789386.547325,0.278653314934749,-0.4859061065182836,0.14861733876451147,0.11389117207025136,nan
1740789386.5512307,0.283661369586753,-0.5087916047653417,0.17076740152715753,0.1402124975990206,nan
1740789386.5551367,0.28827553578005616,-0.5288187150950917,0.1911662596321922,0.16534820892296365,nan
1740789386.5590425,0.29238940813211434,-0.5458409331334856,0.20960151353038345,0.1890529911547255,nan
1740789386.5629482,0.29590259037412425,-0.5597380067976272,0.2258833648465927,0.21109591584505424,nan
1740789386.566857,0.2987218022661191,-0.5704171682639415,0.2398462764541399,0.23126257584710708,nan
1740789386.5707629,0.3007618945587802,-0.5778140902373626,0.25135037533104077,0.24935704987312238,nan
1740789386.574669,0.3019467621169657,-0.5818935565065663,0.2602825861815538,0.26520367873555223,nan
1740789386.5785747,0.30221014652409867,-0.5826498396847388,0.26655748657371753,0.278648637205933,nan
1740789386.5824804,0.30149632077012295,-0.5801067820198637,0.27011787718673413,0.2895612875110339,nan
1740789386.5863864,0.29976064997444657,-0.5743175781829911,0.2709350636525223,0.29783530269609954,nan
1740789386.5902922,0.2969700234944349,-0.5653642619768743,0.269008849384494,0.30338955039675863,nan
1740789386.594198,0.2931031552043136,-0.5533569019202434,0.2643672416845158,0.30616872995136735,nan
1740789386.598104,0.28815075018350467,-0.5384325136244981,0.2570658762773464,0.3061437582302098,nan
1740789386.6020098,0.2821155375117558,-0.5207536997600759,0.24718716821221362,0.30331190203289343,nan
1740789386.6059155,0.2750121703156899,-0.5005070311803307,0.2348391997662154,0.29769665738608125,nan
1740789386.6098216,0.26686699563222177,-0.47790118540359705,0.22015435855737475,0.28934737853591136,nan
1740789386.61373,0.25771769803400657,-0.45316486112311005,0.20328774150148035,0.27833866184926936,nan
1740789386.6176357,0.24761282228630932,-0.4265444896946437,0.18441534250269098,0.26476949219176993,nan
1740789386.6215417,0.23661118155992594,-0.3983017666207014,0.16373204383158455,0.24876216161542009,nan
1740789386.6254475,0.22478115889831507,-0.36871102788697163,0.14144943299628374,0.23046097234360974,nan
1740789386.6293533,0.212199910716938,-0.33805649759333917,0.11779346853480406,0.21003073806486558,nan
1740789386.6332593,0.19895248208853716,-0.3066294346424154,0.0930020195349088,0.18765509942067055,nan
1740789386.637165,0.1851308444298249,-0.2747252072898738,0.06732230480871483,0.16353467127897853,nan
1740789386.6410708,0.17083286694477282,-0.2426403251129067,0.041008258503190224,0.1378850409081588,nan
1740789386.6449769,0.1561612337902798,-0.21066945840815082,0.014317849507092001,0.11093463749203672,nan
1740789386.6488826,0.14122231940604177,-0.1791024751841531,-0.012489617684581353,0.08292249454367086,nan
1740789386.6527884,0.12612503478780548,-0.1482215257643349,-0.03915619296779624,0.0540959276736765,nan
1740789386.6566944,0.1109796576792814,-0.11829820456604866,-0.06542793406725145,0.0247081508408403,nan
1740789386.660605,0.09589665971184552,-0.08959081787416663,-0.09105749652916321,-0.004984145346853049,nan
1740789386.664511,0.08098554343308786,-0.0623417853913246,-0.11580663418804961,-0.034723229506789265,nan
1740789386.6684167,0.06635370193735206,-0.036775202031633744,-0.1394485850908827,-0.0642527557871171,nan
1740789386.6723225,0.05210531344700423,-0.013094584843668104,-0.1617703191742151,-0.09332015712083977,nan
1740789386.6762285,0.03834028269714838,0.008519171882596644,-0.18257462553580983,-0.12167898243855589,nan
1740789386.6801343,0.025153240355120343,0.027909612333077555,-0.2016820189051632,-0.1490911555650221,nan
1740789386.6840403,0.012632610966828328,0.04494628699356677,-0.21893244687857252,-0.17532913445472836,nan
1740789386.687946,0.0008597590736752222,0.05952605632577391,-0.2341867816232925,-0.20017795055596116,nan
1740789386.6918519,-0.010091777803839588,0.07157411666802675,-0.24732808204960413,-0.22343710941893333,nan
1740789386.6957579,-0.020156961655727258,0.08104473749865646,-0.25826261487544466,-0.24492233516723697,nan
1740789386.6996636,-0.029279825397839156,0.08792170207624779,-0.2669206255405628,-0.2644671431171025,nan
1740789386.7035694,-0.037413937842207604,0.09221844642938759,-0.2732568525399554,-0.2819242266383302,nan
1740789386.707477,-0.04452275807943994,0.09397789467989166,-0.27725078141285553,-0.29716664628541795,nan
1740789386.7113829,-0.05057987639531093,0.09327199171790551,-0.2789066373165798,-0.3100888112674467,nan
1740789386.7152889,-0.05556914013227514,0.09020093727473802,-0.2782531178067692,-0.3206072454498024,nan
1740789386.7191947,-0.05948466420443544,0.08489212842975043,-0.2753428701096296,-0.32866113226820376,nan
1740789386.7231004,-0.06233072726743988,0.07749882051150216,-0.27025171978089546,-0.3342126351636271,nan
1740789386.7270064,-0.064121555818759,0.0681985191816778,-0.2630776601741121,-0.3372469923932828,nan
1740789386.7309122,-0.06488099974502032,0.05719111919508283,-0.2539396145620537,-0.33777238731514014,nan
1740789386.734818,-0.06464210402812641,0.04469680788337099,-0.24297598504560908,-0.33581959745956297,nan
1740789386.738724,-0.06344658245796968,0.0309537537889049,-0.23034300452132678,-0.3314414278692942,nan
1740789386.7426298,-0.061344200264458436,0.016215603054632845,-0.2162129099409776,-0.32471193628710954,nan
1740789386.7465358,-0.05839207356395649,0.0007488081344187005,-0.2007719568644813,-0.31572545977840205,nan
1740789386.7504416,-0.05465389440473913,-0.015170184893362977,-0.1842182968641896,-0.3045954542742913,nan
1740789386.7543488,-0.05019909098315873,-0.03125786266533215,-0.16675974066846289,-0.29145316029120083,nan
1740789386.7582548,-0.045101933278849086,-0.047226655593026384,-0.14861143102317748,-0.2764461097084375,nan
1740789386.7621605,-0.039440594916189696,-0.06278800380547077,-0.12999345009059596,-0.259736489950547,nan
1740789386.7660663,-0.03329618249493501,-0.07765544752429161,-0.11112838678843691,-0.24149938321263423,nan
1740789386.7699723,-0.02675174394070418,-0.09154771110820357,-0.09223888979251875,-0.22192089947230945,nan
1740789386.773878,-0.019891267603193426,-0.10419174999288174,-0.07354523198178013,-0.20119622294171932,nan
1740789386.7777839,-0.012798683874726158,-0.11532573004421649,-0.05526291189482105,-0.17952759231903537,nan
1740789386.78169,-0.005556881014053886,-0.12470190943494679,-0.03760031729524091,-0.15712223569520056,nan
1740789386.7855957,0.0017532533585430889,-0.1320893940410814,-0.0207564752146437,-0.13419028125470872,nan
1740789386.7895014,0.009053753976198365,-0.1372767385269773,-0.004918911865113619,-0.11094266497729205,nan
1740789386.7934074,0.01627045220350867,-0.14007436673498283,0.009738355401954463,-0.08758905640114646,nan
1740789386.7973132,0.023333792821462838,-0.14031678670339365,0.023056673353701946,-0.06433582315047742,nan
1740789386.801223,0.030179583965919646,-0.1378645775884235,0.03489443626295147,-0.0413840543655906,nan
1740789386.8051288,0.036749671673510106,-0.132606127943148,0.045128580179242504,-0.018927662409353226,nan
1740789386.8090348,0.04299253139126659,-0.12445910718775793,0.05365587285341909,0.002848418731445145,nan
1740789386.8129406,0.048863769793869284,-0.11337165466789627,0.06039398625266587,0.023769921066766266,nan
1740789386.8168464,0.05432653131411718,-0.09932327341637275,0.065282340899755,0.043674800266037025,nan
1740789386.8207524,0.059351804916349726,-0.08232541858190953,0.06828271367313032,0.06241464883943815,nan
1740789386.8246582,0.06391862781644839,-0.06242177343881913,0.06937960318835756,0.07985595190859711,nan
1740789386.828564,0.06801418406291772,-0.039688208915310746,0.06858034942111654,0.09588117435268968,nan
1740789386.83247,0.07163379712777689,-0.01423242564574505,0.06591500680090885,0.11038966993383911,nan
1740789386.8363757,0.07478081690002662,0.01380671936598434,0.06143597257699464,0.12329840490723518,nan
1740789386.8402815,0.07746640271447817,0.04426019631876706,0.055217374807153524,0.1345424905868417,nan
1740789386.8441875,0.07970920527096415,0.07693008824870633,0.0473542268198265,0.1440755213464364,nan
1740789386.848094,0.08153495148985454,0.11159116760673206,0.037961357425444285,0.15186971656741696,nan
1740789386.8519998,0.0829759374961269,0.14799274981867713,0.027172128478588065,0.15791586707839306,nan
1740789386.8559058,0.08407043601319705,0.18586080715666112,0.015136953595367103,0.1622230886463213,nan
1740789386.8598115,0.0848620254671581,0.22490032369773608,0.0020216338877196284,0.16481838705432825,nan
1740789386.8637173,0.08539884904056216,0.2647978697753871,-0.01199447153276436,0.16574604121741346,nan
1740789386.8676233,0.08573281276183253,0.30522437216452114,-0.02672042082344751,0.16506681262459588,nan
1740789386.871529,0.08591873246222684,0.34583805430228487,-0.04195578949101311,0.1628569911363883,nan
1740789386.8754349,0.08601344006844518,0.3862875191540174,-0.05749287303825775,0.15920728879236076,nan
1740789386.879341,0.08607486021817334,0.426214945902627,-0.07311896887820084,0.1542215947788466,nan
1740789386.8832467,0.08616106858193215,0.4652593704843051,-0.08861871340412163,0.14801560605699068,nan
1740789386.8871524,0.08632934354279724,0.5030600191253108,-0.10377644954152074,0.14071534934287727,nan
1740789386.8910584,0.0866352230225002,0.539259663461728,-0.11837859980050264,0.13245561115329346,nan
1740789386.8949673,0.08713157824602318,0.5735079655525442,-0.13221601979783243,0.12337829347266036,nan
1740789386.898873,0.08786771610661696,0.6054647811284597,-0.14508630742714568,0.11363071325135064,nan
1740789386.902779,0.088888521529972,0.6348033897546078,-0.15679604332127461,0.10336386440675771,nan
1740789386.9066849,0.0902336508425064,0.6612136212213245,-0.16716293896748563,0.09273066126254279,nan
1740789386.9105906,0.09193678662800699,0.6844048484074091,-0.17601786979718204,0.08188418242630852,nan
1740789386.9144967,0.09402496391445596,0.704108818075845,-0.1832067717663381,0.07097593397200928,nan
1740789386.9184024,0.09651797677512884,0.7200822925511217,-0.18859238135938397,0.06015415046269295,nan
1740789386.9223082,0.09942787356279395,0.7321094769756665,-0.19205580057280527,0.04956215182620956,nan
1740789386.9262142,0.10275854803193556,0.7400042088337724,-0.19349787024880158,0.03933677338721178,nan
1740789386.93012,0.10650543255146731,0.7436118886453924,-0.1928403371152753,0.02960688547160092,nan
1740789386.9340258,0.1106552984803412,0.7428111331482598,-0.19002680202597824,0.02049201794407108,nan
1740789386.9379318,0.11518616758283295,0.7375151348813883,-0.18502343916179936,0.01210110382753155,nan
1740789386.941843,0.12006733711159824,0.7276727148314543,-0.17781947832792178,0.004531354797874286,nan
1740789386.945749,0.12525951989840142,0.7132690576791808,-0.16842744493743692,-0.002132720136381664,nan
1740789386.9496548,0.13071509947825752,0.6943261221581941,-0.1568831547850246,-0.007820143056806542,nan
1740789386.9535606,0.13637849894702123,0.6709027220851665,-0.1432454632586529,-0.012474134639845183,nan
1740789386.9574666,0.14218666092933877,0.6430942767082624,-0.12759577118700485,-0.016052614493683143,nan
1740789386.9613724,0.14806963472796292,0.611032232121274,-0.11003729204929812,-0.01852852990649268,nan
