timestamps,TP9,AF7,AF8,TP10,Right AUX
1740790113.23334,0.16302402884729325,-0.4031362728320098,0.28570971041313525,0.23074912005433143,nan
1740790113.237246,0.18903073066103132,-0.4281995750597577,0.3347156264884081,0.24102257917594197,nan
1740790113.241152,0.21364479174307266,-0.4518954680523289,0.3813697222618454,0.24953437475001755,nan
1740790113.245058,0.2367417690816392,-0.4738871876387168,0.42540181800903104,0.25620260887164953,nan
1740790113.2489638,0.25821463185661847,-0.49385789518123024,0.46656335420227163,0.2609614614668179,nan
1740790113.2528698,0.27797485456254895,-0.5115139850750613,0.5046292435988372,0.2637618971495252,nan
1740790113.2567759,0.29595331660450935,-0.5265881360412392,0.5393995214097503,0.26457221031008776,nan
1740790113.2606819,0.31210099873434277,-0.538842076091225,0.5707007792422291,0.2633784021114946,nan
1740790113.2645876,0.3263894687831812,-0.5480690340086926,0.5983873704537873,0.2601843847516027,nan
1740790113.2684937,0.3388111513155811,-0.5540958534251892,0.6223423766183223,0.2550120100849676,nan
1740790113.2723997,0.3493793780584567,-0.556784749029158,0.6424783269648255,0.24790092147165224,nan
1740790113.2763057,0.3581282182217856,-0.5560346881071913,0.6587376648877006,0.23890822951347812,nan
1740790113.2802129,0.3651120901045834,-0.5517823844360226,0.671092957923022,0.22810801413252715,nan
1740790113.284119,0.3704051576455833,-0.5440028954852187,0.6795468499159494,0.21559065722400017,nan
1740790113.2880247,0.37410051781022513,-0.5327098179147242,0.6841317564490503,0.20146201185748028,nan
1740790113.2919307,0.37630918688101433,-0.5179550804180116,0.6849093069373571,0.1858424156893005,nan
1740790113.2958367,0.37715889581470696,-0.4998283370303501,0.6819695391016335,0.16886555786658364,nan
1740790113.2997427,0.3767927068254767,-0.4784559680520276,0.6754298537847042,0.150677210233804,nan
1740790113.3036485,0.37536746522763775,-0.4539996996882934,0.6654337402555461,0.13143383507936934,nan
1740790113.3075545,0.3730521023052422,-0.4266548573422168,0.6521492842314848,0.11130108296782835,nan
1740790113.3114605,0.37002580655083595,-0.3966482711753736,0.635767472820454,0.09045219537886906,nan
1740790113.3153665,0.36647608201557896,-0.3642358560381908,0.6165003124242208,0.069066327904937,nan
1740790113.3192723,0.3625967137229601,-0.32969989113207687,0.5945787773321333,0.047326810633720545,nan
1740790113.3231783,0.35858566110585527,-0.2933460277672624,0.5702506082574014,0.025419363050563287,nan
1740790113.3270855,0.3546429012208439,-0.25550005629372047,0.5437779814094332,0.003530281330923088,nan
1740790113.3309915,0.35096824406602295,-0.21650446568104886,0.5154350698437711,-0.018155383751666355,nan
1740790113.3348975,0.34775914267264496,-0.1767148312831529,0.48550551977444856,-0.03945563990566269,nan
1740790113.3388033,0.34520852075278713,-0.13649606802474126,0.4542798652633827,-0.06019333900879153,nan
1740790113.3427093,0.3435026405631968,-0.0962185875724075,0.4220529052104106,-0.08019791722483194,nan
1740790113.3466153,0.34281903329025337,-0.05625439899055036,0.3891210668512114,-0.09930707176138379,nan
1740790113.3505213,0.34332451367565164,-0.016973192922477235,0.35577978002555155,-0.11736835705227572,nan
1740790113.354427,0.34517329979239253,0.021261550525318938,0.32232088630478667,-0.13424068389835442,nan
1740790113.358333,0.348505257853756,0.05809639028363728,0.2890301066667289,-0.14979570602157075,nan
1740790113.3622391,0.35344429070400546,0.09319164996030585,0.256184590781879,-0.16391907957080823,nan
1740790113.3661451,0.3600968872107673,0.12622500243409168,0.224050570133337,-0.1765115823536614,nan
1740790113.370051,0.3685508481694739,0.1568948766610629,0.19288113614180222,-0.18749008094416292,nan
1740790113.3739579,0.37887420255582094,0.184923651763584,0.16291416321661878,-0.1967883353192339,nan
1740790113.377864,0.39111432604073243,0.21006060563417633,0.13437039521624958,-0.20435763229135764,nan
1740790113.38177,0.40529727163287754,0.23208458777712224,0.1074517121902208,-0.21016724071593212,nan
1740790113.3856757,0.42142732015711665,0.2508063889049106,0.08233959250531984,-0.21420468324187478,nan
1740790113.3895817,0.4394867560349889,0.266070782876466,0.05919378354836344,-0.2164758212254545,nan
1740790113.3934877,0.45943587152812454,0.2777582198789627,0.03815119216473938,-0.21700475132160285,nan
1740790113.3973937,0.48121320026079956,0.28578615328161805,0.019325003855641357,-0.21583351418477525,nan
1740790113.4012995,0.5047359784772989,0.2901099862932552,0.002804037538006943,-0.21302161763375754,nan
1740790113.4052055,0.5299008301376891,0.2907236283983083,-0.01134765960888234,-0.20864537854171844,nan
1740790113.4091115,0.5565846696357685,0.2876596554903219,-0.02309097500555082,-0.2027970895852125,nan
1740790113.4130175,0.5846458136593637,0.2809890716282517,-0.032411651374808566,-0.19558401880425144,nan
1740790113.4169233,0.6139252915289201,0.2708206743691664,-0.039319967746708255,-0.18712725167141708,nan
1740790113.42083,0.6442483412681033,0.2573000296410851,-0.04385018553046159,-0.17756038702316204,nan
1740790113.424736,0.6754260767014125,0.24060806607158636,-0.046059766669819195,-0.1670280997536116,nan
1740790113.428642,0.7072573090590983,0.220959302542099,-0.046028373078176324,-0.15568458459424028,nan
1740790113.432548,0.7395305049177751,0.1985997264559568,-0.0438566586363352,-0.14369189658653186,nan
1740790113.4364538,0.7720258608336961,0.17380434375315246,-0.03966486700899038,-0.13121820498555764,nan
1740790113.4403598,0.8045174737500231,0.14687442504096035,-0.033591250376794675,-0.11843597829801716,nan
1740790113.4442658,0.8367755851935897,0.11813447530369042,-0.025790325871253458,-0.1055201189480552,nan
1740790113.4481719,0.8685688764319388,0.08792895747593364,-0.016430988023534026,-0.09264606666926191,nan
1740790113.4520776,0.8996667911474038,0.0566188026834467,-0.005694496880701204,-0.07998789013452406,nan
1740790113.4559836,0.9298418618087537,0.02457774214891745,0.006227637409078517,-0.06771638655174365,nan
1740790113.4598897,0.9588720157870567,-0.007811502395635136,0.019135851798203207,-0.055997208969630195,nan
1740790113.4637957,0.9865428373733179,-0.04016113147099498,0.032824786856019854,-0.04498904085262824,nan
1740790113.4677036,1.0126497622108177,-0.07208224437367888,0.04708557962136336,-0.03484183709840362,nan
1740790113.4716096,1.0370001812522922,-0.10318883934460832,0.06170816953273098,-0.025695150088056402,nan
1740790113.4755156,1.0594154321859368,-0.13310179696788724,0.07648359412676833,-0.017676558583234622,nan
1740790113.4794214,1.0797326573372013,-0.16145280648758695,0.09120625137445897,-0.01090021632244075,nan
1740790113.4833274,1.0978065083354691,-0.18788819523743228,0.10567610593088918,-0.005465536029820312,nan
1740790113.4872334,1.11351067932387,-0.21207262228400178,0.11970081720460478,-0.0014560232442381827,nan
1740790113.4911394,1.1267392521723247,-0.23369259867987308,0.13309776800020637,0.0010617270832602446,nan
1740790113.4950452,1.1374078390121118,-0.2524597983965457,0.14569597354456187,0.002038859875375357,nan
1740790113.4989512,1.1454545094266253,-0.2681141260416779,0.15733785196237965,0.0014449054742985464,nan
1740790113.5028572,1.1508404917877384,-0.2804265098412645,0.16788083870867143,-0.0007317663436591771,nan
1740790113.5067632,1.1535506404988938,-0.2892013910616645,0.1771988290794219,-0.00448368975287192,nan
1740790113.510669,1.1535936632721648,-0.2942788840322894,0.18518343469185125,-0.009784247537320316,nan
1740790113.514577,1.1510021050034447,-0.29553658417801626,0.19174504173448798,-0.016587818853400875,nan
1740790113.518483,1.1458320872930354,-0.29289100494893444,0.19681366081602755,-0.02483012985075196,nan
1740790113.522389,1.1381628051633392,-0.2862986282095227,0.20033956037062384,-0.03442880481955967,nan
1740790113.5262947,1.12809578502567,-0.275756556483595,0.2022936777848912,-0.04528411345825906,nan
1740790113.5302007,1.1157539104189076,-0.2613027594073074,0.20266780467655493,-0.057279907813198784,nan
1740790113.5341067,1.1012802244587152,-0.24301591078104812,0.20147454505407617,-0.07028474045246762,nan
1740790113.5380127,1.0848365202724355,-0.22101481669224993,0.1987470473979039,-0.08415315352023692,nan
1740790113.5419185,1.0666017329274233,-0.19545743926427622,0.19453851400430075,-0.09872712649544117,nan
1740790113.5458245,1.046770148466467,-0.16653952463132493,0.18892149319924295,-0.11383766876834546,nan
1740790113.5497305,1.0255494476208802,-0.13449284770525005,0.1819869622400789,-0.1293065415686524,nan
1740790113.5536366,1.0031586035594149,-0.09958309014798644,0.1738432108544935,-0.1449480923459116,nan
1740790113.5575423,0.9798256546302166,-0.06210737165445003,0.1646145373986417,-0.16057118343261828,nan
1740790113.56145,0.9557853744466019,-0.02239145814846377,0.15443977152871535,-0.17598119572633583,nan
1740790113.565356,0.9312768628401629,0.01921332623647101,0.14347063905364704,-0.19098208722162366,nan
1740790113.5692618,0.9065410821436362,0.06233345351184581,0.13186998625319038,-0.20537848551587423,nan
1740790113.5731678,0.8818183639604963,0.1065767799280404,0.11980988238915682,-0.21897779291370004,nan
1740790113.5770738,0.857345912019765,0.15153633281374784,0.10746962039333803,-0.2315922824687841,nan
1740790113.5809798,0.8333553268975413,0.1967942591129031,0.09503363677096277,-0.24304116323424643,nan
1740790113.5848856,0.8100701783078769,0.24192589688086524,0.08268937260264585,-0.25315259314479577,nan
1740790113.5887916,0.7877036503242099,0.28650392969288363,0.07062509815176385,-0.2617656183261595,nan
1740790113.5926976,0.7664562842907597,0.33010258300420764,0.05902772398170737,-0.26873201821719134,nan
1740790113.5966036,0.7465138433256966,0.3723018209922452,0.048080621654003154,-0.2739180366931728,nan
1740790113.6005094,0.7280453212117164,0.4126915023127958,0.03796147701179431,-0.27720598038858185,nan
1740790113.6044154,0.7112011171248341,0.45087545351604863,0.028840198753988865,-0.2784956666251476,nan
1740790113.6083229,0.6961113960808557,0.48647541959151724,0.020876904475911992,-0.27770570474560363,nan
1740790113.6122289,0.6828846531958062,0.5191348522377497,0.014220005597422787,-0.27477459622247935,nan
1740790113.616135,0.671606497878297,0.5485224979722095,0.009004411626292771,-0.2696616406399118,nan
1740790113.620041,0.6623386719173989,0.5743357500946094,0.005349873022325123,-0.2623476365186314,nan
1740790113.6239467,0.6551183131196161,0.5963037307752085,0.003359480547676068,-0.2528353679520639,nan
1740790113.6278527,0.6499574737055662,0.6141900721364275,0.0031183374243870642,-0.2411498701259085,nan
1740790113.6317587,0.6468429001248275,0.6277953681063005,0.0046924188864412115,-0.2273384689840068,nan
1740790113.6356647,0.6457360783111442,0.6369592720177946,0.008127631827692728,-0.21147059255860146,nan
1740790113.6395705,0.6465735457059563,0.6415622183775431,0.013449085227127148,-0.1936373537810069,nan
1740790113.6434765,0.6492674686528369,0.6415267508974613,0.020660579899087973,-0.17395090690648535,nan
1740790113.6473825,0.6537064810361977,0.6368184427371165,0.029744323889245358,-0.15254358200167217,nan
1740790113.6512885,0.6597567773319813,0.6274463989058287,0.04066087753928604,-0.129566804231063,nan
1740790113.6551957,0.6672634505835517,0.6134633348818747,0.053349329897295635,-0.10518980691763088,nan
1740790113.6591017,0.676052063239569,0.5949652296814631,0.06772770577997748,-0.07959814951888645,nan
1740790113.6630075,0.6859304363188221,0.5720905558111848,0.08369360042077365,-0.05299205373134458,nan
1740790113.6669135,0.6966906400253486,0.5450190927227841,0.10112503628842358,-0.025584572891981894,nan
1740790113.6708195,0.708111166750122,0.5139703345170185,0.11988153435710533,0.0024003883355717378,nan
1740790113.6747255,0.7199592653861475,0.47920150667307304,0.13980538987516689,0.03073018533894022,nan
1740790113.6786313,0.7319934140734464,0.4410052104713926,0.16072314053736067,0.05916565585796427,nan
1740790113.6825373,0.7439659068985611,0.39970671749216613,0.18244721293697636,0.08746343176756005,nan
1740790113.6864433,0.755625528717504,0.35566094007192556,0.2047777312802734,0.11537831780548095,nan
1740790113.6903493,0.7667202911666494,0.30924910685173185,0.2275044706054372,0.14266571382895724,nan
1740790113.694255,0.7770002020858078,0.26087517551960543,0.2504089351800268,0.16908405653244812,nan
1740790113.6981611,0.786220040011906,0.21096201750723104,0.27326654137088047,0.1943972561426017,nan
1740790113.7020698,0.794142105117971,0.15994741171963772,0.29584888310328145,0.21837710343209,nan
1740790113.7059758,0.8005389179752802,0.10827988633286824,0.31792605706449034,0.24080562246484702,nan
1740790113.7098818,0.8051958378087012,0.05641444926856876,0.3392690240710035,0.2614773448027872,nan
1740790113.7137876,0.8079135724955213,0.004808249129495834,0.35965198251752895,0.2802014814671442,nan
1740790113.7176936,0.8085105534227847,-0.04608379085620005,0.3788547295646572,0.2968039697525268,nan
1740790113.7215996,0.8068251494607775,-0.09581332298986904,0.3966649857052394,0.3111293730327306,nan
1740790113.7255056,0.8027176957214158,-0.1439428665441891,0.4128806585779791,0.32304261296582637,nan
1740790113.7294114,0.7960723144378764,-0.1900499981835058,0.42731202236940474,0.3324305149914028,nan
1740790113.7333174,0.7867985072111014,-0.23373139997809497,0.43978378985881134,0.3392031497021724,nan
1740790113.7372234,0.7748325000025922,-0.2746067249633588,0.45013705510895574,0.3432949545504387,nan
1740790113.7411294,0.7601383245916272,-0.3123222419299482,0.45823108597993933,0.34466562240010173,nan
1740790113.7450352,0.7427086227369607,-0.3465542232489537,0.4639449470342853,0.34330074563819524,nan
1740790113.7489421,0.722565161964447,-0.37701204201743993,0.46717893499500557,0.3392122068958501,nan
1740790113.7528481,0.6997590547174689,-0.40344094762997995,0.46785581070050897,0.33243830987509426,nan
1740790113.7567542,0.6743706755295343,-0.4256244920143342,0.4659218134539645,0.3230436463118456,nan
1740790113.76066,0.6465092738797623,-0.4433865821836687,0.46134744577152814,0.31111869770250605,nan
1740790113.764566,0.6163122834429339,-0.45659313842054394,0.4541280187736017,0.2967791730566129,nan
1740790113.768472,0.5839443315164892,-0.4651533412837127,0.444283950814535,0.28016508658544054,nan
1740790113.772378,0.5495959554669958,-0.46902045467949294,0.4318608143860693,0.2614395818702014,nan
1740790113.7762837,0.513482036057615,-0.4681922164255492,0.4169291288346911,0.24078751164743412,nan
1740790113.7801898,0.47583996046590327,-0.462710792015105,0.3995838989784056,0.21841378487754923,nan
1740790113.7840958,0.43692753064787715,-0.45266229162169647,0.3799439022692084,0.19454149519958253,nan
1740790113.7880018,0.39702063542080257,-0.43817585472582127,0.35815072969847017,0.16940984719642982,nan
1740790113.7919075,0.35641070719556206,-0.4194223110521459,0.33436758815816253,0.14327189907610055,nan
1740790113.7958145,0.3154019866631248,-0.3966124307365693,0.30877787442620047,0.11639214239327969,nan
1740790113.7997203,0.27430862090358965,-0.3699947807541842,0.28158353331457875,0.08904394127028115,nan
1740790113.8036263,0.233451622317325,-0.3398532085910258,0.2530032147802932,0.06150685520770956,nan
1740790113.8075323,0.19315571745485152,-0.30650397789469663,0.22327024692834535,0.03406387098481018,nan
1740790113.8114383,0.15374611622657783,-0.2702925843538833,0.19263044381152808,0.00699857032182736,nan
1740790113.815344,0.11554523308915109,-0.2315902832987788,0.16133976873259967,-0.019407739102106775,nan
1740790113.81925,0.07886939261850962,-0.1907903634506764,0.12966187536211643,-0.04487890102328237,nan
1740790113.823156,0.04402555238002828,-0.14830420384937626,0.09786555038235493,-0.06914676772032655,nan
1740790113.8270621,0.011308076185914904,-0.10455715322493364,0.06622208253933667,-0.09195400814450337,nan
1740790113.830968,-0.019004409315537315,-0.059984272932223845,0.03500258391792968,-0.1130568384761373,nan
1740790113.834874,-0.04665204224639071,-0.01502598601344362,0.004475289938491936,-0.13222764698423417,nan
1740790113.83878,-0.07139660562591323,0.029876324020684453,-0.025097135000745962,-0.14925748580159473,nan
1740790113.8426878,-0.09302422945971875,0.07428472050699339,-0.0534602591494622,-0.16395840323919095,nan
1740790113.8465939,-0.11134788566229795,0.11776908270560991,-0.08037048531829376,-0.1761655915442472,nan
1740790113.8504999,-0.12620964841403084,0.15991139258671655,-0.10559756647150519,-0.18573932654644412,nan
1740790113.8544056,-0.1374826945704529,0.20030989600968802,-0.12892700903096635,-0.19256667742351083,nan
1740790113.8583117,-0.14507302102779504,0.23858309614132156,-0.15016233882431057,-0.19656296683627064,nan
1740790113.8622177,-0.14892085848476003,0.2743735385502358,-0.16912720576606952,-0.19767296391660752,nan
1740790113.8661237,-0.14900176380381622,0.30735134941571923,-0.1856673047617966,-0.19587179502035862,nan
1740790113.8700294,-0.14532737614102345,0.3372174906826703,-0.19965209195971514,-0.1911655597590867,nan
1740790113.8739355,-0.13794582515470366,0.36370669875743267,-0.2109762773279601,-0.18359164257673635,nan
1740790113.8778415,-0.12694178289114283,0.38659007644617926,-0.21956107659149518,-0.17321871301405115,nan
1740790113.8817475,-0.11243615434944952,0.4056773112582432,-0.22535520780267934,-0.1601464107788769,nan
1740790113.8856533,-0.09458540521569271,0.42081849689866535,-0.22833562022268622,-0.1445047147862964,nan
1740790113.8895612,-0.07358052879555976,0.43190553872140114,-0.2285079457353619,-0.12645299842024307,nan
1740790113.8934672,-0.0496456577311517,0.4388731280688062,-0.2259066656768244,-0.10617877636855297,nan
1740790113.8973732,-0.023036329626954923,0.4416992747436096,-0.22059498871818337,-0.0838961514664826,nan
1740790113.9012792,0.005962580801879813,0.44040539130436596,-0.21266443825898088,-0.05984397301978742,nan
1740790113.905185,0.037039247043217365,0.43505592740050086,-0.20223415064848235,-0.034283721037821895,nan
1740790113.909091,0.06985757426439806,0.42575755692395534,-0.18944988842320937,-0.007497133660511374,nan
1740790113.912997,0.10406015852072892,0.4126579253057896,-0.1744827756043402,0.020216402217929485,nan
1740790113.916903,0.13927149631724597,0.39594396878265004,-0.15752776490990855,0.04854267456854902,nan
1740790113.9208088,0.17510141641056604,0.37583982185472303,-0.13880184947654803,0.07715565916142764,nan
1740790113.9247148,0.21114870324519455,0.35260433340959774,-0.11854203432669877,0.10572069472825368,nan
1740790113.9286208,0.24700487919439368,0.3265282160522777,-0.09700308533332797,0.13389779134743263,nan
1740790113.9325268,0.28225811084356955,0.2979308570192598,-0.07445507580000091,0.161345041380999,nan
1740790113.9364343,0.31649720293543665,0.2671568226247956,-0.05118075296544396,0.1877221009030075,nan
1740790113.9403403,0.3493156423094712,0.23457209145349744,-0.027472748735997744,0.21269370846059862,nan
1740790113.9442463,0.38031565322890243,0.2005600544413456,-0.003630660725699429,0.2359332072150476,nan
1740790113.948152,0.4091122249090539,0.16551732254618762,0.020041968776818388,0.2571260360315973,nan
1740790113.952058,0.43533707185023,0.12984938487170825,0.04324074700954808,0.2759731549316425,nan
1740790113.955964,0.4586424877422102,0.0939661618520582,0.06566356818374497,0.2921943704938523,nan
1740790113.95987,0.4787050542477516,0.05827749940848341,0.08701376351574218,0.30553152729381183,nan
1740790113.9637759,0.4952291668879542,0.023188650838980973,0.1070032327358455,0.3157515323036918,nan
1740790113.967682,0.5079503415378093,-0.01090420641344163,0.12535552581472995,0.32264918032978557,nan
1740790113.971588,0.5166382666871554,-0.043618372055441064,0.14180884379664527,0.3260497500392216,nan
1740790113.975494,0.5210995686185788,-0.07458889580284066,0.15611892807912972,0.32581134190710737,nan
1740790113.9793997,0.5211802589840122,-0.10347267633764116,0.16806180822916683,0.32182693148849567,nan
1740790113.9833071,0.5167678369071041,-0.12995234238885586,0.17743637947114688,0.31402611376934897,nan
1740790113.9872131,0.5077930206770754,-0.1537398739078715,0.1840667823152549,0.3023765169582073,nan
1740790113.9911191,0.49423108730672793,-0.174579923687499,0.18780455840578858,0.28688486692368487,nan
1740790113.9950252,0.47610280167513236,-0.19225280256556143,0.1885305585444873,0.267597686538219,nan
1740790113.998931,0.4534749206340153,-0.20657709453352174,0.1861565809687094,0.24460161742934303,nan
1740790114.002837,0.4264602612938438,-0.2174118716093274,0.18062672032026567,0.21802335503781295,nan
1740790114.006743,0.39521732668662773,-0.2246584821985031,0.17191841030754765,0.18802919140722604,nan
1740790114.010649,0.35994948609176336,-0.22826189082254458,0.160043145818838,0.1548241637507707,nan
1740790114.0145547,0.3209037114714218,-0.2282115514995565,0.14504687316397555,0.11865081052476482,nan
1740790114.0184608,0.27836887565497237,-0.22454180167714238,0.12701004017862122,0.07978754045212277,nan
1740790114.0223668,0.2326736220987332,-0.21733176839752336,0.10604730109275319,0.038546623647603244,nan
1740790114.0262728,0.18418382018895438,-0.20670478327386876,0.08230687431365262,-0.004728182333746514,nan
1740790114.03018,0.13329962411318413,-0.1928273078273214,0.05596955457375152,-0.04966435510762284,nan
1740790114.034086,0.08045215725961274,-0.17590737572785026,0.02724738421468973,-0.0958636588253536,nan
1740790114.0379918,0.026099847877707742,-0.15619256344989021,-0.0036180083103043888,-0.14290550103983188,nan
1740790114.0418978,-0.029275554690015613,-0.13396750574680125,-0.036357391364110946,-0.1903505686458959,nan
1740790114.0458038,-0.08517325055107589,-0.10955097711786119,-0.07067621993482334,-0.23774471349936374,nan
1740790114.0497098,-0.1410779108482689,-0.08329256504023867,-0.10625721468340599,-0.28462305558375045,nan
1740790114.0536156,-0.1964644118723221,-0.055568965119788954,-0.1427632096257162,-0.3305142691202726,nan
1740790114.0575216,-0.2508027407301867,-0.02677993243417458,-0.17984024504497875,-0.3749450148304424,nan
1740790114.0614276,-0.3035630294911286,0.002656072842554973,-0.2171208796203223,-0.4174444796845764,nan
1740790114.0653336,-0.3542206730002757,0.03230650397266893,-0.2542276933617543,-0.45754898392423815,nan
1740790114.0692394,-0.40226148420996466,0.061729565691422295,-0.2907769507861522,-0.49480661394976905,nan
1740790114.0731454,-0.4471868399490129,0.09047922441531664,-0.3263823918747422,-0.5287818388300554,nan
1740790114.0770526,-0.48851876954142004,0.11811034105289543,-0.36065911673997625,-0.5590600677321361,nan
1740790114.0809586,-0.5258049386074998,0.14418387507979036,-0.3932275286162313,-0.5852521054911499,nan
1740790114.0848646,-0.5586234807368873,0.16827210725887692,-0.4237172987891636,-0.6069984638512449,nan
1740790114.0887704,-0.5865876305149714,0.18996382761016228,-0.4517713164049469,-0.6239734866066144,nan
1740790114.0926764,-0.6093501126089097,0.20886943497488453,-0.4770495857620791,-0.635889247956501,nan
1740790114.0965824,-0.6266072432692953,0.22462589478098577,-0.49923303369118016,-0.642499184853009,nan
1740790114.1004884,-0.6381027026676199,0.23690150240417215,-0.5180271899751826,-0.6436014259565912,nan
1740790114.1043942,-0.6436309389529391,0.24540040082692957,-0.5331657044534663,-0.6390417820083828,nan
1740790114.1083002,-0.6430401677548138,0.24986680311863627,-0.544413665485525,-0.6287163649649934,nan
1740790114.1122062,-0.6362349340612748,0.250088872580023,-0.5515706858162605,-0.6125738061007144,nan
1740790114.1161122,-0.6231782069345061,0.24590221619638303,-0.5544737235764761,-0.5906170464418324,nan
1740790114.120018,-0.6038929813640116,0.2371929503032305,-0.5529996081559734,-0.5629046763326676,nan
1740790114.123925,-0.5784633656653577,0.22390030105797504,-0.5470672429873611,-0.5295518046149985,nan
1740790114.127831,-0.5470351371773222,0.20601870639992628,-0.5366394598579338,-0.4907304418012989,nan
1740790114.131737,-0.5098157535544158,0.18359939063265066,-0.5217245022037007,-0.4466693857050249,nan
1740790114.1356428,-0.46707381165600237,0.15675138753794707,-0.5023771179104618,-0.3976536022234778,nan
1740790114.1395488,-0.41913795085675654,0.1256419929865002,-0.4786992454257796,-0.34402309831434824,nan
1740790114.1434548,-0.3663952025035608,0.09049663330092382,-0.4508402804450561,-0.28617128862837643,nan
1740790114.1473608,-0.3092887921779217,0.051598141103835114,-0.418996914044897,-0.22454286171919047,nan
1740790114.1512666,-0.2483154063465734,0.00928543599651646,-0.38341253686627746,-0.15963115620814053,nan
1740790114.1551726,-0.18402193985202123,-0.036048386889692176,-0.34437620776617905,-0.09197506169741984,nan
1740790114.1590786,-0.11700174546532917,-0.08395855170004822,-0.30222118922565744,-0.02215546355952864,nan
1740790114.1629846,-0.047890411352123435,-0.13395166554831886,-0.257323055690578,0.04920874505371635,nan
1740790114.1668904,0.02263890325292149,-0.18548933099522744,-0.21009738489366317,0.12146505658217914,nan
1740790114.1707973,0.09388053964894717,-0.23799228172014278,-0.16099704602837714,0.19393211654570994,nan
1740790114.1747031,0.16510178008085843,-0.2908450104824352,-0.1105091023818602,0.2659048302554579,nan
1740790114.1786091,0.23554861483989553,-0.343400853394479,-0.05915134965164974,0.3366597704868971,nan
1740790114.1825151,0.3044517906170184,-0.3949874897393214,-0.00746851463606717,0.4054608447826348,nan
1740790114.1864212,0.37103309172661925,-0.44491281210993755,0.04397185773110339,0.4715651783083172,nan
1740790114.190327,0.4345118032691003,-0.49247111756836276,0.094583797965298,0.5342291657927977,nan
1740790114.194233,0.49411130317508684,-0.5369495668630132,0.14376755237695768,0.592714644068105,nan
1740790114.198139,0.5490657283933893,-0.577634855539164,0.19091443376903328,0.6462951351063647,nan
1740790114.202045,0.5986266592674927,-0.6138200380642114,0.23541184382097702,0.6942621082470766,nan
1740790114.2059507,0.6420697654053235,-0.6448114438957212,0.27664842655568267,0.7359312095329537,nan
1740790114.2098567,0.6787013560943619,-0.6699356227708033,0.3140193106843884,0.7706484057360133,nan
1740790114.2137628,0.7078647785545031,-0.6885462554100847,0.3469313973766468,0.7977959907643475,nan
1740790114.2176707,0.7289466080556858,-0.7000309653231018,0.37480864912153583,0.8167984026964522,nan
1740790114.2215767,0.7413825751532943,-0.703817967483799,0.3970973348427255,0.827127800692976,nan
1740790114.2254827,0.7446631770041812,-0.6993824903190545,0.4132711863108538,0.8283093524799551,nan
1740790114.2293887,0.7383389219082319,-0.6862529087183702,0.4228364211656744,0.8199261849740438,nan
1740790114.2332945,0.7220251588586041,-0.6640165276222146,0.4253365885177701,0.801623952915904,nan
1740790114.2372005,0.6954064469582186,-0.6323249581676119,0.4203571941423191,0.7731149830762704,nan
1740790114.2411065,0.6582404230465139,-0.5908990313448939,0.40753006369873573,0.7341819546798805,nan
1740790114.2450125,0.6103611297512618,-0.5395331976260593,0.3865374042001709,0.6846810801319333,nan
1740790114.2489183,0.5516817704039338,-0.4780993650350795,0.35711552610254543,0.6245447539028761,nan
1740790114.2528243,0.4821968617991719,-0.4065501326109787,0.31905819086767384,0.5537836415003742,nan
1740790114.2567303,0.4019837606017139,-0.3249213811283936,0.2722195516595105,0.47248818479932286,nan
1740790114.2606363,0.31120354426745506,-0.23333418824603966,0.21651665793438235,0.3808295045766242,nan
1740790114.264544,0.2101012326066278,-0.13199604090583372,0.1519314980600347,0.2790596858695902,nan
1740790114.26845,0.09900534153190042,-0.02120132375555804,0.0785125577169118,0.167511436705921,nan
1740790114.272356,-0.02167323394357561,0.09866893143589114,-0.0036241243315818907,0.04659711579827205,nan
1740790114.276262,-0.15144300481061151,0.22714804401382915,-0.09429441749692584,-0.08319287008460317,nan
1740790114.2801678,-0.2897343330285154,0.3636854324436962,-0.19324608788305525,-0.22129229320839747,nan
1740790114.2840738,-0.4359025225483767,0.5076491076072343,-0.30015932001561724,-0.36706194542650034,nan
1740790114.2879798,-0.5892315371188811,0.6583289002899528,-0.4146477733772209,-0.519793076116008,nan
1740790114.2918859,-0.7489383202552016,0.8149404051835382,-0.5362601709442465,-0.6787114064349791,nan
1740790114.2957916,-0.9141776875865838,0.9766296172502649,-0.6644824125186451,-0.8429816939999862,nan
1740790114.2996976,-1.0840477568568894,1.1424782299795349,-0.7987402012801369,-1.0117128174272925,nan
1740790114.3036036,-1.2575958761780712,1.3115095589671966,-0.9384021676879412,-1.1839633457491592,nan
1740790114.3075097,-1.4338250067706744,1.4826950484224262,-1.082783470673671,-1.3587475535473557,nan
1740790114.311417,-1.6117005124067554,1.6549613127086358,-1.2311498520244466,-1.535041838775252,nan
1740790114.315323,-1.7901573041350443,1.8271976599054043,-1.3827221159928151,-1.7117914967018868,nan
1740790114.3192291,-1.9681072856483526,1.9982640396859361,-1.536681002521251,-1.887917800237353,nan
1740790114.3231351,-2.1444470418784514,2.1669993535835532,-1.6921724190657674,-2.0623253341170344,nan
1740790114.327041,-2.3180657110991834,2.332230062011759,-1.8483129928753994,-2.2339095280575454,nan
1740790114.330947,-2.487852979006001,2.492779019241533,-2.004195902759469,-2.4015643320713758,nan
1740790114.334853,-2.6527071319364293,2.6474744649580617,-2.158896946877777,-2.564189975657913,nan
1740790114.338759,-2.811543105614162,2.7951590990434387,-2.311480800942251,-2.7207007515898516,nan
1740790114.3426647,-2.9633004655478086,2.934699164882791,-2.4610074194416174,-2.8700327644960204,nan
1740790114.3465707,-3.1069512554975325,3.0649934657844558,-2.606538531109219,-3.0111515844103907,nan
1740790114.3504767,-3.241507651238077,3.1849822390497806,-2.7471441788613467,-3.143059745914329,nan
1740790114.3543828,-3.3660293581895058,3.2936558128289755,-2.881909253848475,-3.2648040344427622,nan
1740790114.35829,-3.4796306933472914,3.3900629721542432,-3.009939973090908,-3.3754825027484747,nan
1740790114.362196,-3.5814872943066605,3.4733189624424057,-3.130370250415616,-3.474251162411717,nan
1740790114.366102,-3.670842401023274,3.5426130612928772,-3.242367911071568,-3.560330297630123,nan
1740790114.370008,-3.7470126592604607,3.5972156525539574,-3.34514070147176,-3.6330103513084064,nan
1740790114.3739138,-3.80939339841476,3.636484740365978,-3.4379420469831112,-3.6916573366660272,nan
1740790114.3778198,-3.857463340555945,3.65987184518407,-3.5200765125488513,-3.735717731168568,nan
1740790114.3817258,-3.890788702029946,3.666927228600628,-3.5909049231667054,-3.764722813535759,nan
1740790114.3856318,-3.9090266538159386,3.657304399088199,-3.649849103841819,-3.7782924088538605,nan
1740790114.3895376,-3.911928111961204,3.63076385652288,-3.6963962015646183,-3.776138011387536,nan
1740790114.3934436,-3.899339834796355,3.5871760394781083,-3.730102555106269,-3.7580652595090407,nan
1740790114.3973496,-3.871205809213478,3.5265234457465393,-3.7505970819511085,-3.7239757422006075,nan
1740790114.4012556,-3.82756791402378,3.448901903298592,-3.7575841554670926,-3.6738681217982165,nan
1740790114.4051628,-3.7685658542506695,3.354520975861949,-3.7508459494201105,-3.6078385629880083,nan
1740790114.4090688,-3.694436366109535,3.2437034944469407,-3.7302442311325885,-3.526080463496658,nan
1740790114.4129748,-3.6055116983268074,3.1168842133863537,-3.69572158893597,-3.428883487388855,nan
1740790114.4168806,-3.5022173813080006,2.9746075967421777,-3.6473020840338273,-3.316631907353548,nan
1740790114.4207866,-3.3850693014278543,2.817524748192595,-3.5850913214402755,-3.1898022677802866,nan
1740790114.4246926,-3.2546701033362986,2.6463895046869435,-3.509275939248648,-3.0489603857532708,nan
1740790114.4285986,-3.111704948604242,2.46205372118177,-3.420122520079796,-2.8947577122790458,nan
1740790114.4325044,-2.956936664226976,2.2654617805858184,-3.3179759331192016,-2.7279270810717153,nan
1740790114.4364104,-2.791200319416415,2.057644369586277,-3.2032571196393467,-2.549277877005297,nan
1740790114.4403164,-2.6153972737047573,1.8397115672451319,-3.0764603392808856,-2.3596906608671455,nan
1740790114.4442225,-2.4304887436127935,1.612845299088517,-2.938149898596564,-2.1601112912717646,nan
1740790114.4481282,-2.2374889389703334,1.3782912148119417,-2.7889563874104537,-1.9515445884863176,nan
1740790114.4520354,-2.0374578233817995,1.1373500526425702,-2.6295724523781243,-1.7350475884455046,nan
1740790114.4559414,-1.8314935562785923,0.8913685577928634,-2.460748140719284,-1.5117224383657946,nan
1740790114.4598475,-1.6207246764666947,0.6417300262688077,-2.2832858504036144,-1.2827089880815716,nan
1740790114.4637532,-1.4063020890429603,0.3898445485267688,-2.0980349260757802,-1.0491771334968862,nan
1740790114.4676592,-1.189390919000542,0.13713903007679995,-1.905885942682612,-0.8123189703580728,nan
1740790114.4715652,-0.9711622957614788,-0.11495293191618866,-1.7077647210924416,-0.5733408178903233,nan
1740790114.4754713,-0.7527851332556926,-0.3650012356962758,-1.5046261219551051,-0.3334551726952021,nan
1740790114.479377,-0.535417970008261,-0.611589444702112,-1.2974476656256981,-0.0938726536700894,nan
1740790114.483283,-0.3202009330031717,-0.8533248592101272,-1.087223027153873,0.14420600141738,nan
1740790114.487189,-0.10824788786889769,-1.0888484097354165,-0.8749554561145171,0.3795978276842635,nan
1740790114.491095,0.09936116380942199,-1.316844293533268,-0.6616511714200685,0.6111453543017358,nan
1740790114.4950008,0.3015873814886162,-1.5360492776535912,-0.4483127812077135,0.8377240977375047,nan
1740790114.4989078,0.4974400211378931,-1.745261594758087,-0.23593277743835223,1.0582497717614852,nan
1740790114.5028138,0.6859829565224337,-1.9433493612919495,-0.025487153983767854,1.2716851613768037,nan
1740790114.5067198,0.866340737250571,-2.129258451578918,0.1820708042771474,1.4770466107281273,nan
1740790114.5106256,1.0377041385405616,-2.30201976594588,0.3858165154708456,1.6734100783219243,nan
1740790114.5145316,1.1993351620298096,-2.4607558360416837,0.584859833974091,1.859916716539931,nan
1740790114.5184376,1.3505714516391598,-2.604686716049939,0.778350481370378,2.035777936406143,nan
1740790114.5223436,1.490830093476467,-2.733135114459485,0.9654831362793888,2.2002799228447505,nan
1740790114.5262494,1.6196107739737264,-2.845530727396546,1.1455021472070794,2.3527875702047694,nan
1740790114.5301554,1.7364982758551997,-2.941413741184381,1.3177058358266998,2.4927478125878704,nan
1740790114.5340614,1.8411642970834667,-3.020437478721176,1.4814503616114567,2.619692328458511,nan
1740790114.5379674,1.9333685835780536,-3.082370171394963,1.6361531224668355,2.7332396040978457,nan
1740790114.5418732,2.012959372198628,-3.1270958455231965,1.78129566992194,2.8330963456421703,nan
1740790114.54578,2.0798731461827553,-3.1546143196512415,1.9164261215007221,2.9190582346790737,nan
1740790114.549686,2.134133710878057,-3.1650403164046446,2.041161057070296,2.991010027616176,nan
1740790114.553592,2.175850603162116,-3.1586016999006814,2.155186890218681,3.048925004244545,nan
1740790114.557498,2.205216853353468,-3.135636856922216,2.258260710011858,3.092863776048183,nan
1740790114.5614038,2.2225061236377326,-3.0965912470790817,2.3502105927831556,3.12297246982012,nan
1740790114.5653098,2.2280692520204135,-3.042013153968479,2.4309353878802793,3.1394803069931285,nan
1740790114.5692158,2.222330235530422,-2.9725486758380097,2.500403985500654,3.142696603739557,nan
1740790114.5731218,2.2057816907968357,-2.888936000397305,2.558654078848908,3.1330072213022726,nan
1740790114.5770276,2.1789798341694184,-2.7919990141643667,2.605790436817125,3.110870500151907,nan
1740790114.5809336,2.142539027218035,-2.6826403020219542,2.6419827071860853,3.0768127153913527,nan
1740790114.5848396,2.0971259366977204,-2.5618335974530693,2.6674627739430976,3.0314230943168075,nan
1740790114.5887456,2.043453360878952,-2.4306157481826403,2.6825216956798283,2.97534844016829,nan
1740790114.5926535,1.9822737764947647,-2.290078265639548,2.687506255144935,2.9092874088377916,nan
1740790114.5965595,1.914372662430045,-2.1413585297391227,2.6828151528565307,2.833984487629488,nan
1740790114.6004655,1.8405616576600652,-1.9856307229463306,2.66889488020668,2.75022372706726,nan
1740790114.6043715,1.7616716118261737,-1.8240965693950264,2.646235309694943,2.6588222782068085,nan
1740790114.6082773,1.678545587211595,-1.6579759559953757,2.615365041794185,2.560623788923998,nan
1740790114.6121833,1.5920318707496277,-1.4884975129526103,2.576846549466309,2.4564917132123503,nan
1740790114.6160893,1.502977054064152,-1.3168892309438165,2.5312711624981135,2.347302587629497,nan
1740790114.6199954,1.412219238417008,-1.1443691913601093,2.4792539346113283,2.2339393286875193,nan
1740790114.6239011,1.3205814198313974,-0.9721364845294334,2.421428436712593,2.11728460419183,nan
1740790114.6278071,1.228865107592014,-0.8013623887063732,2.358441519688305,1.9982143303079873,nan
1740790114.6317132,1.1378442268121793,-0.6331818798713952,2.29094808981903,1.877591344489287,nan
1740790114.6356192,1.0482593528307198,-0.4686855390498782,2.2196059391946728,1.7562593023478483,nan
1740790114.6395268,0.960812321884968,-0.3089119199732426,2.1450706724642634,1.6350368441189187,nan
1740790114.6434329,0.8761612588327862,-0.15484043549740417,2.0679907698654065,1.5147120735762352,nan
1740790114.6473389,0.7949160587005044,-0.007384816309127176,1.989002824763517,1.3960373891325777,nan
1740790114.6512449,0.717634354552311,0.13261280986585627,1.9087269919079224,1.27972470343359,nan
1740790114.6551507,0.6448179996496215,0.26438717603871514,1.8277626803014335,1.1664410840566504,nan
1740790114.6590567,0.5769100871376706,0.38725443423319866,1.7466845220050653,1.0568048439940971,nan
1740790114.6629627,0.5142925256040831,0.5006159840824135,1.6660386453853562,0.9513821064674612,nan
1740790114.6668687,0.4572841838447892,0.6039615480914946,1.5863392782851846,0.8506838643237692,nan
1740790114.6707745,0.4061396130912074,0.696871476593497,1.508065703388961,0.7551635498451141,nan
1740790114.6746805,0.36104834984458584,0.7790182722072466,1.4316595846894635,0.6652151262977136,nan
1740790114.6785865,0.3221347973739654,0.8501673304254043,1.3575226804777418,0.581171707996346,nan
1740790114.6824925,0.2894586789082823,0.9101768997578126,1.2860149547012782,0.5033047111041812,nan
1740790114.6864,0.2630160506346309,0.9589972715690338,1.2174530949016062,0.43182353286603453,nan
1740790114.690306,0.2427408578463726,0.9966692163205585,1.1521094412834556,0.3668757525239495,nan
1740790114.694212,0.22850701300771847,1.0233216892998651,1.0902113278159815,0.30854784282559683,nan
1740790114.698118,0.22013097015475505,1.039168835034704,1.031940832654936,0.2568663768449206,nan
1740790114.7020237,0.2173747659734004,1.0445063253987872,0.977434931634491,0.2117997108257672,nan
1740790114.7059298,0.2199494941166804,1.0397070718645272,0.9267860451394075,0.1732601199660599,nan
1740790114.7098358,0.22751917587814247,1.025216357403211,0.8800429653619766,0.14110636051323314,nan
1740790114.7137418,0.23970498725328948,1.0015464381305865,0.8372121478015403,0.11514662826975544,nan
1740790114.7176476,0.2560897997211567,0.9692706689080831,0.7982593479038995,0.0951418806362712,nan
1740790114.7215536,0.2762229897845356,0.9290172107031177,0.7631115809877826,0.08080948667224395,nan
1740790114.7254596,0.299625470437092,0.8814623805577254,0.7316593810881633,0.07182716734970161,nan
1740790114.7293656,0.3257948962918383,0.8273237074892483,0.7037593320814608,0.06783718623143814,nan
1740790114.7332728,0.35421099311747095,0.7673527595321318,0.6792368424629943,0.06845074923409523,nan
1740790114.7371788,0.38434096199192735,0.7023278084130495,0.6578891334373775,0.07325257094869485,nan
1740790114.7410848,0.41564490819728084,0.6330463990255872,0.6394884085698939,0.08180556419281883,nan
1740790114.7449908,0.44758124534363364,0.5603178909339185,0.6237851721406075,0.0936556090624935,nan
1740790114.7488966,0.4796120260149309,0.4849560385913627,0.610511662549464,0.10833635773720415,nan
1740790114.7528026,0.5112081514654405,0.40777167581895213,0.5993853666433782,0.1253740316641738,nan
1740790114.7567086,0.5418544145473171,0.32956556836608786,0.5901125806759286,0.14429216850040333,nan
1740790114.7606146,0.571054332098435,0.2511214960902789,0.5823919837643955,0.16461627731204556,nan
1740790114.7645204,0.5983347254437825,0.1731996234709498,0.575918190172418,0.18587836200635893,nan
1740790114.7684264,0.623250010437668,0.09653021384350005,0.5703852475114279,0.20762127478447762,nan
1740790114.7723324,0.6453861615697487,0.02180773893851068,0.5654900490097292,0.22940286353355763,nan
1740790114.7762384,0.6643643180444163,-0.05031456892405925,0.5609356293313784,0.25079987950174765,nan
1740790114.7801456,0.6798440033869971,-0.11922967926244588,0.5564343150222791,0.27141161429375216,nan
1740790114.7840517,0.691525933996123,-0.18438120273155476,0.5517107025002995,0.2908632381611865,nan
1740790114.7879577,0.6991543961123066,-0.24526727481113667,0.5465044385698172,0.30880881471120686,nan
1740790114.7918634,0.7025191748695325,-0.30144385691835873,0.540572780707127,0.324933970488171,nan
1740790114.7957695,0.70145702340002,-0.3525274336887111,0.5336929168081537,0.3389582013641309,nan
1740790114.7996755,0.6958526643318048,-0.39819709101728323,0.5256640266891337,0.35063680127154584,nan
1740790114.8035815,0.685639320413918,-0.4381959653842749,0.5163090703582778,0.3597624024917371,nan
1740790114.8074872,0.6707987753841312,-0.47233206094818914,0.505476290905064,0.3661661204409614,nan
1740790114.8113933,0.6513609705194647,-0.5004784368221223,0.4930404227561457,0.36971829963804104,nan
1740790114.8152993,0.6274031465406525,-0.5225727727977678,0.47890359899489565,0.37032886125910264,nan
1740790114.8192053,0.5990485446405188,-0.5386163274944139,0.46299595440734864,0.36794725635234526,nan
1740790114.823111,0.5664646843361173,-0.548672308434153,0.44527592387268544,0.36256203236614803,nan
1740790114.8270183,0.5298612395709199,-0.5528636788295554,0.4257302386339867,0.35420002410541285,nan
1740790114.830924,0.48948753798370104,-0.5513704308687805,0.40437362583777603,0.3429251835436196,nan
1740790114.83483,0.44562971148499975,-0.5444263599508914,0.3812482194929121,0.3288370660529071,nan
1740790114.838736,0.39860752921270315,-0.5323153786199516,0.3564226936458102,0.3120689935450247,nan
1740790114.842642,0.3487709465510141,-0.5153674128329405,0.3299911310762059,0.29278591771757523,nan
1740790114.8465478,0.2964964061703441,-0.49395392664038645,0.30207164316383733,0.271182009050481,nan
1740790114.8504539,0.24218292896175928,-0.4684831243310419,0.2728047587412273,0.24747799937738604,nan
1740790114.8543599,0.18624803428367773,-0.43939488156867024,0.2423516017130174,0.22191830774884563,nan
1740790114.8582659,0.1291235300998333,-0.4071554590107265,0.21089187897175846,0.19476798089456093,nan
1740790114.8621716,0.07125121435858513,-0.37225205333098127,0.17862170165981608,0.16630948086938463,nan
1740790114.8660777,0.013078529340939482,-0.3351872414617037,0.14575126410538508,0.13683935342429768,nan
1740790114.8699837,-0.04494578931186726,-0.29647337422173625,0.11250240578833767,0.1066648112738352,nan
1740790114.8738906,-0.10237602758691997,-0.2566269753057357,0.07910608246200612,0.0761002667336327,nan
1740790114.8777966,-0.1587737315892726,-0.21616320088318722,0.04579977306576668,0.045463848176871005,nan
1740790114.8817024,-0.21371183017877501,-0.1755904138047758,0.012824849308794614,0.01507393441048503,nan
1740790114.8856084,-0.26677860391895647,-0.13540492465443704,-0.019576065211596955,-0.014754259591756918,nan
1740790114.8895144,-0.3175814643617702,-0.09608594963879946,-0.05116171976969242,-0.04371201313201732,nan
1740790114.8934205,-0.3657505098706569,-0.0580908325971582,-0.08169481909123315,-0.07150031520279233,nan
1740790114.8973262,-0.41094182665934986,-0.02185057527420656,-0.11094453847006332,-0.09783293520987409,nan
1740790114.9012322,-0.4528405064692793,0.012234283541947402,-0.13868894714764315,-0.12243932114222708,nan
1740790114.9051383,-0.49116335529600935,0.04379740331525723,-0.164717316913164,-0.14506729936883841,nan
1740790114.9090443,-0.5256612707746767,0.07250995901205944,-0.18883229432142384,-0.165485552502669,nan
1740790114.91295,-0.5561212692137518,0.09808351232815611,-0.2108519165563506,-0.18348585422631872,nan
1740790114.916856,-0.5823681467922329,0.12027241364763641,-0.2306114527721226,-0.19888504259756773,nan
1740790114.9207628,-0.6042657630729622,0.1388757164063328,-0.24796505470163324,-0.21152671611882384,nan
1740790114.9246688,-0.6217179386988634,0.15373859058663594,-0.26278720241285947,-0.22128263973490805,nan
1740790114.9285748,-0.6346689628936801,0.16475322721008856,-0.27497393329557657,-0.2280538508899077,nan
1740790114.9324808,-0.643103710148425,0.17185923086918528,-0.28444384465119676,-0.23177145879705308,nan
1740790114.9363866,-0.6470473692035718,0.1750435024995622,-0.2911388626138769,-0.23239713312624136,nan
1740790114.9402926,-0.6465647911000163,0.1743396196881679,-0.2950247725278514,-0.22992328136280973,nan
1740790114.9441986,-0.6417594666348359,0.16982672679285382,-0.29609150832025244,-0.2243729171094175,nan
1740790114.9481046,-0.6327721469879732,0.16162795196632493,-0.2943532008167685,-0.2157992245620802,nan
1740790114.9520104,-0.6197791245518038,0.14990837278664457,-0.2898479873258979,-0.2042848272640588,nan
1740790114.9559164,-0.6029901940674385,0.1348725565537949,-0.2826375871433216,-0.1899407720009532,nan
1740790114.9598224,-0.582646317022225,0.11676170537624364,-0.27280664987895453,-0.17290524132205784,nan
1740790114.9637284,-0.5590170148668869,0.0958504399051888,-0.2604618856642624,-0.1533420106332345,nan
1740790114.9676378,-0.5323975189455815,0.07244325894259919,-0.24573098833647375,-0.13143866808360616,nan
1740790114.9715438,-0.5031057070778951,0.046870715121777526,-0.22876136460062302,-0.10740461754256299,nan
1740790114.9754496,-0.4714788584715372,0.01948534940910203,-0.20971868392284002,-0.08146888681727031,nan
1740790114.9793556,-0.43787026006418767,-0.009342570719478112,-0.1887852654933275,-0.0538777648788739,nan
1740790114.9832616,-0.40264569848200477,-0.03922946293175676,-0.16615832000148784,-0.024892293234927223,nan
1740790114.9871676,-0.3661798725530273,-0.06978294386146842,-0.14204806517673976,0.005214362304048255,nan
1740790114.9910734,-0.32885276172199585,-0.10060639675804277,-0.11667573505710137,0.036159632372378424,nan
1740790114.9949794,-0.2910459857780036,-0.13130354443110306,-0.09027150374584152,0.0676543296482222,nan
1740790114.9988854,-0.2531391910302335,-0.16148297925342636,-0.0630723449989756,0.09940547134324645,nan
1740790115.0027914,-0.2155064974554764,-0.19076260276494925,-0.03531984934977016,0.13111911059939735,nan
1740790115.0066972,-0.17851304040293586,-0.2187739286712451,-0.007258020619645735,0.1625031490574789,nan
1740790115.0106032,-0.1425116391888563,-0.24516620473771122,0.020868926411047137,0.19327010337654885,nan
1740790115.014511,-0.10783962336052635,-0.26961031122627177,0.048818745690635906,0.2231397992555346,nan
1740790115.0184171,-0.07481584557374371,-0.29180239608100833,0.07635329596261459,0.2518419675286227,nan
1740790115.0223231,-0.04373790793001325,-0.3114672100154861,0.1032406129368581,0.2791187181613481,nan
1740790115.026229,-0.014879626282033166,-0.3283611079563062,0.1292568981904779,0.30472686945010297,nan
1740790115.030135,0.011511245536950565,-0.3422746869201874,0.15418840650493826,0.32844011140730617,nan
1740790115.034041,0.03521501234615098,-0.35303503430816585,0.1778332145973479,0.35005098417920305,nan
1740790115.037947,0.05604173880127902,-0.3605075647500648,0.20000285561046263,0.3693726543730838,nan
1740790115.0418527,0.07383264185202587,-0.3645974279830068,0.2205238052718167,0.3862404743440309,nan
1740790115.0457587,0.08846116432992733,-0.36525047475518735,0.2392388073006276,0.4005133117855537,nan
1740790115.0496647,0.09983372272763551,-0.36245377236489995,0.25600802741335843,0.41207463935984645,nan
1740790115.0535707,0.10789012547267111,-0.35623566612848995,0.27071002713619813,0.42083337656769876,nan
1740790115.0574765,0.11260366124695838,-0.3466653877726191,0.2832425505554012,0.42672447857036094,nan
1740790115.0613842,0.1139808601262694,-0.3338522164190725,0.29352311910440676,0.42970926921101643,nan
1740790115.0652902,0.11206093348005808,-0.31794420242784543,0.30148943147932333,0.4297755180167588,nan
1740790115.0691962,0.10691490165170155,-0.29912646884103167,0.30709956777145914,0.42693726346854594,nan
1740790115.073102,0.09864442140273463,-0.27761910948174057,0.31033199888660673,0.4212343872821481,nan
1740790115.077008,0.08738032792424234,-0.2536747068667232,0.311185404265888,0.4127319468241743,nan
1740790115.080914,0.07328090886808089,-0.22757549694817214,0.3096783028127251,0.401519275071306,nan
1740790115.08482,0.056529930305383204,-0.19963021127187722,0.30584850374621436,0.3877088596865317,nan
1740790115.0887258,0.03733443675774188,-0.17017063039064395,0.29975238582516417,0.3714350148134482,nan
1740790115.0926318,0.015922349447295772,-0.1395478852724165,0.2914640150026941,0.3528523610601524,nan
1740790115.0965378,-0.00746011134180033,-0.10812854596380113,0.2810741120631328,0.33213413084113824,nan
1740790115.1004438,-0.032551152421428815,-0.07629053888782462,0.2686888831471641,0.30947031775413153,nan
1740790115.1043496,-0.05907625381329368,-0.044418935849585145,0.25442872727517235,0.28506568997601206,nan
1740790115.1082573,-0.08675110535121992,-0.012901659079363621,0.23842683602191128,0.2591376887572111,nan
1740790115.1121633,-0.1152846036991395,0.017874852551742985,0.22082770136880533,0.23191423396858554,nan
1740790115.116069,-0.14438187940768685,0.04752997066041639,0.2017855484562498,0.20363145930255017,nan
1740790115.119975,-0.17374732363001083,0.07569315245218214,0.18146271047188545,0.17453140014708382,nan
1740790115.123881,-0.203087584414608,0.10200811899227462,0.16002796323855492,0.14485965733549144,nan
1740790115.127787,-0.2321145030844356,0.1261368928635467,0.13765483720608834,0.11486305992712878,nan
1740790115.131693,-0.260547962089129,0.14776365288847793,0.11451992450468354,0.08478734989753377,nan
1740790115.135599,-0.2881186168698941,0.16659836547652662,0.09080119848687229,0.054874911115771384,nan
1740790115.139505,-0.31457048569107215,0.18238015444710728,0.06667636277421289,0.025362564269547912,nan
1740790115.143411,-0.33966337305257277,0.19488037384896523,0.04232124624004255,-0.0035205515257484255,nan
1740790115.1473167,-0.3631751041848903,0.20390535132130738,0.017908259608766602,-0.031554990818189896,nan
1740790115.1512227,-0.38490355022307843,0.2092987728901903,-0.0063950715551714665,-0.05853288929758929,nan
1740790115.155126,-0.40466842593535135,0.21094368373160713,-0.030427483748297006,-0.08425970981853415,nan
1740790115.159032,-0.4223128443221941,0.20876408332378496,-0.054035249784316765,-0.10855583174765107,nan
1740790115.162938,-0.4377046149773795,0.20272609751654042,-0.07707333917544607,-0.13125797017008484,nan
1740790115.1668441,-0.4507372757868418,0.19283871432404062,-0.0994064548175638,-0.15222041336024608,nan
1740790115.17075,-0.46133085030733606,0.17915407465634092,-0.12090993765478429,-0.17131606888665016,nan
1740790115.174656,-0.46943232598626067,0.16176731370072425,-0.14147053256744346,-0.18843731075947326,nan
1740790115.178562,-0.475015851228621,0.1408159532015268,-0.16098701034993002,-0.20349662212112676,nan
1740790115.182468,-0.4780826521583352,0.1164788494217421,-0.17937064230352334,-0.21642703010301795,nan
1740790115.1863737,-0.4786606727308291,0.08897470605641766,-0.19654552564634795,-0.2271823316042338,nan
1740790115.1902797,-0.4768039446043748,0.05856016576221016,-0.21244875961961007,-0.23573711086846189,nan
1740790115.1941857,-0.4725916958420079,0.025527498226196915,-0.2270304738284652,-0.24208655182286498,nan
1740790115.1980917,-0.46612721006818364,-0.009798093222016236,-0.24025371197945905,-0.24624605017613657,nan
1740790115.201995,-0.45753645012002314,-0.04706152058779027,-0.2520941757472939,-0.2482506322325863,nan
1740790115.205901,-0.4469664624889461,-0.0858811863043544,-0.2625398350052716,-0.24815418924577287,nan
1740790115.209807,-0.4345835809232683,-0.12585265165122525,-0.27159041207025164,-0.24602853789095702,nan
1740790115.213713,-0.4205714494366667,-0.16655256271652985,-0.27925674892995134,-0.24196231906387514,nan
1740790115.2176187,-0.40512888662380103,-0.20754279548322355,-0.2855600676240623,-0.23605974869865803,nan
1740790115.2215247,-0.38846761460792884,-0.24837477935993676,-0.2905311350289116,-0.22843923562663643,nan
1740790115.2254307,-0.370809877123374,-0.2885939566192095,-0.294209344237337,-0.2192318826582355,nan
1740790115.2293367,-0.3523859721581242,-0.3277443337673216,-0.296641725521709,-0.2085798880520023,nan
1740790115.2332425,-0.3334317252410798,-0.3653730798647979,-0.2978819005108843,-0.19663486532985064,nan
1740790115.2371485,-0.31418592984990806,-0.4010351262547422,-0.29798899369534304,-0.18355609999952616,nan
1740790115.2410545,-0.2948877815366826,-0.4342977220428424,-0.29702651569438737,-0.16950876214979405,nan
1740790115.2449605,-0.2757743322203244,-0.46474490000924107,-0.2950612328725957,-0.15466209408877107,nan
1740790115.2488673,-0.2570779906804552,-0.49198180841502415,-0.2921620378790081,-0.1391875922009539,nan
1740790115.2527733,-0.23902409461250826,-0.515638865387184,-0.28839883550270223,-0.12325720200566515,nan
1740790115.2566793,-0.2218285786774029,-0.5353756942135275,-0.28384145789542153,-0.10704154501280694,nan
1740790115.2605853,-0.20569576181155227,-0.5508847999368581,-0.27855862271027615,-0.09070819539668375,nan
1740790115.264491,-0.19081627566786513,-0.561894950085841,-0.27261694705144807,-0.07442002375299184,nan
1740790115.268397,-0.1773651544511126,-0.5681742251941164,-0.2660800293312922,-0.05833362427734277,nan
1740790115.272303,-0.16550010460908585,-0.5695327079120814,-0.25900761019751206,-0.042597840616984135,nan
1740790115.276209,-0.15535997086379424,-0.5658247829763875,-0.2514548226350906,-0.02735240441348536,nan
1740790115.280115,-0.14706341293545622,-0.5569510240368882,-0.24347154017758188,-0.012726699187088594,nan
1740790115.284021,-0.1407078050487554,-0.5428596473129804,-0.23510183089342052,0.001161339271372634,nan
1740790115.287927,-0.13636836793935914,-0.5235475162224021,-0.22638352345954396,0.014206176421210782,nan
1740790115.291833,-0.13409754062358256,-0.4990606854547917,-0.2173478902120561,0.02631547849559132,nan
1740790115.2957397,-0.13392459668075307,-0.46949447740760325,-0.20801945058789081,0.03741075185440414,nan
1740790115.2996454,-0.1358555072518808,-0.4349930884200146,-0.19841589685892122,0.047427817775628635,nan
1740790115.3035514,-0.13987305040569023,-0.3957487267873259,-0.18854814252763605,0.05631712010585295,nan
1740790115.3074574,-0.14593716398983625,-0.3520002890697244,-0.178420492218559,0.06404386501096562,nan
1740790115.3113635,-0.15398553659660202,-0.30403158568134575,-0.16803093037886271,0.07058799387845656,nan
1740790115.3152692,-0.16393442885366427,-0.25216913111465256,-0.15737152461242554,0.07594399220422009,nan
1740790115.3191752,-0.1756797149256629,-0.19677951837901161,-0.14642893803021592,0.08012053903095166,nan
1740790115.3230813,-0.18909813190437177,-0.13826640127000717,-0.13518504362256548,0.08314000317435637,nan
1740790115.3269873,-0.20404872269608285,-0.07706711189825335,-0.12361763236103766,0.08503779406032838,nan
1740790115.330893,-0.22037445610454154,-0.013648944456426159,-0.11170120553367643,0.08586157648519437,nan
1740790115.334799,-0.23790400607502976,0.05149486054342847,-0.09940784072099412,0.08567035998689736,nan
1740790115.338705,-0.25645367052670553,0.1178493944051124,-0.08670811984361074,0.08453347476417224,nan
1740790115.342613,-0.27582940887055535,0.18488258102999164,-0.07357210686691865,0.08252944719107717,nan
1740790115.346519,-0.295828976201953,0.2520498584315607,-0.05997036204344798,0.07974478893490557,nan
1740790115.350425,-0.3162441312799027,0.3187989972838406,-0.04587497901778332,0.07627271448756663,nan
1740790115.3543308,-0.3368628947673376,0.3845750114386466,-0.03126063071867082,0.07221180255657966,nan
1740790115.3582368,-0.3574718338137814,0.4488251144133649,-0.01610560972328552,0.06766461722626001,nan
1740790115.3621428,-0.3778583489160069,0.5110036753589202,-0.0003928487027430604,0.06273630508881613,nan
1740790115.3660488,-0.39781293909439613,0.570577127971741,0.015889093352634272,0.05753318465696002,nan
1740790115.3699546,-0.4171314217703033,0.6270287862140075,0.03274509317535267,0.052161344304287156,nan
1740790115.3738606,-0.4356170843182536,0.679863521549427,0.050172587159681835,0.0467252647388691,nan
1740790115.3777666,-0.4530827450891189,0.7286122576787047,0.06816077025048084,0.041326481602965745,nan
1740790115.3816726,-0.46935270274707636,0.7728362404575926,0.08668988210457612,0.03606230321285117,nan
1740790115.3855784,-0.48426455402261676,0.8121310427841272,0.1057305919705072,0.031024597714713602,nan
1740790115.3894863,-0.49767086144222183,0.8461302667300872,0.1252434927178917,0.026298663044125613,nan
1740790115.3933923,-0.5094406542370132,0.8745089080407232,0.145178713305543,0.021962192048092903,nan
1740790115.397298,-0.5194607474399693,0.8969863513086687,0.1654756577196075,0.018084343971919135,nan
1740790115.401204,-0.527636866135305,0.9133289676121138,0.1860628770521672,0.014724932241054901,nan
1740790115.4051101,-0.5338945639035821,0.9233522901598208,0.20685807994120523,0.011933737095010916,nan
1740790115.4090161,-0.5381799266903803,0.9269227474704209,0.22776828506959396,0.009749950171460683,nan
1740790115.412922,-0.5404600555922617,0.9239589377920391,0.24869011783977732,0.008201756609860798,nan
1740790115.416828,-0.5407233243776545,0.9144324328004194,0.26951025171880566,0.0073060586620504195,nan
1740790115.420734,-0.5389794099183937,0.8983681030576397,0.29010599310242624,0.007068343179439428,nan
1740790115.42464,-0.5352590960755834,0.8758439622264625,0.3103460068945577,0.007482693710204403,nan
1740790115.4285457,-0.5296138539370165,0.8469905315739205,0.33009117835742846,0.008531946302866326,nan
1740790115.4324517,-0.5221152036185482,0.8119897308183934,0.3491956051754553,0.010187986492450764,nan
1740790115.4363594,-0.5128538650950273,0.77107330583369,0.36750771211010963,0.012412183359328153,nan
1740790115.4402654,-0.5019387076947671,0.7245208080789194,0.3848714791206312,0.015155955015829843,nan
1740790115.4441712,-0.4894955099531902,0.6726571448323714,0.4011277724029117,0.01836145840807003,nan
1740790115.4480772,-0.4756655434554609,0.6158497233311604,0.41611576647204296,0.021962394935692544,nan
1740790115.4519832,-0.4606039960852053,0.5545052157174644,0.42967444419767803,0.025884922105099458,nan
1740790115.4558892,-0.44447825171894234,0.48906597523073403,0.4416441606093631,0.030048660255679253,nan
1740790115.459795,-0.42746604484759954,0.4200061373295878,0.45186825533386404,0.03436778234598501,nan
1740790115.463701,-0.4097535098530774,0.34782744234643825,0.46019469771961435,0.03875217386871731,nan
1740790115.467607,-0.3915331457072157,0.2730548188447201,0.4664777480543728,0.04310864918928737,nan
1740790115.471513,-0.373001717682508,0.19623176903867454,0.47057961779942886,0.047342209980731555,nan
1740790115.4754188,-0.35435811826082925,0.11791559942852128,0.4723721114535822,0.0513573309641292,nan
1740790115.4793248,-0.3358012097926229,0.03867254118289262,0.47173823252764935,0.05505925786319287,nan
1740790115.4832323,-0.3175276715914846,-0.04092719424701247,0.4685737361583612,0.05835530234729307,nan
1740790115.4871383,-0.299729874046949,-0.12031437827952055,0.46278861112040354,0.06115611877003262,nan
1740790115.4910443,-0.2825938020033229,-0.19892570104043544,0.4543084744064563,0.06337694771002603,nan
1740790115.49495,-0.26629704908854973,-0.27620863416743324,0.44307586213476574,0.06493881168443483,nan
1740790115.498856,-0.251006903890668,-0.3516261756576311,0.42905140130783065,0.06576964892997067,nan
1740790115.502762,-0.23687854787910168,-0.4246614330578804,0.4122148478779069,0.06580537182474584,nan
1740790115.506668,-0.22405338376443137,-0.494822002934556,0.39256597766745327,0.06499083735009381,nan
1740790115.5105739,-0.21265751159636492,-0.5616441065945569,0.3701253179356635,0.06328071795544936,nan
1740790115.5144799,-0.20280036832996357,-0.6246964444418298,0.3449347087647432,0.06064026228100949,nan
1740790115.518386,-0.19457354486132034,-0.6835837341200018,0.31705768494888353,0.05704593640065035,nan
1740790115.522292,-0.18804979266388153,-0.7379499006843989,0.2865796706909365,0.05248593755828806,nan
1740790115.5261977,-0.1832822301648856,-0.7874808904355883,0.2536079811313251,0.04696057377068836,nan
1740790115.530105,-0.1803037569087009,-0.8319070836983096,0.2182716265343742,0.04048250414349009,nan
1740790115.5340111,-0.1791266813817656,-0.8710052857087339,0.18072091682169314,0.03307683627933304,nan
1740790115.537917,-0.17974256614484754,-0.9046002788415805,0.1411268660525097,0.02478107873095169,nan
1740790115.541823,-0.182122291655441,-0.9325659236271364,0.09968039838817581,0.01564494805118331,nan
1740790115.545729,-0.1862163378894764,-0.9548258003358977,0.05659135902357827,0.005730031598970529,nan
1740790115.549635,-0.19195528061066,-0.9713533873032603,0.012087335502431346,-0.004890691141624708,nan
1740790115.5535407,-0.19925049691070904,-0.9821717765861817,-0.03358770326266768,-0.016133464400613022,nan
1740790115.5574467,-0.20799507247734675,-0.9873529319452081,-0.08017494109020838,-0.027904503261978374,nan
1740790115.5613527,-0.21806490096138284,-0.9870164984864055,-0.1274024107885335,-0.04010086477744856,nan
1740790115.5652587,-0.22931996383067688,-0.9813281775368267,-0.17498683991252,-0.05261143433308632,nan
1740790115.5691645,-0.24160577723767174,-0.9704976844234716,-0.22263563176172266,-0.06531801724352021,nan
1740790115.5730705,-0.2547549907072138,-0.9547763107401729,-0.2700489658882479,-0.07809652434862961,nan
1740790115.5769792,-0.2685891208903059,-0.9344541163819138,-0.3169220010435161,-0.09081823930457152,nan
1740790115.5808852,-0.2829204022427577,-0.9098567800668234,-0.3629471623038889,-0.10335115430685198,nan
1740790115.5847912,-0.29755373528987267,-0.8813421402196008,-0.4078164930892687,-0.11556136016822884,nan
1740790115.588697,-0.31228871214092474,-0.8492964609268939,-0.45122405193698134,-0.1273144760073086,nan
1740790115.592603,-0.3269216981308336,-0.8141304601681841,-0.49286833322580803,-0.1384771032924468,nan
1740790115.596509,-0.3412479478984376,-0.7762751396521549,-0.5324546905692867,-0.14891828863541134,nan
1740790115.600415,-0.355063733867288,-0.7361774573281782,-0.5696977413200998,-0.1585109795446959,nan
1740790115.6043208,-0.3681684649787263,-0.6942958849801023,-0.6043237305521205,-0.1671334573313184,nan
1740790115.6082268,-0.3803667736397218,-0.6510958942324482,-0.6360728330163137,-0.1746707315114644,nan
1740790115.6121328,-0.3914705491876886,-0.607045414800048,-0.6647013719010653,-0.18101588036883642,nan
1740790115.6160388,-0.401300896738088,-0.5626103088868638,-0.6899839337651982,-0.18607132282255381,nan
1740790115.6199446,-0.40969000106177883,-0.5182499052888958,-0.7117153597491254,-0.18975000738895556,nan
1740790115.6238515,-0.41648287612987317,-0.47441263598401273,-0.7297125941006688,-0.19197650482161432,nan
1740790115.6277575,-0.42153898215393176,-0.4315318168068854,-0.7438163721694676,-0.1926879919552223,nan
1740790115.6316636,-0.4247336933263659,-0.39002161222258547,-0.7538927313182274,-0.1918351153563542,nan
1740790115.6355693,-0.42595960101574243,-0.35027322224416313,-0.7598343296590987,-0.18938272458655875,nan
1740790115.6394753,-0.4251276388783278,-0.3126513272079092,-0.7615615591364182,-0.18531046619852432,nan
1740790115.6433814,-0.4221680181930472,-0.2774908234485952,-0.7590234412284851,-0.1796132310007992,nan
1740790115.6472874,-0.41703096369318315,-0.245093879932706,-0.752198295415171,-0.17230144862624,nan
1740790115.6511931,-0.4096872422343094,-0.2157273426404352,-0.7410941725379073,-0.16340122500853776,nan
1740790115.6550992,-0.40012847878300056,-0.18962050996960914,-0.7257490472457994,-0.15295431999375736,nan
1740790115.6590052,-0.38836725641268516,-0.1669632987016529,-0.7062307658570796,-0.141017963972921,nan
1740790115.6629112,-0.3744369992291085,-0.1479048161583454,-0.6826367481491078,-0.12766451410018523,nan
1740790115.666817,-0.35839163939523394,-0.13255235012690655,-0.6550934438020701,-0.11298095234161404,nan
1740790115.6707237,-0.3403050716609762,-0.12097078398010967,-0.6237555464406922,-0.0970682292643711,nan
1740790115.6746297,-0.3202704010040808,-0.11318244020821343,-0.5888049704237341,-0.08004045910810993,nan
1740790115.6785357,-0.29839899113201845,-0.10916735135215766,-0.5504495977016958,-0.06202397326207506,nan
1740790115.6824417,-0.2748193236590722,-0.10886395312385697,-0.50892180417851,-0.04315624078660194,nan
1740790115.6863475,-0.2496756797366071,-0.11217019036092366,-0.46447677705260976,-0.023584666050021227,nan
1740790115.6902535,-0.22312665775764903,-0.11894502242986973,-0.4173906365571171,-0.003465274886550755,nan
1740790115.6941595,-0.19534354246044863,-0.12901031080341696,-0.36795837734911585,0.01703869809691344,nan
1740790115.6980655,-0.16650854230210543,-0.14215306783141687,-0.31649164649633865,0.03775830733994031,nan
1740790115.7019713,-0.13681291334668422,-0.15812804223729326,-0.2633163765594276,0.05852046458838861,nan
1740790115.7058773,-0.10645498909837531,-0.1766606136363995,-0.20877029365404629,0.0791495620969827,nan
1740790115.7097833,-0.0756381366968672,-0.19744996542053755,-0.15320032158571045,0.09946913462064734,nan
1740790115.7136893,-0.044568660669023145,-0.22017250271240607,-0.09695990416921876,0.11930354354832706,nan
1740790115.7175972,-0.013453675990014149,-0.2444854797902067,-0.040406268663596694,0.13847966621045374,nan
1740790115.7215033,0.017501027457533073,-0.2700307994379334,0.016102346135865052,0.15682857324218213,nan
1740790115.7254093,0.04809310682976055,-0.29643894510933594,0.072209473211261,0.17418717691143548,nan
1740790115.7293153,0.07812575259703793,-0.32333300561769873,0.12756318792787205,0.19039983352381679,nan
1740790115.733221,0.10740971742059678,-0.3503327512903074,0.18181884186422353,0.20531988339453422,nan
1740790115.737127,0.13576526647442408,-0.3770587201622408,0.23464173606619473,0.2188111124270085,nan
