timestamps,TP9,AF7,AF8,TP10,Right AUX
1740790135.3573122,-0.19643678144990334,-0.14239606198472365,-0.33591978207562095,-0.15650120310664647,nan
1740790135.361218,-0.17157421552799426,-0.14632515403943014,-0.2953812778214647,-0.13645908953790284,nan
1740790135.365124,-0.1451959397574596,-0.15059646112082348,-0.25412455610670115,-0.11489795779984718,nan
1740790135.36903,-0.11752258388073275,-0.15508629206478453,-0.21250988834264994,-0.09202467194582221,nan
1740790135.372936,-0.08878894053872471,-0.15966593572692944,-0.17090179207772527,-0.0680599845395712,nan
1740790135.3768418,-0.05924181084895341,-0.1642035041105643,-0.12966580016441115,-0.04323645426487058,nan
1740790135.3807478,-0.02913771501289499,-0.168565816808037,-0.08916520365291687,-0.017796235728221126,nan
1740790135.3846538,0.001259509940405226,-0.17262030452429444,-0.04975779851724533,0.008011237024180162,nan
1740790135.3885598,0.03168120192396997,-0.17623690922443427,-0.011792666447986398,0.03393165059517004,nan
1740790135.3924656,0.06185643071207385,-0.1792899584649237,0.0243929802115562,0.059708272316975904,nan
1740790135.3963716,0.09151459487294321,-0.18165999173059094,0.058476859753019014,0.08508444600957163,nan
1740790135.4002776,0.12038803305635247,-0.1832355171042244,0.09015455970878991,0.10980609864652488,nan
1740790135.4041848,0.14821462371042757,-0.18391467733724817,0.11914232487541383,0.1336242329487255,nan
1740790135.4080908,0.17474034729416257,-0.1836068053611317,0.1451796681290266,0.15629738096824555,nan
1740790135.4119968,0.19972178530437082,-0.1822338504696879,0.168031778941027,0.1775939940175172,nan
1740790135.4159029,0.22292853094652385,-0.17973165780016012,0.1874917062818324,0.1972947448412007,nan
1740790135.4198086,0.24414548704369343,-0.1760510853311379,0.2033822946098501,0.215194718714595,nan
1740790135.4237146,0.2631750277900799,-0.17115894438177373,0.21555785386414875,0.2311054711763844,nan
1740790135.4276206,0.27983900220569724,-0.16503875152054232,0.22390554679215977,0.24485693135512704,nan
1740790135.4315267,0.2939805586253994,-0.15769128185335804,0.22834647952636322,0.25629913131656995,nan
1740790135.4354324,0.3054657712440688,-0.14913491583807612,0.22883648405214102,0.26530374352830827,nan
1740790135.4393384,0.3141850516247802,-0.13940577404296733,0.22536658405783255,0.2717654103936576,nan
1740790135.4432445,0.3200543301394225,-0.12855763660626512,0.21796313860056446,0.2756028518294893,nan
1740790135.4471505,0.3230159945320311,-0.11666164653818199,0.20668766103033517,0.2767597390338121,nan
1740790135.4510577,0.3230395751519116,-0.1038057984102432,0.1916363136614429,0.2752053248862815,nan
1740790135.4549637,0.32012216887384476,-0.0900942163743537,0.1729390817360507,0.27093482382640166,nan
1740790135.4588697,0.31428859628157085,-0.07564622781983624,0.1507586332601012,0.2639695365356964,nan
1740790135.4627755,0.30559128931356655,-0.06059524128595039,0.12528887427820207,0.25435671728737014,nan
1740790135.4666815,0.2941099092305139,-0.045087439475057285,0.09675321206249422,0.24216918439424567,nan
1740790135.4705875,0.27995069743577883,-0.02928030033403392,0.06540254149308891,0.22750467675775066,nan
1740790135.4744935,0.2632455643368441,-0.013340961165612916,0.03151297257701739,0.2104849620713472,nan
1740790135.4783993,0.24415092405063804,0.002555557424398035,-0.004616680437070973,0.19125470473562958,nan
1740790135.4823053,0.22284628530280617,0.018228249263932888,-0.042667625564835956,0.16998010397387645,nan
1740790135.4862113,0.19953261132472971,0.03349212206970243,-0.08230401030935477,0.14684731497173031,nan
1740790135.4901173,0.17443046388763186,0.048160277374083876,-0.12317600280620489,0.12206066807891695,nan
1740790135.494023,0.14777794880706568,0.06204604861638528,-0.16492300845013938,0.09584070318216607,nan
1740790135.4979315,0.11982848228089284,0.074965174261855,-0.20717699218160773,0.06842203826527363,nan
1740790135.5018375,0.09084839926910865,0.08673798222427828,-0.24956587550760626,0.04005109289510818,nan
1740790135.5057435,0.06111442676543034,0.09719156152976713,-0.29171697651725187,0.010983688893266466,nan
1740790135.5096495,0.03091104623155968,0.10616189707510504,-0.3332604606367081,-0.018517448243771308,nan
1740790135.5135553,0.0005277706506593933,0.11349594350618368,-0.3738327696569639,-0.04818526254158481,nan
1740790135.5174613,-0.029743637405782952,0.11905361467018777,-0.4130799966646793,-0.07775098989901219,nan
1740790135.5213673,-0.059611979623833536,0.12270966577629931,-0.45066117491109475,-0.10694680355449962,nan
1740790135.5252733,-0.08878944021786471,0.12435544632809732,-0.4862514493644125,-0.13550845631109212,nan
1740790135.529179,-0.11699438099480051,0.12390050305832645,-0.5195451007012795,-0.16317789310900327,nan
1740790135.533085,-0.14395408570988855,0.1212740134925632,-0.55025839279487,-0.18970580774451612,nan
1740790135.5369911,-0.16940742661381106,0.11642603237926923,-0.5781322163390136,-0.21485411800681892,nan
1740790135.5408971,-0.1931074267621962,0.10932853503453843,-0.6029345030961105,-0.23839833423663445,nan
1740790135.5448039,-0.21482369259322812,0.09997624364268988,-0.6244623873543885,-0.2601297972954445,nan
1740790135.5487099,-0.2343446924690359,0.08838722470944917,-0.642544093508521,-0.27985776316308525,nan
1740790135.552616,-0.25147985831048536,0.07460324816123624,-0.6570405312152687,-0.2974113128426814,nan
1740790135.556522,-0.26606148911989336,0.05868990099934918,-0.6678465822992989,-0.31264106793182056,nan
1740790135.5604277,-0.27794643706595007,0.040736450927221904,-0.6748920664683341,-0.32542069410121716,nan
1740790135.5643337,-0.28701755888207237,0.02085545794722019,-0.6781423759144131,-0.33564817678894715,nan
1740790135.5682397,-0.2931849175835036,-0.000817865455630634,-0.6775987720009592,-0.3432468556495284,nan
1740790135.5721457,-0.29638672191799703,-0.024126542288720344,-0.6732983404341675,-0.3481662066709328,nan
1740790135.5760515,-0.2965899935065394,-0.04889296130575146,-0.6653136045616548,-0.35038236336589446,nan
1740790135.5799575,-0.293790954279599,-0.07492024107205278,-0.653751799700552,-0.34989837103199656,nan
1740790135.5838635,-0.28801512954489705,-0.1019938168516098,-0.6387538146402324,-0.3467441707325287,nan
1740790135.5877695,-0.2793171648080656,-0.1298832368953483,-0.620492809660535,-0.3409763123506451,nan
1740790135.5916762,-0.2677803572803051,-0.1583441523966006,-0.5991725235240314,-0.332677398786059,nan
1740790135.5955822,-0.25351590581969596,-0.18712048320769611,-0.5750252849105321,-0.32195526606934627,nan
1740790135.599488,-0.23666188583722594,-0.21594673940465683,-0.5483097466343502,-0.3089419068366995,nan
1740790135.603394,-0.21738195842741947,-0.24455047696661056,-0.5193083636920917,-0.29379214721100255,nan
1740790135.6073,-0.1958638256294349,-0.27265486422284807,-0.4883246387042086,-0.27668208964701735,nan
1740790135.611206,-0.1723174462613192,-0.2999813343313658,-0.4556801606126734,-0.257807336693885,nan
1740790135.6151118,-0.1469730291723542,-0.3262522979040786,-0.4217114645570161,-0.2373810128827092,nan
1740790135.6190178,-0.12007882300194964,-0.3511938889991792,-0.3867667426510746,-0.21563160403757375,nan
1740790135.6229239,-0.09189872359570087,-0.37453871707124264,-0.35120243690499164,-0.19280063521351426,nan
1740790135.6268299,-0.0627097220890821,-0.39602859711322824,-0.3153797467656132,-0.16914021016493108,nan
1740790135.6307359,-0.03279921830784507,-0.41541723014689264,-0.2796610846707364,-0.14491043672494008,nan
1740790135.6346416,-0.002462225534625651,-0.43247280642244146,-0.24440651361861365,-0.12037676371463811,nan
1740790135.6385498,0.028001506161023444,-0.4469805041744956,-0.20997020103677413,-0.09580725598780786,nan
1740790135.6424558,0.05829041994901651,-0.45874485754673955,-0.17669692318974625,-0.0714698349405594,nan
1740790135.6463616,0.08810410693288194,-0.46759196833657113,-0.14491865399272524,-0.04762951226828248,nan
1740790135.6502676,0.11714625649563988,-0.4733715375150842,-0.11495127140012579,-0.024545644928766767,nan
1740790135.6541736,0.14512757323941122,-0.47595869403576435,-0.08709141351963355,-0.002469239167314255,nan
1740790135.6580796,0.1717686317053433,-0.47525560024364855,-0.061613515272414536,0.018359668922786475,nan
1740790135.6619854,0.1968026405901799,-0.47119281521903156,-0.03876705479011917,0.03771452949032416,nan
1740790135.6658914,0.2199780889862389,-0.4637303996176471,-0.018774036823660346,0.05538466578326416,nan
1740790135.6697974,0.24106124825568914,-0.45285874798169223,-0.001826738254739187,0.07117750708313329,nan
1740790135.6737034,0.2598385044978756,-0.43859913707040094,0.011914261631419468,0.08492064447298696,nan
1740790135.6776092,0.2761184981676569,-0.421003981470574,0.02232174611231643,0.09646368788024592,nan
1740790135.6815152,0.28973404923818996,-0.4001567905704379,0.029303204093859635,0.10567990474378235,nan
1740790135.685423,0.3005438483560308,-0.37617182388702347,0.032801837171147596,0.11246762276769172,nan
1740790135.689329,0.30843389669020377,-0.3491934446997167,0.03279721976192593,0.11675138152210134,nan
1740790135.693235,0.3133186796083456,-0.31939517493135144,0.02930560468883593,0.11848282011181582,nan
1740790135.6971407,0.3151420618988603,-0.28697845720386544,0.022379869970902546,0.11764129073296899,nan
1740790135.7010467,0.31387789497300506,-0.252171132948231,0.012109106022540918,0.11423419065058542,nan
1740790135.7049527,0.3095303292987273,-0.21522564833843436,-0.001382154082868707,0.10829700792965394,nan
1740790135.7088587,0.30213382821137513,-0.17641700261771834,-0.017935055180981582,0.09989307911140356,nan
1740790135.7127645,0.2917528821866675,-0.13604045606340306,-0.037357881910631566,0.08911305991663347,nan
1740790135.7166705,0.2784814256198316,-0.09440901736699464,-0.05942784910476786,0.07607411295060065,nan
1740790135.7205765,0.26244196110238144,-0.05185073256285239,-0.08389320463482645,0.06091881925030492,nan
1740790135.7244825,0.24378439909537508,-0.008705799796534902,-0.11047562559223308,0.04381382332618535,nan
1740790135.7283883,0.22268462373651984,0.03467646383952498,-0.1388728857886959,0.024948224078209912,nan
1740790135.732296,0.1993427982598187,0.07794077548110467,-0.16876176985433608,0.004531726583412088,nan
1740790135.736202,0.17398142612311787,0.12072913032273848,-0.19980120673610316,-0.017207427768503068,nan
1740790135.7401078,0.14684318640492075,0.16268410559183366,-0.23163559317284652,-0.040024732998004645,nan
1740790135.7440138,0.1181885643220102,0.20345219328839204,-0.26389827577030095,-0.0636618701933483,nan
1740790135.7479198,0.08829329981085153,0.24268712974731457,-0.29621515863860925,-0.08784931525779732,nan
1740790135.7518258,0.057445678986955524,0.28005318982415905,-0.32820840220415254,-0.11230907720858714,nan
1740790135.7557316,0.025943694928138503,0.315228413562879,-0.35950017778032856,-0.1367575400438777,nan
1740790135.7596376,-0.005907894396833177,0.34790773357711646,-0.3897164417897441,-0.1609083800103724,nan
1740790135.7635436,-0.03780058212809044,0.37780597206397853,-0.418490693181057,-0.18447552919609034,nan
1740790135.7674496,-0.06942517269476976,0.40466067736618183,-0.44546767758203454,-0.2071761557503826,nan
1740790135.7713554,-0.10047485589677715,0.4282347712977018,-0.47030700207785486,-0.2287336307042327,nan
1740790135.7752614,-0.13064826437720373,0.4483189800389882,-0.49268662519829254,-0.2488804513329218,nan
1740790135.7791688,-0.15965248404326696,0.46473402327701946,-0.5123061877340442,-0.2673610912720686,nan
1740790135.7830746,-0.18720598736418356,0.47733253839656264,-0.5288901513725427,-0.28393474816568104,nan
1740790135.7869806,-0.21304146014401634,0.48600071890321334,-0.5421907138355163,-0.29837796048710236,nan
1740790135.7908866,-0.23690849333067332,0.4906596488544977,-0.5519904711994772,-0.3104870663234552,nan
1740790135.7947927,-0.25857611267039915,0.49126631786877667,-0.5581048003684056,-0.32008047834150904,nan
1740790135.7986984,-0.2778351205390876,0.4878143042471573,-0.5603839372246323,-0.3270007508450521,nan
1740790135.8026044,-0.2945002260633335,0.4803341168531698,-0.55871472878596,-0.3311164167753795,nan
1740790135.8065104,-0.3084119416688547,0.46889318961947196,-0.5530220407187578,-0.33232357467951584,nan
1740790135.8104165,-0.3194382264425519,0.453595525859588,-0.5432698047702672,-0.3305472080548653,nan
1740790135.8143222,-0.32747585914561256,0.43458099292399777,-0.5294616940587585,-0.32574222205163317,nan
1740790135.8182282,-0.33245152634533637,0.4120242711214685,-0.5116414176661518,-0.31789418525105134,nan
1740790135.8221343,-0.3343226139173806,0.3861334641955127,-0.4898926295812341,-0.3070197671119233,nan
1740790135.8260415,-0.333077693080926,0.3571483819694083,-0.4643384507089472,-0.29316686466254066,nan
1740790135.8299472,-0.3287366951387055,0.32533850901867484,-0.435140606357585,-0.27641441508060405,nan
1740790135.8338532,-0.32135077217234476,0.29100067636517396,-0.40249818530614734,-0.2568718939204892,nan
1740790135.8377593,-0.31100184406112125,0.25445645618082796,-0.36664603020338277,-0.2346785018844762,nan
1740790135.8416653,-0.297801835318126,0.21604930231124606,-0.3278527726232762,-0.21000204616135978,nan
1740790135.845571,-0.28189160834131344,0.1761414620518025,-0.286418529564611,-0.1830375254412996,nan
1740790135.849477,-0.26343960272704553,0.1351106870039314,-0.242672281501352,-0.1540054307289612,nan
1740790135.853383,-0.24264019326025915,0.09334677298294793,-0.19696895523368846,-0.12314977698776532,nan
1740790135.857289,-0.21971178204859654,0.051247960817936145,-0.14968623772613696,-0.09073588342708044,nan
1740790135.8611948,-0.19489464297904577,0.009217231459180453,-0.10122114982017441,-0.05704792286313444,nan
1740790135.8651009,-0.1684485392174415,-0.032341469927971433,-0.05198641114783428,-0.022386263016524452,nan
1740790135.8690069,-0.14065013681785582,-0.0730270452664936,-0.0024066297252678544,0.01293537517058484,nan
1740790135.8729138,-0.11179023963617607,-0.11244505405180043,0.04708564845038891,0.0485929151295092,nan
1740790135.8768198,-0.0821708726284026,-0.1502114865452063,0.09605399296008653,0.08425504937527156,nan
1740790135.8807259,-0.052102242239387156,-0.18595646330067522,0.14406220766260233,0.11958646108070294,nan
1740790135.8846316,-0.021899603934869536,-0.21932782509575,0.19067847570070318,0.15425111109952455,nan
1740790135.8885376,0.00811993201583936,-0.24999457813419076,0.23547949152530928,0.18791555816373304,nan
1740790135.8924437,0.037640624649097364,-0.2776501605288396,0.27805454056591933,0.22025227943505168,nan
1740790135.8963497,0.06635132401373643,-0.30201549754991314,0.3180094874653944,0.25094295836605146,nan
1740790135.9002554,0.093948658063051,-0.32284181492423975,0.3549706344592691,0.27968170692796707,nan
1740790135.9041615,0.12014015252310543,-0.33991318157976924,0.3885884125092362,0.30617818969019056,nan
1740790135.9080675,0.14464725205301754,-0.3530487556286792,0.4185408691894337,0.33016061798875357,nan
1740790135.9119735,0.16720821185476095,-0.362104710050387,0.4445369190609824,0.3513785834923028,nan
1740790135.9158792,0.18758083004240936,-0.36697581744886054,0.46631932433998974,0.3696057018556346,nan
1740790135.9197862,0.2055449925337356,-0.3675966763902932,0.4836673760489026,0.38464203883102827,nan
1740790135.9236922,0.22090500396780893,-0.3639425651488362,0.4963992485194906,0.3963162931718092,nan
1740790135.927598,0.23349168016486718,-0.35602991216884267,0.5043740030638229,0.40448771289320384,nan
1740790135.931504,0.24316417991072475,-0.3439163761595932,0.507493219820724,0.40904772393231076,nan
1740790135.93541,0.2498115563462781,-0.32770053243875835,0.5057022401902935,0.4099212529492417,nan
1740790135.939316,0.25335401094963095,-0.3075211658990335,0.4989910058568847,0.4070677289099358,nan
1740790135.9432218,0.25374383598852013,-0.28355617475253486,0.4873944841384571,0.40048175116069207,nan
1740790135.9471278,0.25096603436622517,-0.25602109297355713,0.47099267325270655,0.39019341491605414,nan
1740790135.9510338,0.24503860895598695,-0.22516724307585437,0.44991018502212343,0.37626828840462856,nan
1740790135.9549398,0.23601251678630908,-0.19127953448954352,0.42431540651420646,0.35880703931996233,nan
1740790135.9588456,0.22397128677069697,-0.15467392630974686,0.3944192460923215,0.33794471167276496,nan
1740790135.9627516,0.20903030303790004,-0.11569457653956332,0.36047347329947615,0.31384965760305844,nan
1740790135.9666584,0.19133575927949445,-0.0747107031107096,0.3227686658743232,0.2867221321524601,nan
1740790135.9705644,0.1710632928575565,-0.03211318490459737,0.2816317809690558,0.25679256238380155,nan
1740790135.9744704,0.14841631067318775,0.011689066315027518,0.23742337126654722,0.22431950553414426,nan
1740790135.9783764,0.12362402195435927,0.056272929736851086,0.1905344701442771,0.18958731406512033,nan
1740790135.9822822,0.09693919614707629,0.10120505967673782,0.14138317327191782,0.15290352849936423,nan
1740790135.9861882,0.06863566695681203,0.14604599288432724,0.09041094702655017,0.11459602177307134,nan
1740790135.9900942,0.039005606258291324,0.1903543403375633,0.038078696834979754,0.07500992146332751,nan
1740790135.9940002,0.008356594043574101,0.23369102380649842,-0.015137369020399657,0.03450433863758296,nan
1740790135.997906,-0.02299148721439613,0.2756235167666303,-0.06875004249136482,-0.006551065803379765,nan
1740790136.001812,-0.05470970346627196,0.3157300489239032,-0.12226554634800661,-0.047779644581181654,nan
1740790136.005718,-0.08646343329153246,0.35360373368389564,-0.17518805145763044,-0.08880142305732978,nan
1740790136.009624,-0.11791581209299815,0.38885657835851506,-0.2270242389372209,-0.12923681837088208,nan
1740790136.0135317,-0.14873122194659388,0.42112333775301847,-0.27728786472482797,-0.16871038238854658,nan
1740790136.0174377,-0.17857879208355748,0.45006517300878085,-0.32550428387768116,-0.20685453164276682,nan
1740790136.0213437,-0.20713587463600913,0.47537307918371197,-0.371214892067094,-0.2433132272734564,nan
1740790136.0252497,-0.23409146027876906,0.4967710470197959,-0.41398144230268746,-0.2777455681902478,nan
1740790136.0291557,-0.2591494987525208,0.5140189266594616,-0.4533901958776095,-0.30982926123497195,nan
1740790136.0330615,-0.2820320899548981,0.5269149637095921,-0.4890558678750766,-0.3392639330457976,nan
1740790136.0369675,-0.3024825123320138,0.5352979809910534,-0.5206253293038389,-0.3657742495985972,nan
1740790136.0408735,-0.32026805668546116,0.5390491825264725,-0.5477810300215566,-0.38911281101797424,nan
1740790136.0447795,-0.3351826352175601,0.538093559780968,-0.5702441090426545,-0.4090627911966697,nan
1740790136.0486853,-0.3470491376560089,0.5324008838481517,-0.5877771615897188,-0.4254402940214472,nan
1740790136.0525913,-0.3557215086104655,0.5219862711333955,-0.6001866353104393,-0.43809640055622523,nan
1740790136.0564973,-0.3610865228973086,0.5069103140925362,-0.607324831418249,-0.4469188843568107,nan
1740790136.060405,-0.36306523840145544,0.48727877269964565,-0.6090914900940941,-0.45183357516057987,nan
1740790136.064311,-0.36161410909971786,0.463241826503777,-0.6054349432767988,-0.45280535448103565,nan
1740790136.0682168,-0.3567257441203764,0.43499289135227764,-0.5963528219357526,-0.44983877011105977,nan
1740790136.0721228,-0.3484293021281165,0.40276700906741886,-0.5818923090258483,-0.44297826016777825,nan
1740790136.0760288,-0.336790513869968,0.3668388225235658,-0.5621499335329081,-0.4323079810621918,nan
1740790136.0799348,-0.32191132936280537,0.3275201526439806,-0.5372709052894205,-0.4179512376128343,nan
1740790136.0838406,-0.3039291899113804,0.2851571977802708,-0.5074479945355714,-0.4000695174082093,nan
1740790136.0877466,-0.2830159288821708,0.2401273797150446,-0.47291996447931184,-0.3788611354205193,nan
1740790136.0916526,-0.25937630888622065,0.19283586410247416,-0.4339695693313777,-0.3545594987455991,nan
1740790136.0955586,-0.23324620670737464,0.14371178649678368,-0.39092113441725007,-0.3274310051534953,nan
1740790136.0994644,-0.20489046091460283,0.09320421818184753,-0.3441377389588488,-0.29777259284347896,nan
1740790136.1033704,-0.17460040058284604,0.04177790877505232,-0.2940180259365446,-0.2659089623699013,nan
1740790136.107278,-0.14269107688127736,-0.010091154992902982,-0.24099266705033012,-0.23218949510565765,nan
1740790136.111184,-0.10949822243743451,-0.06192033284901615,-0.1855205141631747,-0.19698489580404668,nan
1740790136.11509,-0.07537496631842175,-0.11322501373398174,-0.12808447169706272,-0.16068358977494676,nan
1740790136.118996,-0.04068833515612528,-0.16352335328264997,-0.06918712723304964,-0.12368790787729309,nan
1740790136.122902,-0.0058155733541938705,-0.21234102068659735,-0.009346180013383488,-0.0864100949186673,nan
1740790136.1268077,0.02885968257512188,-0.2592159091388978,0.05091029086788255,-0.04926817911910477,nan
1740790136.1307137,0.06295133870907793,-0.3037027640352481,0.11104867509059066,-0.01268174201745045,nan
1740790136.1346197,0.0960748491683809,-0.34537768351468434,0.17053475174367946,0.022932370444610467,nan
1740790136.1385257,0.12785125296370664,-0.3838424467664714,0.2288386362627727,0.0571643539493742,nan
1740790136.1424315,0.15791120216071125,-0.4187286268026593,0.2854397074843292,0.0896157266459931,nan
1740790136.1463375,0.18589894096165116,-0.44970144608925794,0.33983146857983226,0.11990354233316128,nan
1740790136.1502435,0.21147619536346626,-0.4764633355302688,0.3915262960133048,0.14766449373093965,nan
1740790136.154151,0.23432593350591027,-0.49875715979097307,0.440060031474288,0.1725588642249556,nan
1740790136.1580567,0.2541559576680556,-0.5163690748094432,0.4849963729707681,0.19427428750586162,nan
1740790136.1619627,0.2707022901023201,-0.5291309865538969,0.5259310229129904,0.21252927596590296,nan
1740790136.1658688,0.2837323165035617,-0.5369225836107747,0.5624955530663236,0.22707648054242852,nan
1740790136.1697748,0.2930476528845038,-0.5396729200033841,0.5943609486822617,0.23770564690118146,nan
1740790136.1736805,0.29848670395200644,-0.5373615287100152,0.6212407969105315,0.2442462354124765,nan
1740790136.1775866,0.2999268837321974,-0.5300190506372363,0.6428940877279553,0.2465696752696781,nan
1740790136.1814926,0.2972864721537789,-0.5177273682701691,0.6591275990638336,0.24459122630726873,nan
1740790136.1853986,0.2905260845422193,-0.5006192378262043,0.6697978415266649,0.23827142556739087,nan
1740790136.1893044,0.2796497344746079,-0.4788774184400691,0.6748125421100043,0.22761709940864702,nan
1740790136.1932104,0.26470547416450524,-0.4527333016628343,0.674131650440471,0.2126819259157461,nan
1740790136.1971164,0.24578560045480788,-0.4224650493215272,0.6677678554907708,0.19356653651792446,nan
1740790136.2010236,0.22302641855886082,-0.38839525251496476,0.6557866051755978,0.1704181500202371,nan
1740790136.2049296,0.19660755986866438,-0.3508881291708536,0.6383056258375497,0.14342973665569986,nan
1740790136.2088356,0.16675085440537396,-0.3103462821151483,0.615493943271799,0.11283871423718367,nan
1740790136.2127416,0.13371876278177874,-0.2672070439640561,0.5875704115896453,0.07892518298454881,nan
1740790136.2166474,0.09781237683880609,-0.22193843929998383,0.5548017608393546,0.04200971008258217,nan
1740790136.2205534,0.05936900236769003,-0.1750347984950682,0.5175001788451222,0.002450679446728301,nan
1740790136.2244594,0.018759341495851466,-0.12701206116142985,0.4760204471493712,-0.039358773505752676,nan
1740790136.2283654,-0.023615703642272563,-0.07840281050027681,0.43075665520853723,-0.08299421810299128,nan
1740790136.2322712,-0.0673285804474363,-0.029751082759428168,0.38213852105805934,-0.1280037477118874,nan
1740790136.2361772,-0.11192895942829836,0.01839300143924488,0.3306273504899563,-0.17391213033097916,nan
1740790136.2400832,-0.15694789917830315,0.0654787350010273,0.27671167033995764,-0.22022525522048192,nan
1740790136.2439892,-0.20190226695763194,0.11096040088193167,0.22090257472646244,-0.26643483708546695,nan
1740790136.2478962,-0.24629937621157683,0.1543028753774599,0.16372882598948388,-0.312023336433053,nan
1740790136.2518022,-0.289641799819926,0.19498720553765533,0.1057317546157255,-0.356469052185897,nan
1740790136.255708,-0.3314323156945837,0.23251610776764003,0.04746000458101821,-0.3992513404790398,nan
1740790136.259614,-0.371178939548298,0.26641933485725744,-0.010535827728155749,-0.43985591181868955,nan
1740790136.26352,-0.4083999982660894,0.29625885935616936,-0.0677086115542424,-0.4777801574597687,nan
1740790136.267426,-0.4426291963393693,0.3216338223693315,-0.1235201064579179,-0.5125384549800325,nan
1740790136.2713318,-0.4734206272835541,0.3421851984852565,-0.17744634295063377,-0.5436674026044372,nan
1740790136.2752378,-0.5003536818621195,0.35760012965444915,-0.22898290843120303,-0.5707309318721832,nan
1740790136.2791438,-0.52303780528826,0.3676158833921526,-0.27765008831857235,-0.5933252487442865,nan
1740790136.2830498,-0.5411170563704858,0.3720233936680596,-0.3229978132657643,-0.61108355422116,nan
1740790136.2869556,-0.5542744228070726,0.3706703462418436,-0.3646103647876357,-0.6236804969727076,nan
1740790136.2908616,-0.5622358485089742,0.36346377397935076,-0.4021107935265433,-0.6308363123688749,nan
1740790136.2947686,-0.5647739309297947,0.35037213180836224,-0.43516500670034913,-0.6323206046230415,nan
1740790136.2986743,-0.5617112488893714,0.33142682541013024,-0.4634854840073638,-0.6279557315068177,nan
1740790136.3025804,-0.5529232842747895,0.30672317245522057,-0.48683458438011573,-0.6176197542411597,nan
1740790136.3064864,-0.5383409042661862,0.27642078013887433,-0.5050274094578321,-0.6012489186901252,nan
1740790136.3103924,-0.5179523743377362,0.24074332790884811,-0.5179341934564394,-0.5788396378511022,nan
1740790136.3142982,-0.49180487619676166,0.1999777495623393,-0.525482193221926,-0.5504499498167374,nan
1740790136.3182042,-0.4600055090128635,0.154472814271352,-0.5276570566222347,-0.5162004298437515,nan
1740790136.3221102,-0.4227217567185854,0.10463711152968895,-0.5245036520263139,-0.476274539864144,nan
1740790136.3260162,-0.3801814087949412,0.05093645045092647,-0.5161263463960916,-0.43091840367437634,nan
1740790136.329922,-0.33267192674897733,-0.006109310763823706,-0.5026887244357076,-0.38044000109521425,nan
1740790136.333828,-0.28053925340396807,-0.06592998407580114,-0.4844127462586611,-0.32520777956455227,nan
1740790136.337734,-0.2241860671125291,-0.12790929331385606,-0.4615773461028695,-0.26564868686187965,nan
1740790136.3416407,-0.16406948802414742,-0.1913896071144781,-0.43451647970058993,-0.20224563391933997,nan
1740790136.3455467,-0.10069824854630958,-0.25567712715503105,-0.40361663294907235,-0.13553440190330188,nan
1740790136.3494527,-0.03462934508717844,-0.3200474912989669,-0.36931380948326,-0.06610001290462506,nan
1740790136.3533585,0.033535806987508236,-0.3837517471552923,-0.3320900195788923,0.005427411391621714,nan
1740790136.3572645,0.10315568855440843,-0.4460226478002576,-0.2924692974691273,0.0783772738216693,nan
1740790136.3611705,0.1735534309562652,-0.506081218053166,-0.25101327859772765,0.15204357475687819,nan
1740790136.3650765,0.2440219738458355,-0.5631435367731411,-0.20831637251622429,0.22569039573393315,nan
1740790136.3689823,0.3138295872504121,-0.6164276781785041,-0.16500057102264895,0.2985577513222726,nan
1740790136.3728883,0.3822257147731528,-0.6651607532102383,-0.1217099346993432,0.3698677630894416,nan
1740790136.3767943,0.4484470915107815,-0.7085859904866405,-0.07910480420362882,0.43883110613809617,nan
1740790136.3807003,0.5117240873105188,-0.7459697954440533,-0.03785578546777593,0.5046536757078494,nan
1740790136.3846061,0.5712872234416146,-0.7766087258404585,0.0013624396531962384,0.5665434187907626,nan
1740790136.388514,0.6263738086444071,-0.7998363219216759,0.0378774238086956,0.6237172736270787,nan
1740790136.39242,0.6762346388644683,-0.8150297302163773,0.0710253307016136,0.6754081583498514,nan
1740790136.396326,0.7201407037991648,-0.8216160611335956,0.10015732180807628,0.7208719489513241,nan
1740790136.400232,0.757389842692905,-0.8190784222773965,0.1246458968073549,0.7593943861637434,nan
1740790136.4041378,0.7873132916250092,-0.8069615716559371,0.14389113124739894,0.7902978507917948,nan
1740790136.4080439,0.8092820648459093,-0.7848771377293168,0.1573267554550179,0.8129479475073389,nan
1740790136.4119499,0.8227131135339276,-0.7525083564910423,0.16442601967862888,0.8267598381194078,nan
1740790136.415856,0.827075206662658,-0.7096142794858622,0.16470729191912822,0.8312042668583294,nan
1740790136.4197617,0.8218944804796514,-0.6560334108021073,0.15773933684984964,0.8258132222528891,nan
1740790136.4236677,0.8067596053881805,-0.5916867356057172,0.14314622663451557,0.8101851827191247,nan
1740790136.4275737,0.7813265217783645,-0.5165801076681801,0.12061183730313794,0.7839898959999954,nan
1740790136.4314797,0.7453226995506833,-0.43080596854095865,0.08988388761670806,0.7469726460735314,nan
1740790136.4353874,0.6985508796887757,-0.33454437650062596,0.05077748101500598,0.6989579650557709,nan
1740790136.4392931,0.6408922602403626,-0.22806332908567545,0.003178115267302126,0.6398527519325631,nan
1740790136.4431992,0.5723090934225432,-0.11171836891904134,-0.0529558712008046,0.569648764626095,nan
1740790136.4471052,0.4928466652447559,0.014048531490448931,-0.1175914426866909,0.48842445689936964,nan
1740790136.4510112,0.40263463400038724,0.14871080420087895,-0.19061962078249278,0.3963461368833815,nan
1740790136.4549172,0.3018877091748671,0.29165983168199894,-0.27185486652022794,0.29366842953313327,nan
1740790136.458823,0.19090565771014906,0.4422081901251534,-0.36103510120002447,0.1807340310333773,nan
1740790136.462729,0.07007263010704962,0.599593570310942,-0.45782237161980593,0.05797274903463787,nan
1740790136.466635,-0.060144195509413904,0.7629833502826473,-0.5618041599597919,-0.0741001714454322,nan
1740790136.470541,-0.19919664753915564,0.9314797884163689,-0.6724953330837468,-0.21488643062195611,nan
1740790136.4744468,-0.34645826374609606,1.104125800058893,-0.7893407205488591,-0.36370775322014115,nan
1740790136.4783528,-0.5012276476054275,1.2799112757695663,-0.9117183052149163,-0.519809646675388,nan
1740790136.4822605,-0.6627324574140223,1.457779894398373,-1.0389430050581163,-0.682365814682225,nan
1740790136.4861662,-0.8301340019981216,1.6366363798017913,-1.1702710196716197,-0.8504831968608261,nan
1740790136.4900723,-1.002532411621575,1.8153541459806433,-1.30490471001843,-1.0232075998644259,nan
1740790136.4939783,-1.1789723477030547,1.9927832718560523,-1.4419979753355963,-1.1995298800652912,nan
1740790136.4978843,-1.358449210235823,2.167758743813241,-1.580662086712847,-1.3783926330769798,nan
1740790136.50179,-1.5399157974107927,2.339108901566557,-1.7199719328221519,-1.558697340839876,nan
1740790136.505696,-1.722289367911752,2.505664020856441,-1.858972629592861,-1.7393119228560219,nan
1740790136.509602,-1.9044590527170313,2.666264964999567,-1.996686442342676,-1.9190786344453945,nan
1740790136.513508,-2.0852935600372304,2.8197718363914275,-2.132119966016557,-2.0968222516428066,nan
1740790136.5174139,-2.263649114273153,2.9650725587158715,-2.2642715067794685,-2.2713584795924042,nan
1740790136.5213199,-2.438377567616932,3.1010913208530315,-2.392138606275789,-2.4415025190510136,nan
1740790136.5252259,-2.6083346211637046,3.2267968142953625,-2.514725648425888,-2.6060777239037307,nan
1740790136.5291333,-2.772388091167711,3.341210197275462,-2.631051487691755,-2.7639242814418115,nan
1740790136.533039,-2.9294261553777132,3.4434127207685625,-2.7401570373175486,-2.9139078465661736,nan
1740790136.536945,-3.078365514229764,3.5325529540415177,-2.8411127561417646,-3.0549280610667138,nan
1740790136.540851,-3.218159402063534,3.607853550458493,-2.933025973185277,-3.185926889690367,nan
1740790136.5447571,-3.34780538445989,3.668617497796544,-3.015047990339135,-3.30589670584656,nan
1740790136.548663,-3.4663528792657043,3.7142338013425262,-3.0863809050986633,-3.413888061499684,nan
1740790136.552569,-3.5729103408658043,3.7441825525027346,-3.1462840974025883,-3.509017078051766,nan
1740790136.556475,-3.6666520497657626,3.7580393405212096,-3.1940803272201252,-3.590472397807059,nan
1740790136.560381,-3.746824452542882,3.7554789701306333,-3.2291613925631797,-3.6575216389118657,nan
1740790136.5642867,-3.812752000681444,3.736278453507269,-3.250993301059724,-3.709517300450667,nan
1740790136.5681927,-3.8638424407039205,3.70031925072157,-3.2591209120784312,-3.7459020686229336,nan
1740790136.5720987,-3.8995915123098444,3.6475887389195254,-3.253172010611332,-3.766213479588783,nan
1740790136.576006,-3.9195870159024304,3.578180896685438,-3.2328607786645693,-3.7700878996174834,nan
1740790136.579912,-3.923512215881001,3.492296196371841,-3.197990634738875,-3.75726378855873,nan
1740790136.583818,-3.911148551362531,3.390240703582743,-3.1484564170599745,-3.7275842183377828,nan
1740790136.587724,-3.882377631523768,3.2724243894082505,-3.0842458915016535,-3.6809986241042796,nan
1740790136.5916297,-3.8371824984797613,3.1393586673770577,-3.005440570585829,-3.617563771791364,nan
1740790136.5955358,-3.7756481464868545,2.9916531733644645,-2.9122158354984617,-3.5374439321150017,nan
1740790136.5994418,-3.6979612922285177,2.8300118128141403,-2.804840358680457,-3.4409102574102524,nan
1740790136.6033478,-3.604409396960312,2.6552281055498104,-2.6836748301911837,-3.3283393641082215,nan
1740790136.6072536,-3.4953789473048653,2.468179864118377,-2.549169996651252,-3.200211130050354,nan
1740790136.6111596,-3.3713530074478553,2.2698232469706325,-2.4018640271034117,-3.0571057221616105,nan
1740790136.6150656,-3.2329080613413943,2.061186232804418,-2.2423792255391253,-2.8996998762075785,nan
1740790136.6189716,-3.0807101692220797,1.8433615670255006,-2.071418115078278,-2.7287624563901827,nan
1740790136.62288,-2.9155104682492747,1.6174992354847195,-1.8897589238164763,-2.545149328341579,nan
1740790136.6267858,-2.7381400523182684,1.3847985243908685,-1.6982505071266525,-2.3497975846068084,nan
1740790136.6306918,-2.5495042710586953,1.1464997285462384,-1.4978067456793853,-2.14371916691644,nan
1740790136.6345978,-2.3505764926491044,0.9038755727788716,-1.2894004625924846,-1.9279939343964965,nan
1740790136.6385038,-2.1423913793251272,0.6582224136301024,-1.0740569069007095,-1.7037622313039502,nan
1740790136.6424096,-1.926037728295685,0.410851289980277,-0.8528468539202363,-1.4722170118743925,nan
1740790136.6463156,-1.7026509341771903,0.16307889234693004,-0.6268793760420541,-1.234595583390787,nan
1740790136.6502216,-1.4734051319814603,-0.08378147893952412,-0.39729434000029773,-0.9921710315990433,nan
1740790136.6541276,-1.2395050821252105,-0.32842889659018076,-0.16525468870573293,-0.7462433950823782,nan
1740790136.6580334,-1.0021778608475462,-0.5695836608433348,0.06806143270449355,-0.4981306571416739,nan
1740790136.6619394,-0.7626644208117572,-0.8059959574500144,0.30146864588366407,-0.24915962509741482,nan
1740790136.6658454,-0.522211087518025,-1.0364542528565985,0.5337823420776691,-0.0006567677195206762,nan
1740790136.6697521,-0.28206105745848864,-1.2597933626547095,0.7638266573723803,0.24606091830152654,nan
1740790136.6736581,-0.04344596370408594,-1.4749021322639986,0.9904423594905524,0.4896949423062719,nan
1740790136.6775641,0.1924224261728414,-1.6807306722050983,1.2124945861849314,0.7289741844624481,nan
1740790136.6814702,0.4243603162569772,-1.8762970941774344,1.4288803767043738,0.9626635233567412,nan
1740790136.685376,0.6512197307896743,-2.06069369844539,1.6385359397136097,1.189572160419772,nan
1740790136.689282,0.871896045618839,-2.2330925677184,1.8404436034066425,1.4085615778471494,nan
1740790136.693188,1.0853351460408172,-2.392750527744698,2.0336383963466957,1.6185530698200794,nan
1740790136.697094,1.290540157767113,-2.5390134401803315,2.217214210766605,1.8185347904573643,nan
1740790136.7009997,1.4865777014685484,-2.671319798897969,2.3903295036435264,2.007568266014872,nan
1740790136.7049057,1.6725836254648785,-2.789203606715179,2.5522124947888414,2.18479432335311,nan
1740790136.7088118,1.8477681756024182,-2.892296515498619,2.7021658254332284,2.349438391579188,nan
1740790136.7127178,2.0114205661564215,-2.9803292186873804,2.8395706453007037,2.5008151389939153,nan
1740790136.7166245,2.162912920666701,-3.053132091423018,2.963890100914471,2.6383324129929293,nan
1740790136.7205303,2.3017035569199433,-3.110635079622807,3.074672202820287,2.761494456334982,nan
1740790136.7244363,2.4273395957840425,-3.152866845434061,3.171552054506992,2.869904379151428,nan
1740790136.7283423,2.5394588792310224,-3.1799531825087928,3.254253431005141,2.963265872177482,nan
1740790136.7322483,2.6377911886068204,-3.192114720388962,3.3225897004085883,3.0413841528857266,nan
1740790136.736154,2.7221587599693287,-3.189663942943632,3.3764640868459592,3.1041661424430105,nan
1740790136.74006,2.792476099070899,-3.173001551203274,3.4158692786843314,3.1516198776402446,nan
1740790136.743966,2.848749104259057,-3.1426122060482617,3.4408863909321594,3.183853168108091,nan
1740790136.747872,2.8910735111608226,-3.0990596909861585,3.451683295879137,3.2010715151781235,nan
1740790136.751778,2.9196326784545716,-3.0429815396566413,3.4485123409256673,3.2035753146282366,nan
1740790136.755684,2.934694739272878,-2.975083176698279,3.431707477273067,3.1917563712135193,nan
1740790136.75959,2.9366091477765646,-2.8961316241660575,3.4016808276297783,3.166093758282783,nan
1740790136.7634978,2.9258026551526246,-2.806948828774775,3.3589187253022494,3.12714906087171,nan
1740790136.7674036,2.9027747536779844,-2.7084046678376046,3.3039772609483844,3.0755610454044744,nan
1740790136.7713096,2.868092631521405,-2.601409693852236,3.2374773768461895,3.0120398034883373,nan
1740790136.7752156,2.8223856845947712,-2.48690767924454,3.1600995517426615,2.937360421214977,nan
1740790136.7791216,2.76633963498353,-2.3658680238017444,3.0725781221742015,2.8523562288571256,nan
1740790136.7830274,2.700690308259202,-2.239278087808832,2.9756952885691863,2.7579116888423454,nan
1740790136.7869334,2.626217124283574,-2.1081355138427917,2.8702748564388973,2.6549549823746923,nan
1740790136.7908394,2.543736357937614,-1.9734405995841047,2.7571757645217336,2.544450357041272,nan
1740790136.7947454,2.4540942275358204,-1.836188782882591,2.6372854528582272,2.4273902991705887,nan
1740790136.7986515,2.3581598695105583,-1.6973632986792226,2.511513124435696,2.304787595594173,nan
1740790136.8025572,2.256818258267389,-1.5579280652550118,2.380782954250007,2.1776673497979724,nan
1740790136.8064632,2.150963129922341,-1.4188208546749812,2.2460272993905717,2.0470590172361427,nan
1740790136.810371,2.0414899679408727,-1.2809467992461387,2.1081799630699223,1.913988523822251,nan
1740790136.814277,1.9292891075156202,-1.1451722823434691,1.9681695644012756,1.7794705303219276,nan
1740790136.8181827,1.8152390138600474,-1.012319258111038,1.826913064190466,1.644500903560887,nan
1740790136.8220887,1.7001997874758028,-0.8831600403532177,1.6853094950700178,1.5100494530523847,nan
1740790136.8259947,1.5850069468951606,-0.7584125964335764,1.544233941983804,1.3770529888616108,nan
1740790136.8299007,1.4704655364320742,-0.6387363772381399,1.4045318163546732,1.246408753288737,nan
1740790136.8338068,1.3573446031255052,-0.5247287092798358,1.2670134642615816,1.1189682752982646,nan
1740790136.8377125,1.2463720833591334,-0.4169217698676619,1.13244914564651,0.9955316925845206,nan
1740790136.8416185,1.1382301356278153,-0.31578016098455575,1.0015644179967027,0.8768425817792718,nan
1740790136.8455245,1.0335509516310126,-0.2216990921598567,0.8750359541384023,0.7635833326178965,nan
1740790136.8494306,0.9329130733470596,-0.13500317723376148,0.7534878197697485,0.656371096928162,nan
1740790136.8533363,0.836838239021408,-0.05594584454029152,0.6374882321899106,0.5557543381353338,nan
1740790136.857244,0.7457887761303623,0.015290645270399094,0.5275468173867585,0.4622100016355046,nan
1740790136.86115,0.6601655544035072,0.0785945847435912,0.42411237826511683,0.37614132092332936,nan
1740790136.8650558,0.5803065069482788,0.13392362447582426,0.327571182370894,0.2978762688192374,nan
1740790136.8689618,0.5064857224639664,0.18130301816219724,0.23824577303211406,0.22766665757334945,nan
1740790136.8728678,0.43891310650507814,0.220823333277695,0.15639430343470875,0.16568788607743243,nan
1740790136.8767738,0.377734604799819,0.2526376571500938,0.08221038881672234,0.11203932694031851,nan
1740790136.8806796,0.3230329767919327,0.27695833218074906,0.015823467736249514,0.0667453408234649,nan
1740790136.8845856,0.27482910289541057,0.2940532576194026,-0.04270034071863729,0.029756900237409005,nan
1740790136.8884916,0.23308380447196445,0.30424179857059946,-0.09335690082158286,0.000953800010854712,nan
1740790136.8923976,0.19770015129884028,0.3078903457768248,-0.13620226594983673,-0.019852573096328756,nan
1740790136.8963034,0.16852622732544614,0.30540757216523234,-0.1713504503931997,-0.032915943617365793,nan
1740790136.9002094,0.14535832185429395,0.29723943414307713,-0.19897079465145606,-0.038551359549369224,nan
1740790136.9041169,0.12794450995506965,0.2838639671682217,-0.21928495455805305,-0.03713095335039788,nan
1740790136.9080229,0.11598858295689071,0.2657859261959824,-0.23256354717429564,-0.02907929502540982,nan
1740790136.9119287,0.10915428728631935,0.24353132220729082,-0.23912248867653696,-0.014868383532985417,nan
1740790136.9158347,0.10706982774694304,0.21764190615495882,-0.23931906139328527,0.004987674722079601,nan
1740790136.9197407,0.10933258958614195,0.18866965132860258,-0.2335477487279085,0.029938249466183064,nan
1740790136.9236467,0.115514032377642,0.15717128434237448,-0.22223587791685157,0.059401979749458024,nan
1740790136.9275525,0.12516470787249245,0.12370291370527356,-0.20583911141775726,0.0927727231658472,nan
1740790136.9314585,0.13781935353968225,0.08881480325756724,-0.1848368281946935,0.1294256068638323,nan
1740790136.9353645,0.1530020135304125,0.05304633566871285,-0.15972743627029923,0.16872312594611158,nan
1740790136.9392705,0.17023113925244449,0.01692120871574538,-0.13102365765192223,0.2100212351729165,nan
1740790136.9431763,0.1890246226245902,-0.019057095776724212,-0.09924782611883964,0.25267538067368417,nan
1740790136.9470823,0.20890471638381133,-0.05440953362283619,-0.06492723739153926,0.2960464196236345,nan
1740790136.9509895,0.22940279752256487,-0.08868537734363285,-0.028589589906171022,0.33950637753986906,nan
1740790136.9548955,0.2500639320222528,-0.12146572310324893,0.009241447195451752,0.3824439949759468,nan
1740790136.9588015,0.2704512014968964,-0.15236659995574936,0.04805050415771122,0.4242700179215172,nan
1740790136.9627075,0.2901497551433903,-0.18104165998813476,0.08733458626310536,0.4644221891175276,nan
1740790136.9666133,0.30877055348182425,-0.2071844322338743,0.1266069249519357,0.5023699007479904,nan
1740790136.9705193,0.3259537737299515,-0.23053012762449282,0.16540057696933388,0.5376184725335837,nan
1740790136.9744253,0.3413718502560445,-0.25085698670208467,0.20327174694569056,0.569713023095124,nan
1740790136.9783313,0.35473212735843135,-0.26798716629079145,0.23980281182817542,0.5982419065387531,nan
1740790136.982237,0.36577910559066096,-0.28178716577800444,0.2746050287275195,0.6228396905002602,nan
1740790136.986143,0.3742962669498834,-0.2921677980448636,0.3073209109943305,0.6431896563324354,nan
1740790136.9900491,0.38010746843341325,-0.2990837143697869,0.33762626066118245,0.6590258066850282,nan
1740790136.9939551,0.3830778977045443,-0.30253249676910415,0.3652318487487519,0.6701343703690352,nan
1740790136.997862,0.3831145888536431,-0.30255333519774047,0.38988473830448367,0.6763547990730304,nan
1740790137.001768,0.38016650045457706,-0.2992253107748588,0.4113692483893293,0.6775802551661226,nan
1740790137.005674,0.3742241622605931,-0.29266530969117044,0.4295075605213251,0.6737575944378427,nan
1740790137.00958,0.3653189009197045,-0.28302559566586394,0.4441599722943879,0.6648868521482437,nan
1740790137.013486,0.35352165898077725,-0.2704910717241126,0.45522480598833803,0.6510202451517627,nan
1740790137.017392,0.3389414251726752,-0.2552762646365579,0.462637982944743,0.6322607070772734,nan
1740790137.0212977,0.3217232974370042,-0.2376220675789234,0.46637227727754,0.6087599775577734,nan
1740790137.0252037,0.3020462034492886,-0.21779227841552984,0.4664362650942461,0.5807162702718285,nan
1740790137.0291097,0.28012030634564394,-0.19606997247111865,0.46287298780175273,0.5483715480536016,nan
1740790137.0330157,0.25618412605664725,-0.17275374972098004,0.45575835024142364,0.5120084365199254,nan
1740790137.0369215,0.2305014090147461,-0.14815389699378262,0.4451992763251631,0.4719468105256774,nan
1740790137.0408275,0.2033577810269324,-0.1225885060423544,0.43133164651346684,0.42854009027000706,nan
1740790137.0447345,0.17505721977467034,-0.09637958819656813,0.41431804287727625,0.38217128601661887,nan
1740790137.0486403,0.1459183847058256,-0.06984922577481052,0.3943453286093119,0.33324883214587026,nan
1740790137.0525463,0.11627084300975496,-0.04331579950540361,0.37162208969205546,0.282202252612977,nan
1740790137.0564523,0.0864512309116549,-0.017090329909603588,0.34637596698600726,0.22947770083727267,nan
1740790137.0603583,0.05679938968415016,0.008527031060346338,0.3188509072733481,0.17553341758793337,nan
1740790137.064264,0.027654515555111288,0.0332503238315917,0.2893043617816489,0.12083515056165492,nan
1740790137.06817,-0.0006486379035175916,0.0568108884860779,0.2580044604253864,0.06585157907087276,nan
1740790137.072076,-0.027783467281248538,0.07896022612132815,0.22522718944792133,0.011049786584534094,nan
1740790137.075982,-0.053435100417805255,0.09947258778323391,0.191253599334029,-0.04310917720200342,nan
1740790137.0798879,-0.07730381641489328,0.1181472675558433,0.15636706880608045,-0.0961746045311607,nan
1740790137.0837939,-0.09910827188021383,0.1348105796912556,0.12085064943081107,-0.14771026954115396,nan
1740790137.0877,-0.11858850297898209,0.14931750312642145,0.08498451386556917,-0.19729836370983356,nan
1740790137.091608,-0.13550867540643236,0.1615529803275878,0.049043529082058855,-0.2445431929205716,nan
1740790137.0955138,-0.14965955717824125,0.1714328610908815,0.01329497404260856,-0.2890746050160953,nan
1740790137.0994198,-0.16086069213552273,0.1789044856720989,-0.02200358070905015,-0.3305511196924069,nan
1740790137.1033258,-0.16896225524614397,0.18394690538288255,-0.05660621622044808,-0.36866273579667913,nan
1740790137.1072319,-0.1738465741222901,0.18657074253693698,-0.09028041798712759,-0.40313339449754526,nan
1740790137.1111376,-0.17542930463182166,0.1868176953220432,-0.12280862773487343,-0.4337230803590929,nan
1740790137.1150436,-0.17366025202364907,0.18475969677547596,-0.15398958574254223,-0.46022954603586685,nan
1740790137.1189497,-0.1685238325800587,0.18049774051718825,-0.18363945772200996,-0.48248965007888683,nan
1740790137.1228557,-0.16003917441652576,0.17416038921359997,-0.21159274267580586,-0.5003803011655767,nan
1740790137.1267614,-0.14825985963697363,0.1659019848733923,-0.237702960534951,-0.5138190059027131,nan
1740790137.1306674,-0.13327331358516573,0.15590058298609952,-0.26184312071525984,-0.5227640211646345,nan
1740790137.1345735,-0.11519985037706662,0.14435563517723865,-0.28390597499670217,-0.5272141156829531,nan
1740790137.1384814,-0.09419138722210732,0.13148544744596227,-0.3038040603051827,-0.5272079492640787,nan
1740790137.1423874,-0.07042984321195013,0.11752444315094607,-0.3214695390384808,-0.5228230815431276,nan
1740790137.1462934,-0.04412524124416636,0.10272026169892039,-0.33685384650867545,-0.5141746255552091,nan
1740790137.1501994,-0.015513534527644587,0.08733072535234637,-0.3499271568545558,-0.5014135645872426,nan
1740790137.1541052,0.015145818338714163,0.07162070769618832,-0.36067768039339965,-0.4847247537373335,nan
1740790137.1580112,0.04757250343524522,0.05585893807967506,-0.3691108068181796,-0.464324630328375,nan
1740790137.1619172,0.08146819845036343,0.04031477677219134,-0.375248109892004,-0.44045865977489607,nan
1740790137.1658232,0.11651958646604114,0.025254995641116988,-0.3791262303367646,-0.4133985456667319,nan
1740790137.169729,0.1524015051916465,0.01094059887530946,-0.38079565445014824,-0.38343923469250507,nan
1740790137.173635,0.18878019915305494,-0.0023762823538894134,-0.38031940660942665,-0.35089574856580336,nan
1740790137.177541,0.2253166415875968,-0.014455388373144659,-0.37777167422891084,-0.31609987632626546,nan
1740790137.181447,0.2616698923724299,-0.025071191006380274,-0.37323638393036135,-0.2793967612586804,nan
1740790137.1853547,0.2975004582256308,-0.03401558508057212,-0.36680574766377366,-0.24114141720123297,nan
1740790137.1892605,0.33247362166406885,-0.04110038333077385,-0.35857879728404934,-0.20169520919806436,nan
1740790137.1931665,0.36626270577488995,-0.04615958877556777,-0.3486599256534154,-0.16142233329354672,nan
1740790137.1970725,0.39855224275003115,-0.0490514210629255,-0.3371574517084938,-0.12068632977160701,nan
1740790137.2009785,0.4290410153344338,-0.04966007593989044,-0.32418222611508857,-0.07984666332177978,nan
1740790137.2048843,0.4574449418343825,-0.047897199849831616,-0.3098462931452863,-0.03925540247612187,nan
1740790137.2087903,0.48349977710571346,-0.043703064678738274,-0.29426162326432204,0.0007459707775096246,nan
1740790137.2126963,0.506963603973076,-0.0370474308261844,-0.2775389296243434,0.03982959202262209,nan
1740790137.2166023,0.5276190917990891,-0.02793009003495434,-0.25978658024551754,0.07768405888439801,nan
1740790137.220508,0.5452755014020613,-0.016381082742911973,-0.24110961613990806,0.11401706397288978,nan
1740790137.224414,0.5597704181870581,-0.0024605880879357404,-0.22160888401911452,0.1485577937725184,nan
1740790137.2283201,0.570971198179864,0.013741511932105313,-0.20138029054251044,0.18105907358517306,nan
1740790137.232229,0.5787761146079459,0.03210638930093434,-0.18051418332926814,0.21129924143028536,nan
1740790137.236135,0.5831151957267956,0.05248733970502188,-0.1590948621947046,0.2390837367342508,nan
1740790137.240041,0.5839507477132942,0.0747111538289641,-0.1372002223004419,0.2642463926731498,nan
1740790137.2439468,0.5812775596087627,0.09857977586290521,-0.114901529148864,0.28665042413588404,nan
1740790137.2478528,0.575122790461712,0.12387223195928079,-0.09226332362551448,0.30618910641817965,nan
1740790137.2517588,0.5655455419627747,0.15034680866022937,-0.06934345361783265,0.32278614290993024,nan
1740790137.2556648,0.552636122951123,0.17774345881177595,-0.046193227133807406,0.3363957231678205,nan
1740790137.2595706,0.5365150151727148,0.20578641021050428,-0.02285768032743566,0.3470022758412802,nan
1740790137.2634766,0.5173315525571544,0.23418695021436728,0.0006240475741375839,0.35461992391278924,nan
1740790137.2673826,0.4952623290239708,0.2626463578105957,0.024218241738879643,0.3592916525944658,nan
1740790137.2712886,0.47050935240469094,0.2908589531864995,0.04789605204885129,0.3610882029644299,nan
1740790137.2751944,0.4432979644500023,0.31851523370647455,0.0716328577375394,0.3601067070028054,nan
1740790137.2791018,0.4138745490592674,0.345305064371014,0.09540756866914019,0.3564690820745819,nan
1740790137.2830079,0.38250405280282784,0.37092089032779674,0.11920187627452083,0.35032020508314543,nan
1740790137.2869139,0.3494673434883806,0.3950609388249835,0.14299946767816898,0.34182588846456036,nan
1740790137.2908196,0.31505843393629485,0.41743237814312767,0.16678521689384823,0.33117068189176413,nan
1740790137.2947257,0.2795815992630104,0.4377544015119869,0.19054436713137116,0.3185555249952437,nan
1740790137.2986317,0.24334841681719058,0.4557612048062357,0.2142617182421309,0.3041952775709478,nan
1740790137.3025377,0.20667475846371156,0.47120482791058366,0.23792083313846957,0.2883161546282986,nan
1740790137.3064435,0.1698777651624313,0.4838578310382871,0.2615032766548513,0.27115309422533834,nan
1740790137.3103495,0.13327283374145146,0.49351577896253557,0.28498789978275996,0.25294708634128166,nan
1740790137.3142555,0.09717064542079558,0.4999995080602966,0.30835018151343546,0.23394249104907336,nan
1740790137.3181615,0.06187426500740785,0.5031571532527145,0.33156163967222835,0.21438437397476542,nan
1740790137.3220673,0.027676338764434923,0.5028659143327527,0.35458932113616193,0.1945158864724695,nan
1740790137.3259745,-0.005143582232167682,0.49903354377488013,0.3773953807047813,0.17457571711179848,nan
1740790137.3298805,-0.03632156788492809,0.4915995408969066,0.3999367566572202,0.1547956399802609,nan
1740790137.3337865,-0.06561166033974687,0.4805360401625734,0.42216494969073726,0.13539818395986525,nan
1740790137.3376925,-0.09278802896445341,0.4658483844460186,0.44402591051394913,0.1165944455611818,nan
1740790137.3415983,-0.11764690939874667,0.44757537719541773,0.4654600398786837,0.09858206610787433,nan
1740790137.3455043,-0.14000830933180985,0.42578921060199454,0.4864023032956334,0.08154339208036933,nan
1740790137.3494103,-0.15971746611935864,0.40059507007091977,0.5067824611090447,0.06564383527112955,nan
1740790137.3533163,-0.17664604393863215,0.3721304184706778,0.5265254130233722,0.05103044709960522,nan
1740790137.357222,-0.19069306087137278,0.34056396677621775,0.5455516545987846,0.03783071900733655,nan
1740790137.361128,-0.2017855390735182,0.3060943407877939,0.5637778416813696,0.02615161832878766,nan
1740790137.365034,-0.20987887400809452,0.26894845657187444,0.5811174572263008,0.01607886643829376,nan
1740790137.36894,-0.2149569215561201,0.22937962010409188,0.5974815735259422,0.007676463335090523,nan
1740790137.372847,-0.21703180465077712,0.18766536926950178,0.6127797014871067,0.000986460174404132,nan
1740790137.376753,-0.2161434438743555,0.1441050788665914,0.6269207173287861,-0.003971021389642395,nan
1740790137.3806589,-0.21235881918781496,0.09901735154466589,0.6398138559089273,-0.007197526786803474,nan
1740790137.3845649,-0.20577097260234276,0.05273721965775225,0.6513697588502118,-0.008715769314557647,nan
1740790137.388471,-0.19649776412499334,0.005613184822449025,0.6615015647330457,-0.008568902845229688,nan
1740790137.392377,-0.18468039569199404,-0.04199587649453202,0.6701260278701803,-0.006819577509918555,nan
1740790137.3962827,-0.1704817200203996,-0.08972391177541475,0.6771646515810287,-0.003548791605407329,nan
1740790137.4001887,-0.1540843533403012,-0.13720096508701415,0.6825448214526288,0.001145444997326324,nan
1740790137.4040947,-0.1356886127964457,-0.18405649233700289,0.6862009238141665,0.007149618811865216,nan
1740790137.4080007,-0.11551030091282811,-0.22992268757458337,0.6880754345670379,0.014336373276375762,nan
1740790137.4119065,-0.09377836088161831,-0.27443778870756813,0.6881199636046831,0.022566301647401525,nan
1740790137.4158125,-0.0707324275565263,-0.3172493312638696,0.686296240325864,0.03168985080494119,nan
1740790137.4197195,-0.04662029989045068,-0.35801731938580716,0.6825770261898517,0.04154931354880102,nan
1740790137.4236252,-0.02169536115090754,-0.39641728410393073,0.6769469408782084,0.05198088623453642,nan
1740790137.4275312,0.003786026430128572,-0.43214320008382284,0.6694031894097274,0.062816768117204,nan
1740790137.4314373,0.029567125864419584,-0.464910233462464,0.6599561784949461,0.07388727854573583,nan
1740790137.4353433,0.05539340198638669,-0.49445729507539066,0.648630011505012,0.08502296818065935,nan
1740790137.439249,0.08101504440311874,-0.5205493753046218,0.6354628526554355,0.0960567006908144,nan
1740790137.443155,0.10618941156436261,-0.542979638930636,0.6205071523555891,0.10682568191606251,nan
1740790137.447061,0.1306833717019178,-0.561571260727615,0.603829727135674,0.1171734142553949,nan
1740790137.450967,0.15427551762869351,-0.5761789850761173,0.5855116891186464,0.12695155504363304,nan
1740790137.4548728,0.17675823385501704,-0.5866903955558848,0.5656482216387675,0.13602165890302484,nan
1740790137.4587789,0.19793959615745949,-0.5930268832968563,0.5443481993034136,0.14425678548424684,nan
1740790137.4626849,0.21764508560530765,-0.5951443057806929,0.5217336525321883,0.1515429556282461,nan
1740790137.4665916,0.23571910109186528,-0.5930333307695043,0.4979390783683561,0.15778044076797174,nan
1740790137.4704976,0.2520262566102946,-0.5867194630635034,0.47311060112275577,0.16288487232741738,nan
1740790137.4744036,0.26645245183371263,-0.5762627548254726,0.44740498816028984,0.1667881599432879,nan
1740790137.4783096,0.2789057069823635,-0.5617572032274576,0.4209885278543197,0.16943920950951977,nan
1740790137.4822154,0.28931675546181396,-0.5433298421446798,0.39403577839558374,0.17080443430327416,nan
1740790137.4861214,0.29763939030925435,-0.5211395375144983,0.3667281977309285,0.1708680547686518,nan
1740790137.4900274,0.30385056306396874,-0.49537549876643694,0.33925266640504387,0.1696321848865119,nan
1740790137.4939334,0.30795023625632706,-0.4662555213860455,0.311799916468248,0.1671167054203845,nan
1740790137.4978392,0.30996099326096443,-0.43402397817526456,0.28456288087902626,0.163358926674607,nan
1740790137.5017452,0.3099274117582039,-0.3989495790913196,0.25773497895636227,0.15841304570672826,nan
1740790137.5056512,0.30791520946800666,-0.3613229216630643,0.23150835441044462,0.15234940517788587,nan
1740790137.5095572,0.30401017313823503,-0.3214538558782544,0.20607208328878707,0.1452535631786228,nan
1740790137.513465,0.2983168839607954,-0.27966868909010084,0.1816103698079363,0.13722518541137882,nan
1740790137.517371,0.29095725463311767,-0.2363072578911877,0.15830074848992542,0.12837677302324954,nan
1740790137.521277,0.28206889515833056,-0.19171989503527617,0.1363123112808616,0.1188322411440668,nan
1740790137.525183,0.2718033261668374,-0.14626432034240033,0.11580397839163997,0.10872536477724264,nan
1740790137.5290887,0.2603240600281058,-0.10030248509309773,0.09692283146497324,0.09819811009792768,nan
1740790137.5329947,0.24780457129022845,-0.05419739969934231,0.07980252733819097,0.08739887042074303,nan
1740790137.5369008,0.23442617902367466,-0.008309974431089195,0.06456181013879518,0.07648062709537903,nan
1740790137.5408068,0.2203758644451939,0.03700409731995336,0.05130313872325061,0.06559905636301863,nan
1740790137.5447125,0.20584404775052687,0.08139738433962192,0.04011144555444278,0.0549106037522433,nan
1740790137.5486186,0.19102234838581278,0.12453366341333609,0.031053042017218185,0.04457054790473432,nan
1740790137.5525246,0.17610135303506808,0.16609073875763566,0.024174683904115774,0.03473107579605966,nan
1740790137.5564306,0.16126841539541864,0.20576310953047106,0.019502809376053466,0.025539391154975548,nan
1740790137.5603383,0.14670551135572463,0.24326446151256442,0.01704296012875846,0.01713587748827175,nan
1740790137.564244,0.13258717249356405,0.27832996089868106,0.016779394789763074,0.00965233649200228,nan
1740790137.56815,0.11907851986817547,0.3107183301883866,0.018674901749311214,0.0032103217811358243,nan
1740790137.572056,0.10633341892335119,0.3402136883996557,0.022670816709095733,-0.0020804131923762227,nan
1740790137.575962,0.09449277493719267,0.3666271402225874,0.02868724823428374,-0.006123335426670925,nan
1740790137.5798678,0.08368298687987481,0.3897981012602097,0.036623512536554464,-0.008836404707101137,nan
1740790137.5837739,0.07401457578303682,0.4095953491431693,0.04635877661944581,-0.010153183461906093,nan
1740790137.5876799,0.06558100180379467,0.42591779302857,0.057752906803419865,-0.010023771383115658,nan
1740790137.5915859,0.05845768210290079,0.438694956772924,0.07064751753811051,-0.008415553973368193,nan
1740790137.5954916,0.052701219472067976,0.447887173877491,0.08486721332500535,-0.005313756208590866,nan
1740790137.5993977,0.04834884936275843,0.45348549511322994,0.10022101453683883,-0.0007217946294698529,nan
1740790137.6033037,0.04541811061167406,0.4555113125145037,0.11650395595148653,0.005338576631085972,nan
1740790137.607211,0.04390674275144082,0.4540157061581079,0.1334988449390395,0.012827328135097182,nan
1740790137.6111171,0.043792810363442375,0.44907852279046023,0.15097816447087867,0.021686425725359976,nan
1740790137.6150231,0.04503505249877887,0.44080719790519085,0.16870610447812445,0.03184030712717533,nan
1740790137.6189291,0.04757345278807088,0.42933533528116447,0.18644070359171852,0.043196560039844664,nan
1740790137.622835,0.051330023506107235,0.4148210602440924,0.2039360819642019,0.05564679499565353,nan
1740790137.626741,0.056209794577555594,0.3974451649918625,0.2209447447190248,0.06906770413824996,nan
1740790137.630647,0.06210199632857304,0.37740906620463444,0.237219934610445,0.08332229503922348,nan
1740790137.634553,0.06888142272864928,0.3549325968283103,0.25251801171721144,0.09826128675266978,nan
1740790137.638459,0.07640995994857525,0.33025165535848694,0.26660083744601587,0.11372465352286958,nan
1740790137.6423647,0.08453826330379499,0.30361573714854606,0.27923813979359396,0.12954329992861707,nan
1740790137.6462708,0.09310756407555906,0.2752853732095053,0.2902098367148373,0.14554084978655155,nan
1740790137.6501768,0.1019515863214015,0.24552950265260817,0.29930829457145225,0.16153552986030195,nan
1740790137.6540842,0.11089855261575003,0.2146228053430558,0.3063404989925501,0.1773421283461109,nan
1740790137.65799,0.11977325671270579,0.18284302148210424,0.31113011606356045,0.19277400723998225,nan
1740790137.661896,0.12839918040615472,0.15046828471493398,0.3135194225694949,0.20764514704585582,nan
1740790137.665802,0.13660063138437764,0.11777449497612394,0.3133710850466927,0.22177220186550015,nan
1740790137.669708,0.1442048786423246,0.08503275663840974,0.3105697686357235,0.23497654272362392,nan
1740790137.6736138,0.15104426202685717,0.052506906631893564,0.30502355816660087,0.2470862670281032,nan
1740790137.6775198,0.15695825274837322,0.02045115606028485,0.296665175533482,0.2579381523451385,nan
1740790137.6814258,0.16179544219373074,-0.010892132528919954,0.2854529792152213,0.26737953317994795,nan
1740790137.6853318,0.16541543711481776,-0.041294511647025196,0.271371733754111,0.27527008019010163,nan
1740790137.6892376,0.16769064023709357,-0.07054334034663656,0.25443313910016324,0.2814834622136814,nan
1740790137.6931436,0.16850789652272505,-0.0984434838491941,0.2346761119426667,0.2859088726581815,nan
1740790137.6970496,0.1677699867214102,-0.12481880659750033,0.21216681346389532,0.28845240315695375,nan
1740790137.7009568,0.1653969514341868,-0.14951344626236976,0.18699842033971636,0.28903824894386904,nan
1740790137.7048628,0.16132723068506497,-0.1723928585926265,0.15929063825560869,0.28760973210829544,nan
1740790137.7087688,0.1555186059239859,-0.19334462544385514,0.12918895968071561,0.28413013075363563,nan
1740790137.7126746,0.14794893345261154,-0.2122790208283984,0.0968636701229872,0.2785833040747782,nan
1740790137.7165806,0.1386166604504102,-0.22912933237091504,0.06250860955085723,0.2709741054721579,nan
1740790137.7204866,0.12754111706009116,-0.2438519381045228,0.026339698087140262,0.26132857801136544,nan
1740790137.7243927,0.11476258034496693,-0.25642614107566697,-0.011406762565382107,0.24969392879455654,nan
1740790137.7282984,0.10034210833230706,-0.2668537667158293,-0.05047599824313701,0.2361382811103109,nan
1740790137.7322044,0.08436114478123019,-0.2751585303594595,-0.09059686611095683,0.22075020554810063,nan
1740790137.7361104,0.06692089773636244,-0.2813851846157707,-0.13148413522988997,0.20363803357834226,nan
1740790137.7400165,0.04814149732425882,-0.28559845851361276,-0.17284092415100455,0.1849289593850747,nan
1740790137.7439222,0.028160940593804692,-0.2878818024115326,-0.21436127409609093,0.16476793797195852,nan
1740790137.7478294,0.0071338334702034985,-0.28833595457851674,-0.25573283479225006,0.1433163897203472,nan
1740790137.7517352,-0.014770057938711837,-0.2870773470858789,-0.2966396387420353,0.12075072363812031,nan
1740790137.7556412,-0.03736743239774657,-0.28423637019023057,-0.33676493864817075,0.0972606934783598,nan
1740790137.7595472,-0.060463238770733264,-0.27995551571640026,-0.3757940818839717,0.07304760270743245,nan
1740790137.7634532,-0.08385260348609372,-0.2743874210547775,-0.413417395317191,0.04832237594373556,nan
1740790137.767359,-0.10732288074912329,-0.26769283625941337,-0.44933305346365016,0.023303515953950797,nan
1740790137.771265,-0.1306558046455007,-0.26003853736321,-0.48324990287276726,-0.0017850334324507405,nan
1740790137.775171,-0.15362972112920512,-0.2515952094092638,-0.5148902158325225,-0.026716097061060245,nan
1740790137.779077,-0.1760218769607476,-0.24253532282989104,-0.5439923469266696,-0.05126152856153354,nan
1740790137.7829828,-0.19761074196832737,-0.23303102668671405,-0.5703132666796374,-0.0751944979208881,nan
1740790137.7868888,-0.21817834055283228,-0.22325208191868526,-0.5936309474796153,-0.09829178322181967,nan
1740790137.7907948,-0.23751256815267044,-0.21336385713485836,-0.6137465781703313,-0.12033604309222816,nan
1740790137.7947018,-0.25540946842892315,-0.20352540864232999,-0.6304865851372009,-0.14111804649782242,nan
1740790137.7986076,-0.27167544722534087,-0.19388766532691482,-0.643704439371509,-0.16043883683529997,nan
1740790137.8025136,-0.28612939989893005,-0.1845917377166795,-0.6532822308627675,-0.17811180784663444,nan
1740790137.8064196,-0.29860472940026833,-0.17576736907081178,-0.6591319937276744,-0.19396466967030795,nan
1740790137.8103256,-0.3089512335009947,-0.16753154466464354,-0.6611967677157322,-0.20784128436555252,nan
1740790137.8142314,-0.3170368408091975,-0.15998727360415654,-0.6594513841161637,-0.21960335148093418,nan
1740790137.8181374,-0.32274917666974806,-0.15322255551981812,-0.6539029666064174,-0.22913192567717086,nan
1740790137.8220434,-0.3259969417015679,-0.14730954238145913,-0.6445911402058657,-0.23632875004159626,nan
1740790137.8259494,-0.32671108756122064,-0.14230390346557353,-0.6315879442048178,-0.24111739053245582,nan
1740790137.8298552,-0.3248457765237246,-0.13824439921768353,-0.614997447703143,-0.24344415894712224,nan
1740790137.8337612,-0.32037911361735955,-0.13515266740939164,-0.5949550691884868,-0.24327881390020256,nan
1740790137.8376672,-0.313313642317928,-0.1330332226175662,-0.571626604384598,-0.24061503150425273,nan
1740790137.841574,-0.3036765971769162,-0.13187366767673625,-0.5452069693788231,-0.23547063974555615,nan
1740790137.84548,-0.2915199092033363,-0.13164511340054397,-0.5159186687675339,-0.22788761291686083,nan
1740790137.849386,-0.2769199623163279,-0.13230280055881516,-0.4840100012127425,-0.21793182488446378,nan
1740790137.8532917,-0.25997710170954214,-0.13378691585795324,-0.4497530173563869,-0.20569256240399547,nan
1740790137.8571978,-0.24081489749357032,-0.13602359152756924,-0.413441247465818,-0.1912818021332009,nan
1740790137.8611038,-0.21957916948350276,-0.13892607608815435,-0.3753872184607339,-0.17483325739608574,nan
