timestamps,TP9,AF7,AF8,TP10,Right AUX
1740790091.7189598,-0.054135499380918,-0.10472976041636668,-0.3541453353860946,0.10115564605991557,nan
1740790091.7228658,-0.040183319638773744,-0.11486566526807568,-0.354628310543377,0.11430675623995733,nan
1740790091.7267718,-0.027376693563672904,-0.12344611743764708,-0.35411815327761753,0.12580213625328707,nan
1740790091.7306776,-0.015889497689693728,-0.13035562521054508,-0.3526440977740452,0.13550629509607934,nan
1740790091.7345836,-0.0058838566026923915,-0.13549532365592565,-0.35023583144853143,0.14330235629040694,nan
1740790091.7384896,0.0024918744641358125,-0.13878394746135947,-0.34692295829028474,0.14909332266022976,nan
1740790091.7423956,0.009104986123729375,-0.14015862185855524,-0.34273450602142774,0.1528031365673802,nan
1740790091.7463014,0.013840129587447968,-0.13957546407656132,-0.33769848304363764,0.1543775246193408,nan
1740790091.7502074,0.016600850530143804,-0.1370099897375667,-0.33184149036702815,0.153784618073898,nan
1740790091.7541134,0.01731092480626407,-0.13245732063973373,-0.32518839288718143,0.15101534246708476,nan
1740790091.7580194,0.01591548082034422,-0.1259321924306992,-0.31776205350282266,0.14608357235678268,nan
1740790091.7619252,0.012381895579801492,-0.11746876274295107,-0.30958313265984816,0.1390260494807184,nan
1740790091.7658315,0.006700453819232789,-0.10712022241715338,-0.3006699549780541,0.12990206505010204,nan
1740790091.7697375,-0.0011152379409086937,-0.09495821446027324,-0.2910384436763184,0.11879290931388042,nan
1740790091.7736435,-0.011028087977575554,-0.0810720673516435,-0.2807021225711491,0.10580109390938511,nan
1740790091.7775495,-0.022977609545013784,-0.06556785120151744,-0.2696721844937344,0.09104935483848882,nan
1740790091.7814553,-0.03688026495029817,-0.04856726706422784,-0.2579576240627131,0.07467944615111166,nan
1740790091.7853613,-0.05263006116109151,-0.03020638139326515,-0.24556543187458546,0.05685073655691115,nan
1740790091.7892673,-0.0700993919401036,-0.0106342191817107,-0.23250084634105644,0.03773862320001305,nan
1740790091.7931733,-0.08914011890620814,0.009988769257523285,-0.21876765862250622,0.017532778699935723,nan
1740790091.797079,-0.10958488140154375,0.03149235166500171,-0.20436856538799011,-0.0035647507340543063,nan
1740790091.800985,-0.13124862262328818,0.05369825007445303,-0.18930556348325134,-0.025341576785658286,nan
1740790091.804891,-0.15393031718267983,0.07642195173309942,-0.17358038001633344,-0.047577109456307214,nan
1740790091.8087971,-0.17741488310601386,0.09947457580934009,-0.15719493088232123,-0.07004478466193101,nan
1740790091.8127031,-0.20147525931474428,0.12266477648448043,-0.14015180034985453,-0.09251435633805072,nan
1740790091.8166091,-0.22587462783481324,0.1458006627175948,-0.122454734027056,-0.11475422972649696,nan
1740790091.820515,-0.2503687584073255,0.16869171486988915,-0.10410913731662397,-0.1365338120910289,nan
1740790091.824421,-0.27470845182010273,0.1911506784777551,-0.08512257136164968,-0.15762585692465336,nan
1740790091.828327,-0.29864205716634296,0.21299541577020434,-0.06550523847603644,-0.17780877776995058,nan
1740790091.832233,-0.32191803737447855,0.2340506960331443,-0.04527044914663199,-0.19686890807489368,nan
1740790091.8361387,-0.34428755675121847,0.2541499066238452,-0.02443506288680379,-0.21460268404708574,nan
1740790091.8400447,-0.36550706394442456,0.27313666732656283,-0.003019895511271711,-0.2308187282437871,nan
1740790091.8439507,-0.3853408436674946,0.2908663318045862,0.018949914214198945,-0.2453398126353814,nan
1740790091.8478568,-0.40356351073361313,0.3072073611337944,0.041444585121231864,-0.25800468109619523,nan
1740790091.8517625,-0.4199624204247215,0.3220425557847043,0.06442942740126024,-0.2686697126961533,nan
1740790091.8556685,-0.43433996996222374,0.3352701339394709,0.08786463496300155,-0.27721040877555614,nan
1740790091.859576,-0.4465157668470047,0.34680464567107966,0.11170514106128493,-0.28352268856673446,nan
1740790091.8634818,-0.4563286410858535,0.3565777142568481,0.1359005411067021,-0.2875239800626154,nan
1740790091.8673878,-0.4636384798075681,0.3645385977288833,0.16039508574563893,-0.2891540949036409,nan
1740790091.8712938,-0.4683278644803391,0.37065456566113475,0.18512774643673777,-0.2883758782400525,nan
1740790091.8751998,-0.47030349285577744,0.37491108813624546,0.21003235485265628,-0.2851756268042449,nan
1740790091.8791056,-0.4694973698650723,0.37731183580523586,0.23503781651566175,-0.2795632707745742,nan
1740790091.8830116,-0.4658677539587364,0.37787849192859113,0.2600683981426566,-0.27157231740405663,nan
1740790091.8869176,-0.4593998477905189,0.3766503792479555,0.28504408724069613,-0.261259556800519,nan
1740790091.8908234,-0.4501062246745872,0.37368390646306804,0.3098810215686827,-0.24870453265466252,nan
1740790091.8947294,-0.438026984867766,0.36905184095864724,0.3344919851756766,-0.2340087830947234,nan
1740790091.8986354,-0.42322963841937,0.362842416221493,0.358786966851638,-0.2172948591769698,nan
1740790091.9025414,-0.4058087140631807,0.355158284090278,0.3826737759929221,-0.198705130776482,nan
1740790091.9064486,-0.38588509637202145,0.34611532357202796,0.40605871010217304,-0.17840039179984168,nan
1740790091.9103544,-0.3636050961278386,0.33584131942348827,0.4288472674199787,-0.15655827867857258,nan
1740790091.9142604,-0.3391392615516866,0.32447452501761537,0.4509448975323121,-0.13337151799890026,nan
1740790091.9181664,-0.3126809406617216,0.31216212518152214,0.47225778222147574,-0.10904602086039306,nan
1740790091.9220724,-0.28444460755665546,0.29905861569066017,0.4926936383361023,-0.08379884311572168,nan
1740790091.9259782,-0.25466396783190237,0.28532411692443527,0.5121625340539608,-0.057856032010347565,nan
1740790091.9298842,-0.22358986060131636,0.2711226398227753,0.5305777096051999,-0.03145038090053516,nan
1740790091.9337902,-0.19148797669625872,0.2566203227248198,0.547856393317342,-0.004819114668915867,nan
1740790091.9376962,-0.15863641452437796,0.24198365791576257,0.5639206037399978,0.02179847083065109,nan
1740790091.941602,-0.12532309677347997,0.22737772675345713,0.5786979286089243,0.04816339149029891,nan
1740790091.945508,-0.09184307262392985,0.21296446209276093,0.5921222715163548,0.074039355782393,nan
1740790091.949414,-0.05849573137076708,0.19890095637431604,0.6041345573673729,0.09919511967237508,nan
1740790091.953321,-0.02558195434158807,0.1853378331998295,0.6146833880187121,0.12340679182131058,nan
1740790091.957227,0.0065987672824243376,0.1724176994835891,0.6237256399142702,0.1464600657795231,nan
1740790091.961133,0.03775122068454087,0.16027369435809383,0.6312269960467682,0.16815235659853014,nan
1740790091.965039,0.06758733743770304,0.14902814992994023,0.6371624051827202,0.18829482024304664,nan
1740790091.9689448,0.09582900920931106,0.13879137774211972,0.6415164619818596,0.20671423535816197,nan
1740790091.9728508,0.12221082540034918,0.1296605934139063,0.6442837024158048,0.2232547283275606,nan
1740790091.9767568,0.14648270563087656,0.12171899041419425,0.645468809735789,0.23777932413266806,nan
1740790091.9806628,0.16841240091008952,0.1150349722946963,0.6450867271472304,0.25017130727434905,nan
1740790091.9845686,0.18778783851575873,0.10966155098304367,0.6431626743101588,0.2603353789304435,nan
1740790091.9884746,0.20441928704363646,0.10563591693090957,0.6397320657889296,0.2681985985749512,nan
1740790091.9923806,0.21814131975875933,0.10297918504791408,0.6348403306115565,0.2737111004573213,nan
1740790091.9962866,0.2288145562715083,0.10169631844803756,0.6285426331572912,0.27684657761122733,nan
1740790092.0001934,0.236327164653533,0.1017762301117726,0.6209034966592306,0.27760252840855126,nan
1740790092.0040991,0.2405961083820907,0.10319206064460987,0.6119963316752839,0.2760002630724038,nan
1740790092.0080051,0.24156812493389182,0.10590162841121085,0.6019028729338705,0.27208466998866404,nan
1740790092.0119112,0.239220425417621,0.109848046464754,0.590712528988844,0.26592374408431024,nan
1740790092.0158172,0.23356110731282112,0.11496049889241516,0.5785216501096614,0.25760788194813344,nan
1740790092.019723,0.22462927514578412,0.1211551674797166,0.5654327207768043,0.24724895073099343,nan
1740790092.023629,0.2124948667533605,0.12833629797691226,0.5515534840380274,0.23497914015473534,nan
1740790092.027535,0.19725818563569947,0.13639739374699908,0.5369960057981179,0.2209496091579162,nan
1740790092.031441,0.17904914275082381,0.1452225232032148,0.5218756878539235,0.2053289407904987,nan
1740790092.0353467,0.1580262139297423,0.15468772621902444,0.5063102391387222,0.18830142091728916,nan
1740790092.0392528,0.13437512186265335,0.16466250362837329,0.49041861519775215,0.1700651580815889,nan
1740790092.0431588,0.10830725429746114,0.17501137304026848,0.4743199363728555,0.15083006349780828,nan
1740790092.0470653,0.0800578326748281,0.1855954734789222,0.4581323955230371,0.13081571156844896,nan
1740790092.0509713,0.049883847873721084,0.19627420083683345,0.44197216634427844,0.11024910254203923,nan
1740790092.0548773,0.018061782033844676,0.20690685579885584,0.4259523234728589,0.08936234993206177,nan
1740790092.0587833,-0.015114862466423712,0.21735428576452784,0.4101817855590648,0.0683903160920687,nan
1740790092.062689,-0.04933820388671823,0.22748050236523265,0.3947642923815517,0.04756821988118803,nan
1740790092.066595,-0.08428876717496951,0.23715425644176055,0.3797974268368477,0.027129240651308156,nan
1740790092.070501,-0.1196383890560421,0.24625055281408884,0.36537169228483735,0.007302142839185689,nan
1740790092.074407,-0.15505321482071843,0.25465208783391763,0.3515696552624173,-0.011691054747178931,nan
1740790092.0783129,-0.19019675853789383,0.2622505935551671,0.3384651629975612,-0.02963734129661105,nan
1740790092.082219,-0.22473299774683503,0.26894807337956483,0.3261226444700928,-0.04633488504407052,nan
1740790092.086125,-0.25832947330033296,0.2746579152230145,0.3145965029797332,-0.06159509093932474,nan
1740790092.090031,-0.2906603649277112,0.2793058695914497,0.30393060730393023,-0.07524452400896507,nan
1740790092.0939372,-0.3214095132702099,0.28283088143819834,0.29415788756605105,-0.08712667883458293,nan
1740790092.0978432,-0.35027335960888406,0.28518576628305137,0.2853000408981817,-0.0971035771185853,nan
1740790092.1017492,-0.376963775252476,0.28633772278940306,0.2773673508822314,-0.10505717704198532,nan
1740790092.1056552,-0.40121075357290015,0.2862686758017599,0.2703586235995203,-0.11089058001829856,nan
1740790092.109561,-0.42276493895918005,0.28497544572273,0.26426124192403944,-0.11452902249539926,nan
1740790092.113467,-0.4413999684947715,0.2824697420361452,0.25905133847062045,-0.11592064263216306,nan
1740790092.117373,-0.456914603933416,0.27877798074096183,0.25469408636877117,-0.11503701395726347,nan
1740790092.121279,-0.46913463353788076,0.2739409274278783,0.2511441057890906,-0.11187344048039656,nan
1740790092.1251848,-0.4779145255350397,0.26801316968632766,0.24834598291492485,-0.10644901014788533,nan
1740790092.1290908,-0.4831388173084489,0.26106242445242295,0.24623489684050956,-0.0988064059904053,nan
1740790092.1329968,-0.48472322697295495,0.25316868777785684,0.24473734870114025,-0.08901147677574989,nan
1740790092.1369028,-0.48261547663040466,0.24442323629537355,0.2437719862137868,-0.07715257142910874,nan
1740790092.140809,-0.4767958193654151,0.23492749135855895,0.24325051574024129,-0.06333964389238521,nan
1740790092.144715,-0.4672772648785473,0.2247917584237039,0.24307869299124846,-0.047703137438197526,nan
1740790092.148621,-0.4541055015434206,0.21413385570170157,0.24315738258022912,-0.030392659709446566,nan
1740790092.1525269,-0.43735851558615735,0.20307764742205459,0.2433836758195569,-0.011575461898780054,nan
1740790092.1564329,-0.4171459109917146,0.19175149820424825,0.24365205544032384,0.008565262508080578,nan
1740790092.1603389,-0.3936079366135943,0.18028666601068988,0.2438555953166915,0.029832242145894673,nan
1740790092.164245,-0.3669142297732995,0.1688156519487667,0.24388718279555274,0.052016136379230526,nan
1740790092.1681507,-0.33726228835607497,0.15747052578770823,0.24364075087753206,0.07489766765540952,nan
1740790092.1720567,-0.30487568601339793,0.1463812464512739,0.24301250727140933,0.09824985586416511,nan
1740790092.1759627,-0.2700020475449876,0.13567399693455665,0.2419021472541747,0.12184033190192747,nan
1740790092.1798687,-0.23291080382948515,0.12546955306882354,0.2402140373157308,0.14543370680445702,nan
1740790092.1837745,-0.19389074778116738,0.11588170532154875,0.23785835675125166,0.16879397221699438,nan
1740790092.1876807,-0.15324741470927072,0.10701575237057953,0.23475218468501793,0.1916869076228285,nan
1740790092.1915865,-0.11130031212820689,0.09896708453518589,0.23082052046510595,0.21388246965318117,nan
1740790092.1954925,-0.06838002549479191,0.0918198742882618,0.22599722595506744,0.2351571389548792,nan
1740790092.1993985,-0.024825227518467812,0.08564589002078694,0.22022587896206341,0.25529620049669005,nan
1740790092.2033045,0.01902038040889342,0.08050344799192534,0.2134605278743677,0.27409593384639347,nan
1740790092.2072103,0.062811165494667,0.07643651598745156,0.20566633852744104,0.29136569084295527,nan
1740790092.2111163,0.10620267003156954,0.07347398063961832,0.1968201253679591,0.30692983921265554,nan
1740790092.2150223,0.14885469753054636,0.07162908864843401,0.18691076012945457,0.32062955202390786,nan
1740790092.2189283,0.19043434918032537,0.07089907030484041,0.17593945246058226,0.33232442442959004,nan
1740790092.222834,0.23061898183665386,0.07126495176920143,0.16391989824537906,0.34189390089248306,nan
1740790092.2267401,0.26909905954792657,0.07269156052344337,0.15087829271166428,0.3492384980117137,nan
1740790092.2306461,0.3055808717001193,0.07512772631331151,0.13685320682510896,0.35428081014662255,nan
1740790092.2345533,0.33978909220218767,0.07850667775020599,0.12189532689854662,0.356966287248415,nan
1740790092.2384593,0.3714691557200081,0.08274663257232451,0.10606705879411367,0.3572637766371968,nan
1740790092.2423654,0.40038942878705114,0.08775157739529146,0.08944199954491967,0.3551658228789402,nan
1740790092.2462714,0.4263431556551672,0.09341223063608994,0.07210428065803502,0.3506887223992559,nan
1740790092.2501771,0.4491501609792127,0.0996071801937667,0.05414778876667194,0.343872331993421,nan
1740790092.2540832,0.46865829383258484,0.10620418543893602,0.0356752706614584,0.33477963292922364,nan
1740790092.2579892,0.4847446001035356,0.11306163112341493,0.016797331034195517,0.32349605486510874,nan
1740790092.2618952,0.49731621299897827,0.12003011899295572,-0.0023686675018881886,0.3101285662949074,nan
1740790092.265801,0.5063109541571971,0.12695418119023325,-0.02169979140702339,0.29480454065673245,nan
1740790092.269707,0.5116976407158407,0.13367409799119706,-0.04106879847140738,0.27767040958234146,nan
1740790092.273613,0.5134760965687768,0.14002780104335674,-0.06034546264576177,0.25889011699040065,nan
1740790092.277519,0.5116768689463815,0.1458528420856342,-0.07939794794624332,0.2386433898194145,nan
1740790092.2814262,0.5063606543397857,0.1509884061404942,-0.09809421725372351,0.2171238431319573,nan
1740790092.2853322,0.49761744063215263,0.1552773473924829,-0.11630346128734809,0.1945369390808775,nan
1740790092.289238,0.48556537507103703,0.15856822541347265,-0.1338975326396931,0.1710978207918681,nan
1740790092.293144,0.4703493703878318,0.16071731907185863,-0.15075236952134144,0.14702904356855656,nan
1740790092.29705,0.45213946391695253,0.16159059537647955,-0.16674939378060158,0.12255822695154964,nan
1740790092.300956,0.4311289469634184,0.16106561065966507,-0.18177686784204442,0.09791565204936044,nan
1740790092.3048618,0.40753228388923984,0.15903332189829755,-0.19573119544648468,0.07333182919700718,nan
1740790092.3087678,0.38158284241450124,0.15539978660583806,-0.20851815147451597,0.04903506137982592,nan
1740790092.3126738,0.3535304584382208,0.15008773059776645,-0.22005402669337745,0.025249028980892797,nan
1740790092.3165798,0.3236388602590562,0.14303796403141533,-0.23026667397890538,0.002190421268179289,nan
1740790092.3204856,0.2921829784010999,0.13421062743995968,-0.239096443425208,-0.01993336036739895,nan
1740790092.3243916,0.25944616831238665,0.12358625100801625,-0.24649699475721196,-0.04092640307635228,nan
1740790092.3282986,0.22571737399264555,0.11116661205961924,-0.2524359765969832,-0.06060636368901186,nan
1740790092.3322046,0.1912882611146557,0.09697537763255049,-0.2568955633934747,-0.07880640806322413,nan
1740790092.3361106,0.15645034842524902,0.08105852107863634,-0.2598728421957722,-0.09537698777480566,nan
1740790092.3400166,0.1214921661454039,0.06348450383824063,-0.2613800429192897,-0.11018743490361027,nan
1740790092.3439224,0.08669646973475235,0.04434421586770059,-0.2614446073088425,-0.12312735749300201,nan
1740790092.3478284,0.05233753674781051,0.023750670628368626,-0.2601090934272378,-0.13410782027321913,nan
1740790092.3517344,0.018678573593671807,0.0018384530515564285,-0.25743091417727065,-0.14306229741993542,nan
1740790092.3556404,-0.014030742172883416,-0.021237078549905093,-0.2534819100822405,-0.1499473864464559,nan
1740790092.3595462,-0.045556559841111476,-0.045300833070914204,-0.24834775828829347,-0.15474327477858452,nan
1740790092.3634522,-0.07568297130925168,-0.07015926357046331,-0.24212722149365,-0.1574539531105408,nan
1740790092.3673582,-0.10421392402622079,-0.09560187190738932,-0.23493124223718753,-0.1581071722628654,nan
1740790092.3712642,-0.1309749126246512,-0.12140292986697536,-0.2268818896744165,-0.15675414293256715,nan
1740790092.375171,-0.15581443305756668,-0.14732340316861078,-0.21811116761474109,-0.15346898041470672,nan
1740790092.379077,-0.1786051855102252,-0.17311306242833058,-0.20875969417272885,-0.14834789905574075,nan
1740790092.3829827,-0.19924501495484134,-0.1985127629633839,-0.19897526488112335,-0.14150816384491852,nan
1740790092.3868887,-0.21765758092262583,-0.22325687329273772,-0.1889113125080978,-0.1330868091333714,nan
1740790092.3907948,-0.23379275085793158,-0.24707583032999877,-0.17872527810047717,-0.12323913696471445,nan
1740790092.3947008,-0.24762671426487307,-0.26969879760451665,-0.1685769089237931,-0.1121370098798247,nan
1740790092.3986065,-0.2591618177290141,-0.2908564014016314,-0.15862649997576947,-0.09996695529708172,nan
1740790092.4025126,-0.2684261237665901,-0.3102835185012692,-0.14903309660009811,-0.08692810064407246,nan
1740790092.4064186,-0.2754726992921793,-0.327722088230445,-0.1399526764115548,-0.07322996030539584,nan
1740790092.4103246,-0.2803786422740525,-0.3429239208424964,-0.13153632925238876,-0.05909009713334262,nan
1740790092.4142303,-0.28324385783644196,-0.35565347380423107,-0.12392845422613236,-0.04473168272555086,nan
1740790092.4181364,-0.28418959764235846,-0.3656905674193822,-0.1172649929927255,-0.030380981889875227,nan
1740790092.4220428,-0.28335677882315247,-0.37283301134780256,-0.11167171845417218,-0.0162647876778675,nan
1740790092.4259489,-0.2809041009868988,-0.37689911399695997,-0.10726259771076406,-0.0026078340629702495,nan
1740790092.4298549,-0.2770059819138766,-0.37773004746485794,-0.1041382477241726,0.010369786240916532,nan
1740790092.433761,-0.27185033441237655,-0.37519204169821974,-0.10238450148697181,0.02245517118656636,nan
1740790092.4376667,-0.2656362084428319,-0.36917838279031256,-0.10207110167234094,0.03344509853852799,nan
1740790092.4415727,-0.2585713240057705,-0.35961119187009055,-0.10325053772832149,0.043148427699484924,nan
1740790092.4454787,-0.25086952141491903,-0.346442962816765,-0.10595704119556766,0.051388387874630945,nan
1740790092.4493847,-0.24274815642911096,-0.32965783905693136,-0.11020575267543757,0.058004727221255256,nan
1740790092.4532905,-0.23442546828637723,-0.3092726119481033,-0.11599207236767865,0.06285569889001842,nan
1740790092.4571965,-0.22611794896439336,-0.2853374257036478,-0.12329120444650446,0.06581986138158749,nan
1740790092.4611025,-0.2180377419800342,-0.2579361764480595,-0.1320579037651065,0.06679767240375362,nan
1740790092.4650085,-0.21039009873664186,-0.2271865957847595,-0.14222643148724545,0.06571285740368873,nan
1740790092.468915,-0.20337091983340258,-0.193240012185696,-0.15371072425775043,0.06251353614906088,nan
1740790092.4728208,-0.19716440787222744,-0.15628078654604644,-0.16640477945971274,0.05717309311949746,nan
1740790092.4767268,-0.19194085714232909,-0.11652542135988737,-0.18018325698422516,0.04969078002349367,nan
1740790092.4806328,-0.18785460414232383,-0.0742213461344313,-0.19490229577877305,0.04009204145059338,nan
1740790092.4845388,-0.18504216122804576,-0.029645384841135144,-0.21040054126346236,0.028428557478363134,nan
1740790092.4884446,-0.1836205537679313,0.016898085629076683,-0.22650037753142613,0.014777999950530057,nan
1740790092.4923506,-0.18368587906559905,0.06507927391304667,-0.2430093561022819,-0.0007564979018648821,nan
1740790092.4962566,-0.18531210299227135,0.11454539437900459,-0.2597218108968734,-0.01804715583990345,nan
1740790092.5001626,-0.18855010778317297,0.16492335099198024,-0.276420647068881,-0.03694263935683262,nan
1740790092.5040684,-0.1934270018169834,0.21582266393184485,-0.29287928938518293,-0.05726942218629308,nan
1740790092.5079744,-0.1999456994422433,0.2668386154029532,-0.30886377401218906,-0.07883340709506995,nan
1740790092.5118804,-0.20808477606734915,0.31755558861297967,-0.324134965859304,-0.10142179067660567,nan
1740790092.5157866,-0.21779860082017877,0.36755057165353977,-0.33845088207165186,-0.12480515518139344,nan
1740790092.5196927,-0.2290177461390781,0.41639679601094887,-0.3515691008694046,-0.14873976788846335,nan
1740790092.5235987,-0.24164967070908602,0.46366747769415634,-0.3632492337164724,-0.17297006616524305,nan
1740790092.5275047,-0.25557966923601083,0.5089396275084318,-0.37325543778130965,-0.19723130420643792,nan
1740790092.5314105,-0.27067207968634516,0.5517978958452188,-0.381358944839785,-0.22125233550969275,nan
1740790092.5353165,-0.28677173584276944,0.5918384165154219,-0.3873405821753611,-0.2447585034581358,nan
1740790092.5392225,-0.3037056503617972,0.6286726136371136,-0.3909932606640904,-0.26747461095666464,nan
1740790092.5431285,-0.32128491099994466,0.6619309354081667,-0.39212440509801433,-0.2891279389266322,nan
1740790092.5470343,-0.33930677032403567,0.6912664787553041,-0.39055830190504914,-0.3094512826166115,nan
1740790092.5509403,-0.35755690706484383,0.7163584693561689,-0.38613833976893924,-0.3281859741462471,nan
1740790092.5548463,-0.37581183533411144,0.7369155623794249,-0.3787291192393466,-0.3450848594741773,nan
1740790092.5587523,-0.3938414362241779,0.7526789304757496,-0.36821840824763397,-0.359915198074876,nan
1740790092.5626583,-0.41141158486547924,0.7634251070725135,-0.35451892150392766,-0.3724614540250946,nan
1740790092.5665643,-0.4282868448461628,0.7689685548665517,-0.3375699030387919,-0.382527947937257,nan
1740790092.5704703,-0.44423320101348807,0.7691639315589364,-0.31733849265944414,-0.3899413402304946,nan
1740790092.574376,-0.459020801089062,0.7639080273164945,-0.29382085880460995,-0.39455291759252603,nan
1740790092.578282,-0.4724266762469635,0.7531413511571375,-0.2670430821905998,-0.3962406561467158,nan
1740790092.5821881,-0.48423741083006244,0.7368493464175779,-0.23706177672868625,-0.39491103678485595,nan
1740790092.5860941,-0.4942517317167852,0.7150632186475571,-0.20396443644311418,-0.39050059034091905,nan
1740790092.59,-0.5022829884966288,0.6878603626569372,-0.16786949951114458,-0.3829771527449341,nan
1740790092.593906,-0.5081614965631169,0.6553643789913242,-0.1289261230609147,-0.37234081298731125,nan
1740790092.597812,-0.5117367164797155,0.6177446737968578,-0.0873136649775324,-0.3586245396179668,nan
1740790092.6017177,-0.5128792445066804,0.5752156398223662,-0.04324087165958912,-0.3418944745749605,nan
1740790092.6056237,-0.5114825909809237,0.5280354201628388,0.0030552265870722353,-0.32224988635533264,nan
1740790092.6095312,-0.5074647253002263,0.4765042602368555,0.05131070805902241,-0.29982277787637507,nan
1740790092.6134372,-0.5007693685580852,0.4209624573760818,0.10123643283422054,-0.2747771477967492,nan
1740790092.617343,-0.49136701738435223,0.36178792125089787,0.15251998663515076,-0.24730790754099144,nan
1740790092.621249,-0.47925568524548035,0.29939336212627954,0.2048278826896414,-0.21763945976429583,nan
1740790092.625155,-0.46446135032053426,0.23422312760015115,0.25780800627724465,-0.18602394747289366,nan
1740790092.629061,-0.44703810206702566,0.1667497119872553,0.3110922841246408,-0.15273918644452913,nan
1740790092.6329668,-0.4270679816947216,0.09746996584078477,0.36429955841525613,-0.11808629693924295,nan
1740790092.6368728,-0.4046605149449113,0.02690103621857072,0.4170386429302098,-0.0823870539192723,nan
1740790092.6407788,-0.3799519387955908,-0.04442392883066367,0.4689115367627999,-0.04598097807548625,nan
1740790092.6446848,-0.35310412694709364,-0.11596027549209859,0.5195167691686386,-0.00922219285461676,nan
1740790092.6485906,-0.32430322215522095,-0.18715650076065174,0.5684528474483758,0.02752392463356555,nan
1740790092.6524966,-0.29375798663709884,-0.25745903004361864,0.6153217783280601,0.06388426850564732,nan
1740790092.6564038,-0.26169788484640566,-0.32631707385014913,0.6597326321200078,0.0994816722895968,nan
1740790092.6603098,-0.22837091586744288,-0.3931875203792107,0.7013051180289261,0.13393868601816414,nan
1740790092.6642156,-0.19404121548092795,-0.45753981995198667,0.7396731383260409,0.16688142626963054,nan
1740790092.6681216,-0.1589864505787867,-0.5188608167638575,0.7744882887577583,0.19794346195252596,nan
1740790092.6720276,-0.12349503102262623,-0.5766594833636666,0.8054232724921523,0.2267696977355859,nan
1740790092.6759336,-0.08786316622474322,-0.6304715136088521,0.8321751951408288,0.25302021648853734,nan
1740790092.6798394,-0.05239179565753074,-0.6798637305953572,0.8544687089273818,0.27637404193238907,nan
1740790092.6837454,-0.017383424145260735,-0.7244382672185006,0.8720589749058659,0.2965327829055833,nan
1740790092.6876514,0.01686110585762185,-0.7638364785787364,0.8847344132599368,0.31322412123679805,nan
1740790092.6915574,0.05004587176150784,-0.7977425473944274,0.892319213129121,0.32620510617505266,nan
1740790092.6954632,0.08188312416120003,-0.8258867459085659,0.8946755751041751,0.3352652196579976,nan
1740790092.6993692,0.11209650166022132,-0.8480483204603902,0.8917056614968705,0.34022917839143735,nan
1740790092.7032762,0.14042417285339412,-0.8640579679152405,0.8833532317066167,0.34095944075495876,nan
1740790092.7071822,0.1666218714423817,-0.8737998764825777,0.8696049424602786,0.33735838892461206,nan
1740790092.7110882,0.19046579112808826,-0.8772133070756611,0.8504912953733694,0.3293701592949288,nan
1740790092.714994,0.2117553079375452,-0.8742936952466774,0.8260872171490897,0.3169820972670848,nan
1740790092.7189,0.23031549899452086,-0.8650932578355564,0.7965122607732514,0.30022581572272744,nan
1740790092.722806,0.24599942842234904,-0.8497210927639576,0.7619304192527165,0.27917783999586376,nan
1740790092.726712,0.25869017306087594,-0.8283427648510132,0.7225495467558238,0.2539598258579778,nan
1740790092.7306178,0.26830256297035593,-0.8011793750853304,0.6786203854172842,0.22473834091138206,nan
1740790092.7345238,0.27478461426379164,-0.7685061154183288,0.6304351995377185,0.19172420380805488,nan
1740790092.7384298,0.27811863463294023,-0.7306503158058706,0.5783260224092394,0.1551713798394915,nan
1740790092.7423358,0.2783219849867356,-0.6879889948764472,0.5226625245023477,0.11537543563958967,nan
1740790092.7462416,0.2754474838762861,-0.6409459302026544,0.46384951522459356,0.07267155996859598,nan
1740790092.7501485,0.26958344480794805,-0.5899882686562855,0.40232409387672213,0.027432161762184226,nan
1740790092.7540545,0.2608533401132105,-0.5356227016944146,0.3385524687561107,-0.01993593920385661,nan
1740790092.7579603,0.2494150887176862,-0.4783912346136703,0.2730264665596086,-0.06899470960577057,nan
1740790092.7618663,0.2354599688963356,-0.41886658278300104,0.20625975728847395,-0.11927846444466791,nan
1740790092.7657723,0.21921116088230555,-0.3576472315837562,0.1387838227280493,-0.17029776634219593,nan
1740790092.7696784,0.2009219279756472,-0.29535220021396946,0.07114369923657057,-0.22154363152354475,nan
1740790092.7735841,0.1808734485389175,-0.23261555261785272,0.0038935280050209635,-0.27249200841440974,nan
1740790092.7774901,0.15937231493212348,-0.17008070155063512,-0.06240805188100016,-0.3226084917140714,nan
1740790092.7813962,0.13674771899334853,-0.10839455415521816,-0.1272026303580098,-0.371353232047399,nan
1740790092.785302,0.11334834707767985,-0.0482015493857842,-0.1899368344726972,-0.41818599887325614,nan
1740790092.789208,0.08953901089124008,0.009862360856753082,-0.25006717756420027,-0.4625713522617069,nan
1740790092.793114,0.06569704336585305,0.06517573392927296,-0.3070649085264545,-0.5039838774707364,nan
1740790092.7970204,0.04220849158169487,0.1171376084197671,-0.36042081954433436,-0.5419134349746365,nan
1740790092.8009264,0.01946414123081473,0.16517337216516406,-0.40964997045913004,-0.5758703777370782,nan
1740790092.8048325,-0.002144590703394932,0.20874047291182132,-0.4542962880407987,-0.6053906870946747,nan
1740790092.8087385,-0.0222298565211638,0.24733391901611468,-0.49393699892930626,-0.630040978630233,nan
1740790092.8126442,-0.040411631600680904,0.28049151885581697,-0.5281868558551078,-0.6494233298735882,nan
1740790092.8165503,-0.05632198023876827,0.30779880936297815,-0.5567021179559106,-0.6631798825725406,nan
1740790092.8204563,-0.06960929160916549,0.3288936262844483,-0.5791842475668423,-0.670997173623573,nan
1740790092.8243623,-0.07994244354789,0.34347027141138986,-0.5953832877641468,-0.6726101505341374,nan
1740790092.828268,-0.08701485191492007,0.3512832350746296,-0.6051008871758181,-0.6678058294937694,nan
1740790092.832174,-0.09054836372687788,0.35215043565486426,-0.6081929411202126,-0.6564265567446763,nan
1740790092.83608,-0.09029695310675372,0.3459559416784794,-0.6045718209769514,-0.6383728369441163,nan
1740790092.839986,-0.08605018035033678,0.3326521462302824,-0.5942081668118063,-0.6136056955779203,nan
1740790092.8438926,-0.07763637605745298,0.3122613678799002,-0.5771322216446497,-0.5821485461900505,nan
1740790092.8477986,-0.06492551430810489,0.28487685705204485,-0.55343468934046,-0.5440885372072145,nan
1740790092.8517044,-0.047831741264141296,0.2506631917327509,-0.5232671018891205,-0.49957735742723713,nan
1740790092.8556104,-0.02631552832754029,0.20985605155222187,-0.48684168578968173,-0.4488314837691248,nan
1740790092.8595164,-0.00038542206466552647,0.16276136457625137,-0.4444307213365955,-0.3921318596133954,nan
1740790092.8634224,0.029900633513398826,0.10975382652697735,-0.39636539278535393,-0.3298229969525657,nan
1740790092.8673282,0.06443442306959678,0.051274797593395316,-0.34303413161815727,-0.2623115005816032,nan
1740790092.8712342,0.10305705131648618,-0.012170412564677551,-0.28488045940089507,-0.19006401764270847,nan
1740790092.8751402,0.1455590124001394,-0.08001585561633594,-0.22240034098460135,-0.11360462095339749,nan
1740790092.8790462,0.19168074576484798,-0.15163882985269572,-0.1561390630211536,-0.03351163964595005,nan
1740790092.882952,0.2411136825575177,-0.22636431349439048,-0.08668765689788104,0.049586044315758845,nan
1740790092.886858,0.29350178212198647,-0.30346991455079403,-0.014678889212966582,0.13501321024468416,nan
1740790092.8907645,0.3484435535708656,-0.3821913010145237,0.05921715322224262,0.2220529951871716,nan
1740790092.8946702,0.40549455284753777,-0.46172807069395816,0.13429785319084087,0.30995203986624686,nan
1740790092.8985763,0.4641703411460395,-0.5412500158197274,0.20983319356777416,0.39792604690393135,nan
1740790092.9024823,0.5239498860840093,-0.619903733746848,0.2850711911813303,0.48516571004735287,nan
1740790092.9063883,0.5842793826658444,-0.6968195316480414,0.3592435937880535,0.5708429693731786,nan
1740790092.910294,0.6445764668710817,-0.7711185700882908,0.43157179729332423,0.6541175440480245,nan
1740790092.9142,0.7042347906970816,-0.8419201878147846,0.5012729380652543,0.7341436912121444,nan
1740790092.918106,0.7626289237143005,-0.9083493480152925,0.5675661132595303,0.8100771369598334,nan
1740790092.922012,0.8191195426937733,-0.9695441447129419,0.6296786805165498,0.8810821232391468,nan
1740790092.9259179,0.8730588676748021,-1.0246633068932598,0.6868525872257336,0.9463385128084714,nan
1740790092.9298239,0.9237962999885868,-1.0728936374128502,0.7383506787881557,1.005048893186977,nan
1740790092.93373,0.9706842152701366,-1.1134573237262968,0.7834629349571631,1.056445619834774,nan
1740790092.937636,1.013083862402688,-1.1456190579922205,0.8215125834035366,1.099797738606884,nan
1740790092.941542,1.0503713176689724,-1.1686929051797867,0.8518620401395292,1.1344177278489442,nan
1740790092.9454477,1.0819434421513747,-1.1820488593874472,0.8739186273438653,1.1596680013432357,nan
1740790092.9493537,1.107223789643868,-1.1851190306957984,0.8871400204528554,1.1749671146679936,nan
1740790092.9532597,1.1256684120240534,-1.1774034074911235,0.8910393781130916,1.17979561939334,nan
1740790092.9571657,1.1367715091911277,-1.1584751422958863,0.8851901107171044,1.1737015118913747,nan
1740790092.9610715,1.1400708713081977,-1.1279853127033397,0.8692302457498073,1.1563052263692566,nan
1740790092.9649775,1.1351530621940316,-1.0856671130075506,0.8428663510421648,1.1273041250217268,nan
1740790092.9688835,1.121658294284533,-1.0313394365156934,0.8058769802377648,1.0864764419181774,nan
1740790092.9727895,1.099284947618221,-0.9649098132909091,0.7581156083032999,1.0336846413602714,nan
1740790092.9766953,1.0677936877789105,-0.8863766731626567,0.6995130287280203,0.9688781559363759,nan
1740790092.9806013,1.0270111406343474,-0.7958309092154382,0.6300791881300548,0.892095474322641,nan
1740790092.9845073,0.9768330850198739,-0.6934567225815864,0.5499044382868521,0.8034655539981348,nan
1740790092.9884133,0.9172271282051797,-0.5795317351728607,0.4591601900985166,0.7032085394109541,nan
1740790092.992319,0.848234833020479,-0.4544263629401892,0.35809895864029134,0.5916357717091673,nan
1740790092.996225,0.7699732698730472,-0.3186024483010634,0.24705379322634816,0.46914908188823806,nan
1740790093.0001311,0.6826359715200997,-0.17261115646876862,0.12643709125243463,0.33623936505698926,nan
1740790093.0040371,0.5864932733406758,-0.017090146505132516,-0.00326120052975518,0.19348443943773347,nan
1740790093.007943,0.4818920269263829,0.14723996605287723,-0.14147598876861578,0.04154619964264486,nan
1740790093.011849,0.3692546800452901,0.319579832224128,-0.28757002691686595,-0.11883292034291495,nan
1740790093.015755,0.24907772137992942,0.4990562497460488,-0.44083748113823507,-0.2868341532390956,nan
1740790093.019661,0.12192949385301388,0.6847276662965313,-0.600508045927855,-0.4615672467194063,nan
1740790093.0235667,-0.011552614214059367,0.8755902664139981,-0.7657515821739205,-0.6420759214605023,nan
1740790093.0274727,-0.1506655854623175,1.0705845977702408,-0.9356832461014205,-0.8273439013876177,nan
1740790093.0313814,-0.294644777402365,1.2686026878135834,-1.1093690734851105,-1.0163014735514153,nan
1740790093.0352871,-0.4426684886920568,1.468495597550635,-1.2858319797326032,-1.2078325304388884,nan
1740790093.0391932,-0.5938630575776879,1.6690813554105828,-1.4640581329517182,-1.4007820432536613,nan
1740790093.0430992,-0.7473084574761326,1.8691532107703035,-1.6430036539588995,-1.5939639108377137,nan
1740790093.0470052,-0.9020443501193182,2.0674881438413704,-1.8216015943845547,-1.786169125481803,nan
1740790093.050911,-1.0570765524276338,2.262855566257039,-1.998769141611018,-1.976174193916933,nan
1740790093.054817,-1.2113838693645425,2.4540261448698435,-2.1734149972604286,-2.1627497493211125,nan
1740790093.058723,-1.363925241487327,2.6397806799954373,-2.3444468743511124,-2.344669288237444,nan
1740790093.062629,-1.5136471527818316,2.8189189686278397,-2.510779057076332,-2.5207179648998275,nan
1740790093.0665348,-1.6594912416822027,2.990268583012731,-2.6713399664393886,-2.689701374615252,nan
1740790093.0704408,-1.8004020559562577,3.1526934954012655,-2.825079674711046,-2.8504542575660925,nan
1740790093.0743468,-1.9353348904052998,3.3051024808147216,-2.9709773118625544,-3.001849054676638,nan
1740790093.0782537,-2.063263645102184,3.446457231222735,-3.1080483077696215,-3.14280424803465,nan
1740790093.0821598,-2.1831886411867307,3.575780116662814,-3.235351415075393,-3.272292419766271,nan
1740790093.0860658,-2.2941443310625207,3.6921615314893876,-3.351995459135848,-3.389347965220593,nan
1740790093.0899718,-2.3952068401981603,3.7947667671152936,-3.457145763437271,-3.493074398814363,nan
1740790093.0938776,-2.4855012786292017,3.882842356271473,-3.5500302012573286,-3.582651193897691,nan
1740790093.0977836,-2.564208761679389,3.955721837931734,-3.629944827120178,-3.6573401015049054,nan
1740790093.1016896,-2.6305730813621215,4.012830896594492,-3.6962590447495303,-3.716490896822226,nan
1740790093.1055956,-2.6839069723712394,4.05369183454506,-3.7484202717267614,-3.7595465066038294,nan
1740790093.1095014,-2.723597919505641,4.077927340999024,-3.785958064885758,-3.786047475563988,nan
1740790093.1134074,-2.7491134567723026,4.08526352760587,-3.808487674591153,-3.7956357349259657,nan
1740790093.1173134,-2.7600059122496448,4.075532205625387,-3.815713000419004,-3.7880576417756737,nan
1740790093.1212194,-2.755916557037287,4.048672386129171,-3.807428925352923,-3.7631662636042864,nan
1740790093.1251261,-2.736579121234199,4.0047309907748865,-3.783523010387342,-3.7209228883817556,nan
1740790093.1290321,-2.7018226448372595,3.943862767000174,-3.7439765363535487,-3.6613977466322547,nan
1740790093.132938,-2.651573636695219,3.866329407833523,-3.688864884813964,-3.5847699382325575,nan
1740790093.136844,-2.585857520145319,3.7724978828677487,-3.618357254964218,-3.491326562972244,nan
1740790093.14075,-2.5047993496553023,3.6628379932349753,-3.5327157186000155,-3.3814610602481987,nan
1740790093.144656,-2.4086237886443653,3.537919169607423,-3.4322936203044954,-3.255670769561537,nan
1740790093.1485617,-2.2976543446131705,3.398406538274323,-3.3175333350504945,-3.114553729690422,nan
1740790093.1524677,-2.172311863725087,3.245056286161475,-3.188963400349829,-2.958804740475072,nan
1740790093.1563737,-2.0331122929968566,3.078710361217919,-3.047195044878223,-2.789210717020755,nan
1740790093.1602798,-1.880663724225991,2.900290549847673,-2.8929181401210706,-2.6066453717515,nan
1740790093.1641855,-1.7156627396529545,2.7107919779698992,-2.7268966059843094,-2.4120632650845937,nan
1740790093.1680915,-1.5388900850785554,2.511276086807519,-2.5499633054609534,-2.20649327049885,nan
1740790093.1719997,-1.3512057016816443,2.302863138595162,-2.3630144673037607,-1.9910315043964764,nan
1740790093.1759055,-1.1535431530617075,2.08672431102862,-2.167003679197267,-1.7668337753703534,nan
1740790093.1798115,-0.946903489019732,1.86407344242031,-1.9629354971196835,-1.5351076112508424,nan
1740790093.1837175,-0.7323485922457258,1.6361584921530665,-1.7518587194115787,-1.2971039255874826,nan
1740790093.1876235,-0.5109940583621637,1.4042527831170728,-1.5348593765017327,-1.0541083879941728,nan
1740790093.1915293,-0.2840016636424405,1.1696460943554676,-1.3130534892619805,-0.80743256502893,nan
1740790093.1954353,-0.052571478148336376,0.9336356731215201,-1.0875796505570596,-0.5584048999729161,nan
1740790093.1993413,0.18206631501905027,0.6975172359574625,-0.8595914857103288,-0.30836160100463816,nan
1740790093.2032473,0.4186598312103504,0.4625760282402123,-0.6302500483138416,-0.058637507825534264,nan
1740790093.207153,0.6559440613880113,0.23007801090518423,-0.40071620806697855,0.18944299322135788,nan
1740790093.211059,0.8926495484927319,0.001261241764102385,-0.17214308713121074,0.43457493608592673,nan
1740790093.214965,1.127511095714834,-0.22267248301138276,0.05433139915742218,0.67548155570058,nan
1740790093.218873,1.3592764390887895,-0.4405656640440291,0.27759184246492785,0.9109228158388459,nan
1740790093.2227788,1.586714817110101,-0.651312750232497,0.4965524292922164,1.1397036198100823,nan
1740790093.2266848,1.8086253709135978,-0.8538673496184372,0.7101637651694895,1.36068164243119,nan
1740790093.2305908,2.0238453099442557,-1.0472489465206603,0.9174193862559112,1.572774724986217,nan
1740790093.2344968,2.231257779983888,-1.2305490760608424,1.1173619121062097,1.7749677786219245,nan
1740790093.2384026,2.4297993728532044,-1.4029369118309079,1.3090887964393951,1.9663191457991855,nan
1740790093.2423086,2.618467220067704,-1.5636642274200412,1.4917576361470415,2.1459663739899453,nan
1740790093.2462146,2.7963256161624366,-1.7120696977861927,1.6645910024802764,2.3131313607378723,nan
1740790093.2501206,2.962512121285276,-1.847582511977086,1.8268807623238363,2.467124834444882,nan
1740790093.2540264,3.116243096957776,-1.9697252744317557,1.9779918616683954,2.607350140760449,nan
1740790093.2579324,3.2568186335799663,-2.078116177976091,2.117365547793174,2.7333063101883552,nan
1740790093.2618384,3.3836268332704615,-2.1724704376145967,2.244522011232304,2.8445903884372616,nan
1740790093.2657447,3.4961474169429887,-2.2526009802644578,2.359062433282169,2.940899017076608,nan
1740790093.2696507,3.5939546300792777,-2.318418391625746,2.4606704295737396,3.0220292581664445,nan
1740790093.2735565,3.676719427418628,-2.3699301273821356,2.5491128850440234,3.0878786626571344,nan
1740790093.2774625,3.7442109226968014,-2.4072390018293426,2.6242401804541675,3.1384445884504224,nan
1740790093.2813685,3.7962970955809148,-2.430540972784241,2.6859858153788414,3.1738227800259886,nan
1740790093.2852745,3.83294475401082,-2.440122247188394,2.7343654372929618,3.1942052274166937,nan
1740790093.2891803,3.8542187562197396,-2.4363557371395377,2.7694752909692504,3.199877328012259,nan
1740790093.2930863,3.8602805027155633,-2.419696901119691,2.7914901068363567,3.1912143801377315,nan
1740790093.2969923,3.85138571440838,-2.3906790098980957,2.8006604511965065,3.1686774425446975,nan
1740790093.3008983,3.827881518819089,-2.3499078809329452,2.797309565229949,3.1328085988271397,nan
1740790093.304804,3.7902028718498126,-2.2980561290434487,2.78182972348902,3.0842256702905653,nan
1740790093.30871,3.738868347892367,-2.2358569846418783,2.7546781460777,3.0236164249260713,nan
1740790093.312616,3.674475336051598,-2.1640977338769316,2.7163725018963176,2.951732333837634,nan
1740790093.3165221,3.597694684924232,-2.083612837621841,2.6674860431810576,2.8693819297120946,nan
1740790093.3204281,3.50926484266196,-1.9952767883243816,2.608642414063266,2.7774238246822263,nan
1740790093.324334,3.4099855429243293,-1.8999967653070078,2.5405101779956785,2.67675944719323,nan
1740790093.32824,3.3007110907608403,-1.7987051501538598,2.4637971106272585,2.568325559225982,nan
1740790093.332146,3.1823433054244354,-1.6923519643420952,2.379244306043498,2.4530866164446237,nan
1740790093.336052,3.0558241795867467,-1.581897291267359,2.287620145217113,2.3320270345148,nan
1740790093.3399577,2.922128316379478,-1.4683037442810276,2.1897141760304706,2.2061434249797176,nan
1740790093.3438637,2.782255207111616,-1.3525290413087856,2.0863309543349327,2.0764368636866366,nan
1740790093.3477697,2.6372214133983873,-1.2355187450689156,1.9782838952062525,1.9439052538335342,nan
1740790093.3516757,2.4880527177797234,-1.118199225871652,1.8663891828451977,1.8095358442660627,nan
1740790093.3555815,2.3357763067028987,-1.0014709014794672,1.7514597864683181,1.674297961714692,nan
1740790093.359489,2.181413048999969,-0.8862018055673183,1.6342996280478825,1.5391360132413392,nan
1740790093.363395,2.025969931714536,-0.7732215329707156,1.5156979459085405,1.4049628122882973,nan
1740790093.3673007,1.8704327133378353,-0.6633156061801662,1.396423895990129,1.2726532784180502,nan
1740790093.3712068,1.7157588522188671,-0.5572203034685085,1.2772214300630236,1.143038557132446,nan
1740790093.3751128,1.562870765139882,-0.45561798466098846,1.1588044873590158,1.0169006020986837,nan
1740790093.3790188,1.4126494678230581,-0.359132945917074,1.0418525329835628,0.8949672577256524,nan
1740790093.3829246,1.2659286454871745,-0.2683278300305977,0.9270064731334257,0.7779078753678998,nan
1740790093.3868306,1.123489197538201,-0.18370061371488217,0.8148649735879768,0.6663294915286655,nan
1740790093.3907366,0.9860542960920621,-0.10568218816753792,0.7059812042051974,0.5607735913325287,nan
1740790093.3946426,0.8542849933315068,-0.03463454395173316,0.6008600282682944,0.46171347528833934,nan
1740790093.3985484,0.7287764077344859,0.029150434066389376,0.4999556515306995,0.3695522420111373,nan
1740790093.4024544,0.610054514023576,0.08545156127431322,0.40366974173124165,0.28462139416526006,nan
1740790093.4063616,0.49857355632120487,0.13411834215024412,0.3123500252333943,0.20718006947756287,nan
1740790093.4102676,0.3947140985016003,0.17507036330469922,0.22628936331835603,0.13741489329685525,nan
1740790093.4141736,0.29878172015635657,0.20829610564516915,0.1457253065670131,0.0754404438901827,nan
1740790093.4180794,0.21100636098540648,0.23385119539160257,0.07084012173542688,0.021300316513861235,nan
1740790093.4219854,0.1315423108383664,0.2518561182537486,0.001761281596587294,-0.025031232678642767,nan
1740790093.4258914,0.06046883711152199,0.26249342540055265,-0.061437595579308286,-0.06364708658666911,nan
1740790093.4297974,-0.0022085641988229096,0.26600446387145116,-0.11873537387135519,-0.09470453916270284,nan
1740790093.4337032,-0.056556312728546256,0.2626856677668479,-0.1701616152912956,-0.11842207185728779,nan
1740790093.4376092,-0.10271030724100971,0.25288444988107095,-0.215794406738026,-0.13507567077378219,nan
1740790093.4415152,-0.1408729371486595,0.23699473637978535,-0.25575782493547516,-0.14499472430759847,nan
1740790093.4454212,-0.17130957531921234,0.21545218965297414,-0.2902190686744777,-0.1485575441645402,nan
1740790093.449327,-0.1943445895915046,0.1887291665758974,-0.3193852900974399,-0.1461865553594869,nan
1740790093.4532342,-0.21035691422996294,0.15732946106946746,-0.3435001588745988,-0.13834320306982492,nan
1740790093.45714,-0.21977522595639837,0.12178288105800504,-0.362840194907431,-0.12552262604170927,nan
1740790093.461046,-0.22307277218598467,0.08263971067019961,-0.3777109066461974,-0.10824814760950645,nan
1740790093.464952,-0.2207619016371993,0.04046510881627245,-0.3884427732157246,-0.08706563628200267,nan
1740790093.468858,-0.2133883495637785,-0.00416650489691884,-0.3953871093003776,-0.06253778826975742,nan
1740790093.4727638,-0.20152533145511406,-0.0506770265745997,-0.39891185214311575,-0.03523838427725805,nan
1740790093.4766698,-0.18576750015918442,-0.09849015749379951,-0.39939731006489937,-0.005746572366383917,nan
1740790093.4805758,-0.16672482199273259,-0.14703675883444103,-0.39723191161307697,0.02535877227655322,nan
1740790093.4844818,-0.14501642751507274,-0.19576002580517468,-0.39280799380733217,0.057504561255959936,nan
1740790093.4883876,-0.12126449225727613,-0.2441204375788224,-0.3865176669788736,0.09012883299465047,nan
1740790093.4922936,-0.09608820182457804,-0.29160044210740643,-0.378748792405232,0.12268587355460625,nan
1740790093.4961996,-0.07009785443816338,-0.3377088378777363,-0.3698811073444329,0.1546510755627237,nan
1740790093.5001063,-0.04388915216853691,-0.3819848179647828,-0.3602825301862504,0.18552549553833164,nan
1740790093.5040123,-0.01803772985633491,-0.4240016453084769,-0.35030567628469134,0.21484007322702153,nan
1740790093.5079184,0.006906031958871644,-0.46336993194495196,-0.34028461263729126,0.2421594801426464,nan
1740790093.5118241,0.03042186684819701,-0.4997404989284158,-0.3305318769573357,0.26708556837055236,nan
1740790093.5157301,0.052024115215978925,-0.5328067978463609,-0.32133578387089745,0.28926039475263077,nan
1740790093.5196362,0.07126581386534579,-0.5623068791189816,-0.3129580379889809,0.30836879981922943,nan
1740790093.5235422,0.08774235038352865,-0.5880248966430568,-0.3056316704849073,0.3241405252139147,nan
1740790093.527448,0.10109465462267883,-0.6097921427505019,-0.2995593125779307,0.33635185783296573,nan
1740790093.531354,0.11101190406234471,-0.6274876118614645,-0.294911816016385,0.3448267934305088,nan
1740790093.53526,0.11723372451928561,-0.6410380955809611,-0.2918272272981255,0.34943771698018145,nan
1740790093.539166,0.11955187247503905,-0.6504178162769938,-0.2904101189934961,0.35010560159353293,nan
1740790093.5430717,0.11781139017713244,-0.6556476103483878,-0.29073127817730504,0.3467997322327896,nan
1740790093.5469785,0.1119112295910197,-0.6567936764052397,-0.29282774866150385,0.33953696478115647,nan
1740790093.5508845,0.10180434619164329,-0.6539659074085888,-0.2967032204790712,0.328380535208766,nan
1740790093.5547903,0.08749726844138743,-0.6473158294156486,-0.3023287569305573,0.3134384375598159,nan
1740790093.5586963,0.06904915356119046,-0.6370341729218502,-0.3096438464952267,0.29486139325147165,nan
1740790093.5626023,0.04657034482108952,-0.6233481058529873,-0.3185577640546755,0.2728404376852608,nan
1740790093.5665083,0.020220450014383464,-0.6065181600146543,-0.3289512232024254,0.24760415339712352,nan
1740790093.570414,-0.009794035003245964,-0.5868348852298805,-0.34067829894064794,0.2194155818860895,nan
1740790093.57432,-0.04322252986874624,-0.5646152674704256,-0.3535685978151796,0.18856884883988,nan
1740790093.578226,-0.07977356885224156,-0.5401989489972874,-0.36742965053035503,0.1553855396982506,nan
1740790093.582132,-0.11911836072997435,-0.5139442898595838,-0.38204950033163065,0.1202108643444697,nan
1740790093.5860379,-0.16089467154332657,-0.4862243110499162,-0.3971994589596232,0.08340965117883732,nan
1740790093.589944,-0.20471098978048105,-0.4574225601738532,-0.41263700077467647,0.04536221189577133,nan
1740790093.5938504,-0.25015093129729515,-0.42792894066046006,-0.4281087647342703,0.006460118952079891,nan
1740790093.5977564,-0.29677783948847036,-0.398135545322428,-0.44335363328168925,-0.03289806202354075,nan
1740790093.6016622,-0.3441395348423713,-0.3684325344746349,-0.4581058568758926,-0.07231104276919152,nan
1740790093.6055682,-0.3917731670722785,-0.33920409784876077,-0.47209819285908944,-0.11137904430180422,nan
1740790093.6094742,-0.4392101225186376,-0.3108245382118692,-0.4850650276172458,-0.1497079495506505,nan
1740790093.6133802,-0.4859809394620662,-0.2836545129252574,-0.4967454515339186,-0.18691333735781337,nan
1740790093.617286,-0.5316201843725638,-0.2580374676856236,-0.5068862570612802,-0.22262436014678724,nan
1740790093.621192,-0.5756712429393739,-0.2342962943960974,-0.5152448313231601,-0.2564874295549786,nan
1740790093.625098,-0.6176909809673764,-0.21273024254477257,-0.5215919160105058,-0.28816967663707427,nan
1740790093.629004,-0.6572542318747543,-0.19361211065024087,-0.52571420891442,-0.31736215584886557,nan
1740790093.6329098,-0.6939580695645412,-0.17718574129668335,-0.5274167832486798,-0.3437827648874855,nan
1740790093.6368158,-0.7274258278474832,-0.16366384005628548,-0.526525302923131,-0.36717885556424656,nan
1740790093.6407223,-0.7573108303401367,-0.15322613521672515,-0.5228880141207353,-0.38732951418848366,nan
1740790093.644628,-0.7832997978220704,-0.14601789172993057,-0.516377495881999,-0.40404749341158663,nan
1740790093.648534,-0.8051159033784466,-0.14214878920976504,-0.5068921548874484,-0.41718078108491596,nan
1740790093.65244,-0.8225214492457147,-0.14169217016572308,-0.4943574522271,-0.4266137953878642,nan
1740790093.656346,-0.8353201430832335,-0.1446846610024117,-0.478726852630206,-0.432268199246648,nan
1740790093.6602519,-0.8433589553751134,-0.15112616467540146,-0.4599824893728773,-0.43410333085379776,nan
1740790093.6641579,-0.8465295437858595,-0.16098022030758766,-0.43813554085944467,-0.43211625087641964,nan
1740790093.6680639,-0.8447692345108747,-0.17417472157007055,-0.41322631765918916,-0.4263414106718983,nan
1740790093.67197,-0.8380615549383604,-0.19060298225032202,-0.3853240615474014,-0.4168499494776317,nan
1740790093.6758757,-0.8264363162320632,-0.21012513419910991,-0.35452646082291084,-0.4037486320724134,nan
1740790093.6797817,-0.8099692487143763,-0.23256983979565485,-0.3209588888283319,-0.3871784417884001,nan
1740790093.6836877,-0.7887811971365827,-0.25773629822521676,-0.2847733751602336,-0.3673128469532425,nan
1740790093.6875937,-0.7630368870285206,-0.28539652224979606,-0.24614732150124546,-0.3443557618328425,nan
1740790093.6914997,-0.732943277285968,-0.31529785979368335,-0.20528197631323186,-0.31853922589954936,nan
1740790093.6954055,-0.6987475179443244,-0.34716573258117045,-0.16240068477980535,-0.2901208277441738,nan
1740790093.6993115,-0.6607345356674327,-0.38070656227107663,-0.11774693235929337,-0.25938090216140125,nan
1740790093.7032175,-0.6192242728186442,-0.41561085304619366,-0.07158220208910099,-0.2266195308483949,nan
1740790093.7071235,-0.5745686090478411,-0.45155639844638584,-0.024183667354572204,-0.19215337874996627,nan
1740790093.7110293,-0.5271479970963262,-0.4882115793900807,0.0241582568125786,-0.15631239934826835,nan
1740790093.7149353,-0.4773678469675345,-0.5252387198150569,0.07314247971986391,-0.11943644312136134,nan
1740790093.7188413,-0.4256546947147138,-0.5622974661873666,0.12245989321461544,-0.08187180397746989,nan
1740790093.7227473,-0.37245219383996725,-0.5990481572754699,0.17179609639249666,-0.043967738707764575,nan
1740790093.726653,-0.31821696866857024,-0.6351551510603787,0.2208341607167621,-0.0060729943911132156,nan
1740790093.730559,-0.26341437004826956,-0.6702900764440098,0.26925740931012204,0.03146762176636974,nan
1740790093.7344666,-0.20851417431892075,-0.7041349785162233,0.3167521842879573,0.06831659645842111,nan
1740790093.7383723,-0.15398626670070845,-0.736385327532522,0.3630105763527899,0.10414695558103974,nan
1740790093.7422783,-0.10029635006043106,-0.7667528634226088,0.4077330914595891,0.1386453696353269,nan
1740790093.7461843,-0.047901719439693,-0.7949682495762055,0.45063123018161677,0.17151508976491955,nan
1740790093.7500904,0.002752858225231881,-0.8207835118152773,0.49142995644711085,0.20247868694446383,nan
1740790093.7539961,0.05123912108265642,-0.8439742408379488,0.5298700335660143,0.23128056906932065,nan
1740790093.7579021,0.09714910960636287,-0.8643415389835493,0.5657102069093966,0.257689253157773,nan
1740790093.7618082,0.14009874966487956,-0.8817136948937432,0.5987292142265704,0.28149937253928187,nan
1740790093.7657142,0.17973118930117346,-0.8959475725033353,0.6287276063690737,0.3025334017380479,nan
1740790093.76962,0.2157198597066383,-0.9069297037570353,0.6555293631182982,0.32064308474083125,nan
1740790093.773526,0.24777123373469284,-0.914577077485146,0.6789832908648623,0.3357105554312687,nan
1740790093.777432,0.27562725839120616,-0.9188376199515959,0.698964191042471,0.3476491421484,nan
1740790093.7813392,0.2990674410300165,-0.9196903656812592,0.7153737904554525,0.3564038515528411,nan
1740790093.7852452,0.3179105724391979,-0.9171453202498145,0.7281414269356639,0.36195153022793947,nan
1740790093.789151,0.3320160735931425,-0.9112430197484147,0.7372244860987558,0.364300705673122,nan
1740790093.793057,0.3412849565317636,-0.9020537945880152,0.7426085873194896,0.3634911115309206,nan
1740790093.796963,0.3456603935752148,-0.8896767481559618,0.7443075193887083,0.35959290499674035,nan
1740790093.800869,0.34512789285421724,-0.8742384635535027,0.7423629286286489,0.35270558736134827,nan
1740790093.8047748,0.3397150818961472,-0.8558914542017008,0.7368437645071121,0.3429566415015845,nan
1740790093.8086808,0.32949110471958276,-0.8348123764810735,0.7278454899838142,0.3304999028376751,nan
1740790093.8125868,0.3145656415198742,-0.811200024745496,0.7154890659240858,0.3155136827904507,nan
1740790093.8164928,0.2950875635413771,-0.7852731310037516,0.6999197209072309,0.298198666075316,nan
1740790093.8203986,0.2712432390955001,-0.7572679932755693,0.6813055196216752,0.27877560524096107,nan
1740790093.8243046,0.24325450986652528,-0.7274359580880482,0.6598357447603428,0.25748283768079044,nan
1740790093.8282118,0.21137635962020987,-0.696040783771169,0.6357191088928552,0.23457365189792945,nan
1740790093.8321176,0.17589430016643595,-0.6633559121280075,0.6091818141831311,0.2103135310770876,nan
1740790093.8360236,0.13712150190225822,-0.6296616766898379,0.5804654790305604,0.184977302998115,nan
1740790093.8399296,0.09539569845376238,-0.5952424761146132,0.5498249517307015,0.15884622600925832,nan
1740790093.8438356,0.051075896825352816,-0.560383941348522,0.5175260320699686,0.13220504115842982,nan
1740790093.8477414,0.004538926037518121,-0.5253701249462379,0.4838431223825421,0.10533902065683622,nan
1740790093.8516474,-0.043824141523918704,-0.49048074044086615,0.44905683000320884,0.07853104262249794,nan
1740790093.8555534,-0.09361166092194129,-0.4559884788767914,0.41345154324560907,0.052058721526181864,nan
1740790093.8594594,-0.144415141964603,-0.42215642857779123,0.377313003021914,0.02619162294647445,nan
1740790093.8633652,-0.1958229970946162,-0.38923562293137887,0.34092589199985235,0.0011885901444254087,nan
1740790093.8672712,-0.2474242741239373,-0.3574627394433939,0.304571462770636,-0.022704791395648828,nan
1740790093.8711772,-0.29881233854931755,-0.32705797157147637,0.2685252258831259,-0.045258566928350306,nan
1740790093.8750854,-0.3495884710056934,-0.29822309290151405,0.23305471779360065,-0.06626060023128638,nan
1740790093.8789914,-0.39936534656114997,-0.27113973110828077,0.19841736779660565,-0.08551855559361686,nan
1740790093.8828974,-0.44777036401640624,-0.2459678668631514,0.16485848185197133,-0.10286165564691722,nan
1740790093.8868032,-0.4944487951267881,-0.22284457044166406,0.13260935991911801,-0.11814219909934967,nan
1740790093.8907092,-0.5390667256960657,-0.20188298626723028,0.10188556196638061,-0.13123682499966266,nan
1740790093.8946152,-0.5813137627775745,-0.18317157303010398,0.07288533625566963,-0.14204751283875916,nan
1740790093.8985212,-0.6209054847344105,-0.16677360436967226,0.04578822182777509,-0.15050231056591667,nan
1740790093.902427,-0.6575856136309691,-0.15272693242996332,0.020753835348175587,-0.1565557854257594,nan
1740790093.906333,-0.691127892324624,-0.14104401391996843,-0.002079149364711216,-0.16018919538210233,nan
1740790093.910239,-0.7213376516692505,-0.1317121956588319,-0.022593822698910224,-0.161410381756845,nan
1740790093.914145,-0.7480530564008457,-0.12469425398732645,-0.04069565699345702,-0.1602533865474836,nan
1740790093.9180508,-0.7711460215179209,-0.11992917990706167,-0.05631291810970477,-0.1567778006672501,nan
1740790093.9219575,-0.7905227942632366,-0.11733319939207942,-0.06939687021285067,-0.1510678520497363,nan
1740790093.9258635,-0.8061242001263458,-0.1168010160273054,-0.07992177506835382,-0.143231245148647,nan
1740790093.9297695,-0.8179255545855443,-0.1182072609868316,-0.08788468904040124,-0.1333977658175783,nan
1740790093.9336753,-0.8259362455611053,-0.12140813339239924,-0.09330506280578163,-0.12171766785069464,nan
1740790093.9375813,-0.8301989947274819,-0.12624321230738716,-0.09622415054972903,-0.10835985958071158,nan
1740790093.9414873,-0.830788808899895,-0.132537420040514,-0.09670423707467042,-0.09350991084549588,nan
1740790093.9453933,-0.8278116356410777,-0.14010311507073536,-0.09482769281354358,-0.0773679023307907,nan
1740790093.949299,-0.8214027399991624,-0.14874229177252293,-0.0906958681828555,-0.06014614075833938,nan
1740790093.953205,-0.811724821861713,-0.15824886322852905,-0.08442784002461663,-0.042066764602578126,nan
1740790093.9571111,-0.7989658957699296,-0.16841100277182264,-0.07615902405985721,-0.02335926597442932,nan
1740790093.9610171,-0.7833369571593063,-0.17901351950706906,-0.06603966830014281,-0.004257954999326482,nan
1740790093.964923,-0.7650694608594063,-0.18984024292140067,-0.05423324322964092,0.015000606566921348,nan
1740790093.9688294,-0.7444126392793631,-0.2006763918108526,-0.04091474527255982,0.03418017559914773,nan
1740790093.9727354,-0.7216306890135311,-0.21131090311411654,-0.02626893059477552,0.053047374988437763,nan
1740790093.9766414,-0.6969998556124885,-0.22153869685657776,-0.010488496651295505,0.07137419180482762,nan
1740790093.9805474,-0.6708054469705845,-0.2311628542562451,0.006227770918202803,0.08894040056064177,nan
1740790093.9844532,-0.6433388061776466,-0.2399966871190072,0.023676868424503485,0.10553588682696369,nan
1740790093.9883592,-0.6148942747676263,-0.24786567794125045,0.04165344382382507,0.12096284763195345,nan
1740790093.9922652,-0.5857661770723129,-0.25460927162871994,0.059951648817612335,0.13503784647989547,nan
1740790093.996171,-0.5562458558582664,-0.2600825014151532,0.07836695667792662,0.14759370245847944,nan
1740790094.000077,-0.5266187885972552,-0.264157433404495,0.09669792974804461,0.1584811947313411,nan
1740790094.003983,-0.49716181260520537,-0.2667244161466451,0.11474792134119864,0.1675705657236724,nan
1740790094.007889,-0.46814048589504825,-0.267693123767654,0.13232669766867466,0.17475280847945038,nan
1740790094.0117948,-0.43980660894082674,-0.2669933833888217,0.1492519664606405,0.17994072597687863,nan
1740790094.0157013,-0.41239593066219116,-0.2645757798621961,0.16535080008723335,0.18306975260965205,nan
1740790094.0196073,-0.3861260598306271,-0.26041203319865597,0.18046094223050632,0.18409853055078576,nan
1740790094.023513,-0.36119460079408877,-0.25449514644505855,0.1944319884861481,0.18300923628692045,nan
1740790094.027419,-0.33777752993944843,-0.24683932415430754,0.20712643267302497,0.1798076552179827,nan
1740790094.031325,-0.31602782668868357,-0.23747966396246395,0.2184205720834744,0.17452300483306388,nan
1740790094.035231,-0.29607437008202686,-0.22647162611616695,0.22820526640278513,0.1672075095718794,nan
1740790094.039137,-0.2780211091680719,-0.2138902880582475,0.2363865465467958,0.15793573303580946,nan
1740790094.043043,-0.26194651252601286,-0.19982939335682534,0.24288607119653816,0.14680367569753422,nan
1740790094.046949,-0.24790329931850283,-0.1844002063318212,0.24764143033296002,0.1339276486487023,nan
1740790094.050855,-0.23591845134472517,-0.1677301856722116,0.2506062965777067,0.11944293619700581,nan
1740790094.0547607,-0.22599350266182616,-0.14996149212859583,0.2517504266131672,0.10350226225489705,nan
1740790094.0586667,-0.21810510049799464,-0.13124934699127005,0.2510595163721102,0.08627407743080238,nan
1740790094.0625727,-0.2122058284206675,-0.11176025950849355,0.2485349150409725,0.06794068552077415,nan
1740790094.0664787,-0.2082252800760071,-0.0916701426492219,0.24419320419841353,0.04869622968656021,nan
1740790094.0703847,-0.2060713693071235,-0.07116233765767879,0.23806564960049997,0.02874455997965301,nan
1740790094.0742908,-0.205631860113111,-0.050425568674249445,0.23019753421515873,0.008297005016931185,nan
1740790094.0781965,-0.20677609775172803,-0.029651849301023298,0.22064738209180615,-0.012429928478935204,nan
1740790094.0821025,-0.20935692033637682,-0.009034363366004265,0.20948608351911965,-0.03321690390027654,nan
1740790094.0860085,-0.21321272855152096,0.011234657715118302,0.19679593266773796,-0.053844125954160285,nan
1740790094.0899146,-0.2181696896263214,0.030966038666888258,0.18266958952965814,-0.07409370990652832,nan
1740790094.0938203,-0.22404405047768144,0.049975723174046985,0.1672089784481209,-0.09375202404031482,nan
1740790094.0977263,-0.23064453397237752,0.06808677433552415,0.15052413587791091,-0.11261198085603157,nan
1740790094.1016324,-0.23777479157190254,0.08513129205194146,0.13273202022502195,-0.13047525315218292,nan
1740790094.1055384,-0.24523588521853346,0.10095222761261663,0.11395529668664953,-0.14715439197489713,nan
1740790094.1094456,-0.25282877119989644,0.11540507691266833,0.09432110994886055,-0.16247482451185302,nan
1740790094.1133516,-0.26035675889157117,0.12835943508060943,0.07395985740313418,-0.17627671131301395,nan
1740790094.1172576,-0.2676279177201641,0.1397003968171225,0.05300397521836164,-0.18841664373607436,nan
1740790094.1211636,-0.27445740640690175,0.14932978842007907,0.031586749157430184,-0.19876916422159152,nan
1740790094.1250694,-0.2806696995354826,0.15716721928152438,0.009841161463963518,-0.2072280938836932,nan
1740790094.1289754,-0.28610068772651476,0.1631509425700639,-0.01210121552711906,-0.21370765393736757,nan
1740790094.1328814,-0.2905996291804217,0.16723851683658444,-0.03411126917275492,-0.21814336965131267,nan
1740790094.1367874,-0.2940309320551242,0.16940726238139245,-0.0560633306769564,-0.22049274779393405,nan
1740790094.1406932,-0.2962757490556108,0.1696545083748012,-0.07783608553618337,-0.22073572090561605,nan
1740790094.1445992,-0.2972333677092229,0.16799762890857253,-0.09931340320026275,-0.2188748541585753,nan
1740790094.1485052,-0.2968223820609452,0.16447386835007402,-0.12038507993729217,-0.21493531303159064,nan
1740790094.1524112,-0.2949816339232237,0.15913995855182175,-0.14094748999738152,-0.20896459250536603,nan
1740790094.1563182,-0.2916709143296525,0.1520715326141413,-0.1609041413071993,-0.20103201094996917,nan
1740790094.1602242,-0.2868714184451872,0.14336234198609096,-0.18016613308240842,-0.19122797430365118,nan
1740790094.1641302,-0.2805859498499213,0.1331232856984141,-0.1986525139052682,-0.17966301850761202,nan
1740790094.1680362,-0.2728388728116141,0.12148126243190684,-0.21629053996726819,-0.16646664044010764,nan
1740790094.171942,-0.2636758138659936,0.10857785791602761,-0.23301583430921488,-0.15178592976254107,nan
1740790094.175848,-0.25316311670552133,0.09456788180796138,-0.24877244899150672,-0.13578401612805724,nan
1740790094.179754,-0.241387057009342,0.07961776970526689,-0.26351283318390306,-0.11863834808909232,nan
1740790094.18366,-0.2284528264024212,0.06390386728096148,-0.2771977111658901,-0.10053882175550075,nan
1740790094.1875658,-0.2144832971843538,0.0476106146852266,-0.2897958751654365,-0.08168577878201724,nan
1740790094.1914718,-0.19961758179298225,0.03092865032200829,-0.3012838988262725,-0.06228789458785952,nan
1740790094.1953778,-0.184009403141058,0.014052853872164069,-0.3116457778730348,-0.04255997881897339,nan
1740790094.1992838,-0.16782529396374565,-0.002819651009280615,-0.32087250523247274,-0.022720710943968124,nan
1740790094.2031908,-0.151242645120496,-0.019491513550851658,-0.3289615884607781,-0.002990334519568151,nan
1740790094.2070968,-0.1344476243884681,-0.03576717137826737,-0.3359165178167826,0.016411665935769825,nan
1740790094.2110028,-0.117632988650306,-0.05145484387247409,-0.3417461937041585,0.035268881364251714,nan
1740790094.2149086,-0.10099581350285311,-0.06636848286216084,-0.34646432247993625,0.05337026388100709,nan
1740790094.2188146,-0.08473516518428821,-0.08032966065249046,-0.3500887897899965,0.07051235810540891,nan
1740790094.2227206,-0.06904974032644347,-0.09316937610762353,-0.3526410206442733,0.08650145501769502,nan
