timestamps,TP9,AF7,AF8,TP10,Right AUX
1740790102.2183201,0.6032824218521219,-0.2765712312928355,0.47088212466700047,0.2014821845723999,nan
1740790102.222226,0.5910809240881271,-0.2709534581472068,0.4566684070196235,0.19286040904000482,nan
1740790102.226132,0.5769368472453579,-0.2614649834179505,0.43949812097896046,0.18243760552258675,nan
1740790102.230038,0.5608395332787023,-0.24813502254569542,0.4194453243213614,0.17029689355329028,nan
1740790102.233944,0.5427960164959367,-0.2310298291976702,0.39660589400208507,0.15653973102493593,nan
1740790102.2378497,0.5228311983291181,-0.21025225643603843,0.3710968195047874,0.14128504898274993,nan
1740790102.2417557,0.500987843187673,-0.1859409638575234,0.34305532370392317,0.12466820143501342,nan
1740790102.2456617,0.4773263954110578,-0.1582692777931609,0.3126378192603096,0.10683974009591393,nan
1740790102.2495677,0.45192461914927956,-0.12744371503173452,0.2800187100147754,0.0879640258120372,nan
1740790102.2534735,0.42487706478600223,-0.09370218380284308,0.24538904819648857,0.06821769014461344,nan
1740790102.2573795,0.39629436726347506,-0.05731187889382597,0.20895505950883714,0.047787962165958216,nan
1740790102.2612855,0.3663023833535795,-0.018566890748363554,0.170936549285225,0.02687087696411528,nan
1740790102.265192,0.3350411765280462,0.02221444882535296,0.13156520390967183,0.005669383619525535,nan
1740790102.2690978,0.3026638595972896,0.06469245914947405,0.09108280256364853,-0.015608628491732016,nan
1740790102.2730038,0.269335306696356,0.10850921387270797,0.049739355083603234,-0.036752365313295926,nan
1740790102.2769098,0.23523074748423106,0.15329182531972937,0.007791182286888349,-0.05755020518751903,nan
1740790102.2808158,0.200534257576589,0.19865587868645446,-0.03450104445739198,-0.0777917964505097,nan
1740790102.2847216,0.16543716024076935,0.2442089833191433,-0.07687428737502723,-0.09727015431608411,nan
1740790102.2886276,0.13013635523560638,0.28955440717874065,-0.11906513301145827,-0.11578373575810463,nan
1740790102.2925336,0.0948325913695301,0.3342947597845751,-0.16081177245312345,-0.13313847125470024,nan
1740790102.2964396,0.05972869987178956,0.3780356884607522,-0.20185595417962723,-0.14914973262790487,nan
1740790102.3003454,0.025027806018803205,0.42038955257901683,-0.2419448930521073,-0.16364421679521304,nan
1740790102.3042514,-0.009068463372192682,0.4609790407041029,-0.2808331194648643,-0.17646172603963128,nan
1740790102.3081574,-0.04236175897818206,0.49944069609961794,-0.31828425335406096,-0.18745682639461622,nan
1740790102.3120635,-0.0746587571157229,0.5354283169384305,-0.3540726885615673,-0.1965003669199134,nan
1740790102.3159695,-0.1057728599390247,0.5686161987725965,-0.38798517398556165,-0.20348084400231603,nan
1740790102.3198755,-0.13552583116470043,0.5987021883418706,-0.41982227900227015,-0.2083055963381141,nan
1740790102.3237815,-0.16374935149367276,0.6254105196218891,-0.4493997318047035,-0.21090181792647947,nan
1740790102.3276873,-0.19028647875435808,0.6484944051149439,-0.47654962056225064,-0.21121737820843706,nan
1740790102.3315933,-0.2149929987931437,0.6677383577475192,-0.5011214486471222,-0.20922144040635918,nan
1740790102.3354993,-0.2377386542773092,0.6829602213358942,-0.5229830365861049,-0.2049048711348316,nan
1740790102.3394053,-0.2584082398402527,0.6940128903890463,-0.542021264865123,-0.19828043644496976,nan
1740790102.343311,-0.27690255337555647,0.7007857030089526,-0.5581426532248406,-0.1893827816097042,nan
1740790102.347217,-0.29313919476106476,0.7032054937933054,-0.5712737736233959,-0.17826819413566034,nan
1740790102.351123,-0.3070532048511262,0.7012372969136768,-0.5813614955920035,-0.16501415167580416,nan
1740790102.355029,-0.31859753919861594,0.6948846929015935,-0.5883730642557621,-0.1497186586940598,nan
1740790102.358935,-0.3277433726414691,0.6841897960930439,-0.592296012820385,-0.132499377876306,nan
1740790102.362841,-0.33448023259404663,0.6692328831254116,-0.593137912821205,-0.11349256436990289,nan
1740790102.366747,-0.33881596060435104,0.6501316663163411,-0.5909259668793385,-0.09285181294481162,nan
1740790102.370653,-0.3407765034562465,0.627040219148148,-0.5857064500975973,-0.07074663008292811,nan
1740790102.374559,-0.3404055367940757,0.6001475644014229,-0.5775440075426568,-0.04736084479891523,nan
1740790102.3784647,-0.33776392590803367,0.5696759386951036,-0.5665208164878082,-0.022890873657042676,nan
1740790102.3823707,-0.33292902992576423,0.5358787502667655,-0.5527356232211584,0.0024561430426397407,nan
1740790102.3862767,-0.3259938571924833,0.49903824973627603,-0.5363026652470505,0.02846431559483079,nan
1740790102.3901827,-0.31706608107331613,0.4594629363105941,-0.5173504906147774,0.05491107026353266,nan
1740790102.3940885,-0.30626692676275014,0.41748472438108325,-0.49602068689031953,0.0815692852634625,nan
1740790102.3979945,-0.29372994092389004,0.3734558977136202,-0.47246653293743246,0.10820947615089378,nan
1740790102.4019005,-0.2795996570922095,0.32774588041443947,-0.4468515871885609,0.1346020088787438,nan
1740790102.4058077,-0.26403017075385304,0.28073785555235853,-0.4193482264600668,0.1605193184413943,nan
1740790102.4097137,-0.24718363883778327,0.23282526371476797,-0.39013614959759985,0.18573811092763562,nan
1740790102.4136198,-0.2292287190361898,0.18440821485744466,-0.359400860325326,0.21004152691688496,nan
1740790102.4175255,-0.21033896488226358,0.13588984756704758,-0.3273321436174704,0.2332212444936986,nan
1740790102.4214315,-0.19069119286393377,0.08767267028310595,-0.2941225497143908,0.2550795007156631,nan
1740790102.4253376,-0.1704638380335876,0.040154919120055164,-0.2599658995713129,0.2754310111448316,nan
1740790102.4292436,-0.1498353145856984,-0.006273033311029901,-0.2250558250608561,0.2941047680356144,nan
1740790102.4331493,-0.12898239771740383,-0.05123218425380481,-0.18958435665646065,0.3109456989529605,nan
1740790102.4370553,-0.10807864276338489,-0.09435828940183841,-0.15374057061014013,0.3258161689623075,nan
1740790102.4409614,-0.0872928571099989,-0.13530510202219714,-0.11770930681314357,0.3385973110737191,nan
1740790102.4448674,-0.06678763975000622,-0.17374743240957552,-0.08166996760150648,0.3491901713216961,nan
1740790102.4487731,-0.0467180025456522,-0.2093839992788277,-0.045795406750820326,0.3575166567025556,nan
1740790102.4526803,-0.02723008633298952,-0.24194004677962086,-0.010250916807009066,0.3635202761547084,nan
1740790102.4565864,-0.008459983934369242,-0.2711697031420528,0.0248066782652344,0.3671666668341479,nan
1740790102.4604921,0.009467319039597397,-0.29685805951342825,0.05922981935483801,0.36844390008726957,nan
1740790102.4643981,0.0264388760098602,-0.31882295029853525,0.09288089289789883,0.3673625637343397,nan
1740790102.4683042,0.0423545756675279,-0.3369164192416114,0.12563279278278938,0.36395561952724576,nan
1740790102.4722102,0.05712779589249676,-0.3510258585586966,0.157369361561731,0.35827803691203913,nan
1740790102.476116,0.07068591014063064,-0.3610748116141912,0.18798571036891823,0.3504062064872911,nan
1740790102.480022,0.08297064266224587,-0.3670234329037244,0.21738841823736224,0.340437138780658,nan
1740790102.483928,0.09393827051927073,-0.3688686024249265,0.24549561277217477,0.32848745614560393,nan
1740790102.487834,0.10355967198670414,-0.3666436948559276,0.2722369353639013,0.314692187685924,nan
1740790102.4917397,0.11182022253885822,-0.3604180072856529,0.2975533952990383,0.2992033791259677,nan
1740790102.4956458,0.11871954121566973,-0.3502958525180747,0.3213971182342195,0.2821885314389519,nan
1740790102.4995527,0.12427109172222026,-0.33641532817235525,0.3437309955342289,0.26382888380476277,nan
1740790102.5034587,0.12850164411969178,-0.31894677489151585,0.36452824192194483,0.24431755807444866,nan
1740790102.5073645,0.1314506044022845,-0.29809093992373425,0.383771869740792,0.22385758335420816,nan
1740790102.5112705,0.13316922060763636,-0.2740768651243196,0.401454088879271,0.20265982057249685,nan
1740790102.5151765,0.13371967536377538,-0.24715952101589714,0.4175756420452086,0.18094080794657286,nan
1740790102.5190825,0.13317407592082128,-0.21761721091467423,0.4321450855987261,0.15892054910834386,nan
1740790102.5229883,0.13161335373870653,-0.18574877125912492,0.44517802655280264,0.13682026627472138,nan
1740790102.5268943,0.12912608659265215,-0.15187059614389953,0.45669632662538007,0.11486014124784656,nan
1740790102.5308003,0.1258072569069795,-0.11631351564865536,0.4667272843752179,0.09325706720104619,nan
1740790102.5347064,0.12175696062741276,-0.07941955884396604,0.47530280647452594,0.07222243414469068,nan
1740790102.5386121,0.1170790813864412,-0.041538633342726346,0.48245857906555034,0.05195997067247284,nan
1740790102.5425181,0.11187994500106407,-0.0030251539365923675,0.4882332499178348,0.03266366406512735,nan
1740790102.5464249,0.10626696946479101,0.03576534679262424,0.49266763175136263,0.014515780080135684,nan
1740790102.5503309,0.10034732555496004,0.07447959296970205,0.4958039366228142,-0.0023149972107282843,nan
1740790102.554237,0.09422662297319324,0.11276989240963246,0.4976850506939676,-0.01767528634973566,nan
1740790102.558143,0.08800763657336179,0.15029738408144439,0.49835385801971943,-0.03142857237446637,nan
1740790102.5620487,0.0817890867120731,0.18673517497197167,0.4978526212168845,-0.04345659739667539,nan
1740790102.5659547,0.07566448708708216,0.22177133649766978,0.4962224260128965,-0.05366056335021835,nan
1740790102.5698607,0.06972107261648887,0.25511173212988636,0.49350269573609923,-0.06196213425847929,nan
1740790102.5737665,0.06403881896505323,0.2864826496893351,0.48973078080749255,-0.06830422738432111,nan
1740790102.5776725,0.05868956425354394,0.3156332138106512,0.4849416272391516,-0.0726515847518565,nan
1740790102.5815785,0.053736242304414795,0.34233755635669555,0.4791675270494486,-0.07499111874816622,nan
1740790102.5854845,0.04923223549493039,0.3663967250516143,0.47243795238221686,-0.07533202780221525,nan
1740790102.5893903,0.04522085392094405,0.3876403132764009,0.4647794739790976,-0.0737056804749006,nan
1740790102.5932932,0.04173494613561493,0.40592779680364627,0.45621576351461757,-0.07016526865467042,nan
1740790102.597199,0.0387966452327682,0.4211495662110378,0.446767678175095,-0.06478523291395387,nan
1740790102.601105,0.03641725251057935,0.4332276467760262,0.4364534247582993,-0.057660465418628404,nan
1740790102.605011,0.03459725939407947,0.44211610078642977,0.42528879950355225,-0.048905298072359715,nan
1740790102.608917,0.03332650673150575,0.4478011103722122,0.41328749884392924,-0.03865228579652079,nan
1740790102.6128228,0.03258447902656454,0.45030074214068455,0.40046149531520714,-0.027050796971788915,nan
1740790102.6167288,0.03234072964280169,0.44966439804944025,0.3868214719711519,-0.014265425077769118,nan
1740790102.6206348,0.03255543153420329,0.44597196004698775,0.3723773078521305,-0.0004742374411463346,nan
1740790102.6245408,0.03318004663360047,0.439332639019938,0.3571386063429753,0.014133121278253148,nan
1740790102.6284466,0.03415810568303896,0.4298835414776941,0.3411152576452049,0.02935745168866649,nan
1740790102.6323526,0.03542608903252417,0.4177879701527189,0.32431802608510685,0.044992127824126454,nan
1740790102.6362586,0.036914397779156845,0.4032334772694052,0.30675915258912073,0.06082530917610614,nan
1740790102.6401649,0.03854840358034902,0.3864296916122743,0.2884529623861912,0.07664221398094188,nan
1740790102.6440709,0.04024956456383066,0.3676059426814676,0.2694164678467613,0.0922274304360536,nan
1740790102.6479769,0.0419365939838033,0.34700870713927023,0.24966995634229822,0.10736724204385854,nan
1740790102.651883,0.043526667645321176,0.32489890440737973,0.22923755310814498,0.12185194304845189,nan
1740790102.6557887,0.044936655645083874,0.30154906965479533,0.2081477493159042,0.1354781199400506,nan
1740790102.6596947,0.04608436366171788,0.27724043350758965,0.18643388590725518,0.1480508752566245,nan
1740790102.6636007,0.046889768876152586,0.2522599386042955,0.1641345842058952,0.15938597040943686,nan
1740790102.6675065,0.047276235615057775,0.2268972236070083,0.14129411490353613,0.16931186499548023,nan
1740790102.6714125,0.04717169598780769,0.20144160545451545,0.11796269770358739,0.17767163102837516,nan
1740790102.6753185,0.046509781128707156,0.17617909050899774,0.0941967246951307,0.18432472171145406,nan
1740790102.6792245,0.045230889158230876,0.15138944480407124,0.07005890141177293,0.18914857578140412,nan
1740790102.6831303,0.043283176634810724,0.12734335285465212,0.045618300495388946,0.19204004005453224,nan
1740790102.6870365,0.040623461075861726,0.10429969344650986,0.020950323923353994,0.19291659459527313,nan
1740790102.6909425,0.03721802307515117,0.08250295949670594,-0.0038634291417494557,0.1917173668805714,nan
1740790102.6948483,0.03304329762351037,0.06218084747961116,-0.028735390670828365,0.188403923435247,nan
1740790102.6987543,0.028086445440390802,0.043542040063458944,-0.053572348859008745,0.1829608296419046,nan
1740790102.7026603,0.022345796432250528,0.026774203518966682,-0.07827586938095801,0.1753959707622379,nan
1740790102.7065663,0.015831158796799548,0.012042219165871065,-0.10274281098184662,0.16574062962183678,nan
1740790102.710472,0.008563988774930755,-0.0005133343607976057,-0.12686593235706392,0.15404931888360135,nan
1740790102.714378,0.0005774175991953199,-0.010777433889758043,-0.15053458607305664,0.1403993683410192,nan
1740790102.7182841,-0.008083866217372705,-0.018661588185349815,-0.17363549411200624,0.12489027017669602,nan
1740790102.7221901,-0.01736387948243494,-0.02410452964920495,-0.196053598498127,0.10764278762819829,nan
1740790102.726096,-0.027195750406371684,-0.02707261575565924,-0.2176729793961044,0.08879783495734718,nan
1740790102.730002,-0.037502265120449726,-0.027559937738915175,-0.23837783207556282,0.06851513900545408,nan
1740790102.733908,-0.04819654997252681,-0.025588137080309842,-0.2580534932213007,0.046971694911245726,nan
1740790102.737814,-0.05918288336676812,-0.021205933359972753,-0.2765875062486288,0.02436003074685456,nan
1740790102.74172,-0.07035762939527568,-0.014488370007673007,-0.2938707145669152,0.0008862978675293508,nan
1740790102.745626,-0.08161028406385508,-0.0055357873827524854,-0.30979837113162007,-0.023231794348517666,nan
1740790102.7495317,-0.09282462355739785,0.005527464596795143,-0.3242712521438173,-0.04776717899226681,nan
1740790102.7534378,-0.10387994273781796,0.018554559399174938,-0.3371967624036067,-0.07248574546627556,nan
1740790102.7573438,-0.11465237093307593,0.03337795502394737,-0.3484900196052594,-0.09714874350513555,nan
1740790102.7612495,-0.12501625107286934,0.049811363662730944,-0.35807490478191456,-0.12151525313936574,nan
1740790102.7651556,-0.13484556736646303,0.06765190808845553,-0.36588506616882843,-0.14534469554529225,nan
1740790102.7690616,-0.14401540601136695,0.08668244111409698,-0.3718648639579298,-0.16839935914998125,nan
1740790102.7729676,-0.15240343287677102,0.10667400283888172,-0.375970243762559,-0.19044691504333744,nan
1740790102.7768734,-0.1598913717299215,0.12738838904233776,-0.37816952709807333,-0.21126289569354853,nan
1740790102.7807808,-0.1663664663723511,0.14858080300813836,-0.37844410780822124,-0.2306331111693538,nan
1740790102.7846866,-0.1717229100295647,0.17000256227103167,-0.3767890441241433,-0.24835597754234467,nan
1740790102.7885926,-0.17586322549426908,0.19140383128917685,-0.3732135369262559,-0.26424473287169514,nan
1740790102.7924986,-0.1786995798591866,0.21253635085576297,-0.36774128578166454,-0.2781295171562833,nan
1740790102.7964046,-0.18015501818909574,0.23315613517943673,-0.36041071544194836,-0.289859293866941,nan
1740790102.8003104,-0.18016460116889918,0.25302610798150643,-0.35127506669821557,-0.29930359213352187,nan
1740790102.8042164,-0.1786764326196327,0.2719186496745508,-0.3404023467905186,-0.30635405034436763,nan
1740790102.8081224,-0.17565256378969923,0.28961802869441083,-0.32787513594488843,-0.3109257438040213,nan
1740790102.8120284,-0.17106976249515657,0.305922691345057,-0.31379024804974087,-0.31295828117098895,nan
1740790102.8159342,-0.1649201364894436,0.3206473860700252,-0.29825824497007614,-0.3124166566412457,nan
1740790102.8198402,-0.15721160187724625,0.3336250998689712,-0.28140280551786623,-0.309291847233628,nan
1740790102.8237462,-0.14796818893520128,0.3447087866146008,-0.2633599516347022,-0.30360114704716085,nan
1740790102.8276534,-0.13723017934872617,0.35377286927268603,-0.24427713588248887,-0.29538823297330236,nan
1740790102.8315592,-0.12505407060302826,0.3607145004628804,-0.22431219586353113,-0.28472295903254086,nan
1740790102.8354652,-0.11151236505998863,0.3654545683952418,-0.20363218268669578,-0.27170087923827235,nan
1740790102.8393712,-0.0966931830929385,0.3679384379500102,-0.1824120720455005,-0.2564425016443978,nan
1740790102.8432772,-0.08069970151957921,0.36813641950780157,-0.16083336786108937,-0.23909227897917423,nan
1740790102.847183,-0.06364942045016363,0.36604396105460335,-0.139082609752974,-0.21981734397896377,nan
1740790102.851089,-0.04567326353411387,0.3616815620505409,-0.11734979681832862,-0.1988060001844638,nan
1740790102.854995,-0.026914518423801086,0.355094410532373,-0.09582674131259675,-0.17626598152162595,nan
1740790102.858901,-0.007527626060003789,0.346351747886294,-0.07470536681719955,-0.1524224964339452,nan
1740790102.8628068,0.01232317089961479,0.33554596864872543,-0.054175966342172435,-0.12751607463661158,nan
1740790102.8667128,0.032465308558350725,0.32279146553804705,-0.034425436531763595,-0.10180023670242355,nan
1740790102.8706188,0.052719497689873496,0.3082232326598451,-0.015635504710008224,-0.07553900864185958,nan
1740790102.8745258,0.07290142020259265,0.29199524243349756,0.002019034087244524,-0.04900430538445384,nan
1740790102.8784316,0.09282351001848521,0.2742786142314174,0.018372052703882064,-0.02247320858683899,nan
1740790102.8823376,0.11229680111447579,0.255259594978306,0.03326778261615639,0.003774834532124325,nan
1740790102.8862436,0.13113282452869496,0.23513737400230997,0.04656244248581524,0.0294608636114436,nan
1740790102.8901496,0.1491455353653215,0.21412175624141797,0.05812578743093099,0.0543092803578448,nan
1740790102.8940554,0.1661532502499887,0.19243071946726775,0.06784256238530322,0.0780507176111667,nan
1740790102.8979614,0.18198057530107578,0.1702878824778999,0.07561384354488765,0.10042487314798974,nan
1740790102.9018674,0.19646030449654645,0.14791991221684705,0.08135825269753921,0.12118327921261894,nan
1740790102.9057732,0.20943526833555812,0.12555389848703077,0.08501303019501752,0.14009197916153082,nan
1740790102.9096792,0.22076011292083597,0.10341472533591753,0.08653495344655612,0.15693408329323638,nan
1740790102.9135852,0.23030299002181995,0.08172246828838722,0.08590108908250929,0.17151217690541537,nan
1740790102.9174912,0.23794713931763808,0.06068984639356645,0.08310936834423617,0.1836505548676859,nan
1740790102.921398,0.24359234485887785,0.04051975753290414,0.07817897679059331,0.19319725851125855,nan
1740790102.9253037,0.24715624882155743,0.02140292461334988,0.07115055105876247,0.20002589240289145,nan
1740790102.9292097,0.24857550684727792,0.0035156791492777163,0.062086177163040296,0.20403720057453772,nan
1740790102.9331157,0.2478067706600048,-0.012982092669625876,0.0510691866439038,0.20516038400381847,nan
1740790102.9370217,0.24482748521006012,-0.02794881800618126,0.038203748774209935,0.2033541435636352,nan
1740790102.9409275,0.2396364893056874,-0.04126289801577493,0.023614258972179017,0.1986074352594402,nan
1740790102.9448335,0.23225441053645457,-0.05282414178684337,0.007444525543418472,0.1909399273256712,nan
1740790102.9487395,0.22272384725357508,-0.06255495665660675,-0.010143241142249262,0.18040215163254272,nan
1740790102.9526455,0.21110933243149854,-0.0704012805544593,-0.02896963095832945,0.1670753448334149,nan
1740790102.9565513,0.19749707637319508,-0.07633324476790634,-0.048839419785452386,0.15107097773273587,nan
1740790102.9604573,0.18199448741777327,-0.08034555840527831,-0.06954312880336307,0.1325299744455763,nan
1740790102.9643633,0.16472947204198238,-0.08245760881630385,-0.09085874554949314,0.1116216260219298,nan
1740790102.9682698,0.14584951799467158,-0.08271327529517675,-0.11255359323433614,0.08854220629180211,nan
1740790102.9721758,0.12552056634311665,-0.08118045649943155,-0.13438633315909537,0.06351330072020371,nan
1740790102.9760818,0.1039256805195425,-0.07795031513951824,-0.1561090835573009,0.03677986201425657,nan
1740790102.9799879,0.08126352261279428,-0.07313624659575169,-0.17746963679576488,0.00860800906803042,nan
1740790102.9838936,0.05774664923168941,-0.06687258116902084,-0.19821375563661733,-0.020717411464216795,nan
1740790102.9877996,0.03359964125139332,-0.059313032636897293,-0.2180875281954771,-0.05089547913690893,nan
1740790102.9917057,0.00905708362127469,-0.05062890863634363,-0.2368397603435171,-0.08161204504811902,nan
1740790102.9956117,-0.015638586857907272,-0.04100710109749932,-0.2542243836044682,-0.11254274223509181,nan
1740790102.9995174,-0.040239346306805424,-0.0306478774810973,-0.2700028561007068,-0.14335613293484098,nan
1740790103.0034235,-0.06449394021087645,-0.019762495897271228,-0.2839465338131349,-0.17371696288452243,nan
1740790103.0073295,-0.08815030944622602,-0.008570669280585612,-0.2958389893430907,-0.20328949148461545,nan
1740790103.0112355,-0.11095806279537482,0.0027020943585641904,-0.3054782555047979,-0.23174086559011595,nan
1740790103.015138,-0.13267097207265693,0.013827247013132152,-0.31267897143538137,-0.2587445039435956,nan
1740790103.019044,-0.15304946541823328,0.02457602121403238,-0.31727440948583663,-0.283983458829184,nan
1740790103.02295,-0.17186309399428354,0.03472228516903606,-0.3191183619479636,-0.3071537214151236,nan
1740790103.0268557,-0.1888929472327746,0.04404540099727314,-0.3180868676744919,-0.3279674374684418,nan
1740790103.0307617,-0.20393399194506429,0.05233305422073456,-0.31407975985575165,-0.34615600066914864,nan
1740790103.0346677,-0.21679731101072172,0.059384022677716024,-0.30702201761747067,-0.3614729916207617,nan
1740790103.0385737,-0.22731221801534612,0.06501085336268815,-0.2968649056899049,-0.37369693184321323,nan
1740790103.0424795,-0.23532822510126164,0.0690424163716586,-0.2835868881559344,-0.38263382353457004,nan
1740790103.0463855,-0.24071684242490368,0.07132630613743357,-0.26719430420056106,-0.388119447687598,nan
1740790103.0502915,-0.2433731889721851,0.07173106146748934,-0.2477217958403596,-0.3900213952312599,nan
1740790103.0541975,-0.24321739605752904,0.07014817753738348,-0.22523247979123298,-0.38824080821788814,nan
1740790103.0581033,-0.2401957866107482,0.06649388493039551,-0.1998178579173471,-0.3827138106738213,nan
1740790103.0620096,-0.23428181532361447,0.060710673031964875,-0.171597463073154,-0.3734126115515887,nan
1740790103.0659156,-0.22547675686772023,0.05276853756500512,-0.14071823958264604,-0.3603462652400495,nan
1740790103.0698214,-0.21381013168835622,0.042665934766050614,-0.107353660073396,-0.3435610782778567,nan
1740790103.0737274,-0.1993398613049767,0.030430427626707262,-0.07170258287469103,-0.32314065424589394,nan
1740790103.0776334,-0.1821521475854398,0.0161190127317835,-0.03398785667604248,-0.2992055722551039,nan
1740790103.0815394,-0.16236107308514783,-0.00018188051535893992,0.005545318398935852,-0.27191269796520684,nan
1740790103.0854452,-0.14010792222903723,-0.018356723110345672,0.046631261741258034,-0.2414541296339536,nan
1740790103.0893512,-0.11556022583871774,-0.03826155347221842,0.08898590133374265,-0.20805578527196184,nan
1740790103.0932572,-0.08891053424296184,-0.059724976120510316,0.13230906482802826,-0.1719756405304647,nan
1740790103.0971632,-0.06037492693079221,-0.08254948631574828,0.17628695437821532,-0.13350163044419677,nan
1740790103.101069,-0.03019126938609354,-0.10651311145843999,0.22059478501440527,-0.0929492315550422,nan
1740790103.104975,0.001382769645456461,-0.13137135658099214,0.2648995645272272,-0.05065874422045107,nan
1740790103.108881,0.03407192468831737,-0.15685943789737922,0.30886299120246313,-0.00699229803152578,nan
1740790103.112787,0.06758574570032494,-0.18269478513179202,0.35214444431059766,0.03766939380235631,nan
1740790103.1166928,0.10162119544482862,-0.2085797902641831,0.39440404103535215,0.08293050253216819,nan
1740790103.1205988,0.13586540956177148,-0.2342047774404332,0.4353057325319951,0.1283837433742297,nan
1740790103.1245048,0.16999859492964756,-0.25925116612899207,0.47452041105250303,0.17361419321043745,nan
1740790103.1284108,0.20369704022209043,-0.283394797193628,0.5117289995704405,0.21820323135428893,nan
1740790103.1323166,0.23663621110343805,-0.3063093894202315,0.5466254950915109,0.2617325666717266,nan
1740790103.1362226,0.2684939012936074,-0.3276700922090602,0.5789199368515056,0.3037883130990935,nan
1740790103.1401286,0.2989534097787265,-0.34715709864374555,0.6083412708849645,0.34396507470349613,nan
1740790103.1440346,0.32770671376241994,-0.3644592819936605,0.6346400829958916,0.38187000089548784,nan
1740790103.1479404,0.354457606553251,-0.3792778179119133,0.6575911729745847,0.41712677223861433,nan
1740790103.1518464,0.3789247694738626,-0.3913297541693148,0.6769959439776924,0.449379477510103,nan
1740790103.1557536,0.4008447470613324,-0.40035148972336687,0.6926845823153939,0.4782963432533285,nan
1740790103.1596596,0.41997479530803333,-0.4061021252652278,0.7045180044608838,0.5035732780236489,nan
1740790103.1635656,0.43609557346688327,-0.4083666481176024,0.7123895499017578,0.5249371948592549,nan
1740790103.1674714,0.44901365101049107,-0.40695891546952057,0.7162264004765886,0.5421490771986753,nan
1740790103.1713774,0.458563802683781,-0.40172440142326454,0.7159907090671697,0.5550067555040175,nan
1740790103.1752834,0.46461106621492215,-0.3925426751837223,0.7116804229295131,0.5633473642179657,nan
1740790103.1791894,0.46705253913766703,-0.3793295799268744,0.7033297895250135,0.5670494513638139,nan
1740790103.1830952,0.46581889331498305,-0.3620390844241635,0.6910095354355511,0.5660347160691216,nan
1740790103.1870012,0.46087558812188023,-0.3406647823518295,0.6748267117897138,0.5602693525297954,nan
1740790103.1909072,0.4522237658251647,-0.31524101735433385,0.6549242025671551,0.5497649824045477,nan
1740790103.1948133,0.439900815467693,-0.2858436153311319,0.6314798951589803,0.5345791613095762,nan
1740790103.198719,0.42398059450090686,-0.2525902090458929,0.6047055156172202,0.5148154489373085,nan
1740790103.2026262,0.40457330048636325,-0.21564014398376427,0.57484513409894,0.4906230363168107,nan
1740790103.2065322,0.38182498837751916,-0.17519395837026372,0.5421733490725282,0.46219592783093816,nan
1740790103.2104383,0.3559167321687121,-0.13149243437772407,0.5069931618775171,0.4297716797692348,nan
1740790103.214344,0.32706343302941865,-0.08481522174317975,0.46963355618703106,0.39362970138774694,nan
1740790103.21825,0.29551227939812236,-0.0354790392652667,0.43044679978633826,0.3540891286285211,nan
1740790103.222156,0.26154086786038044,0.01616453610364486,0.3898054888249143,0.31150628478360004,nan
1740790103.226062,0.22545499694877444,0.06973167864151823,0.3480993572970435,0.26627174643188467,nan
1740790103.2299678,0.1875861492470057,0.12480930365350562,0.3057318769321294,0.2188070368939692,nan
1740790103.2338738,0.14828868032558484,0.18095841560184336,0.26311667490694934,0.16956097320242133,nan
1740790103.2377799,0.10793673605191449,0.2377177886313379,0.22067379880578034,0.11900569613662534,nan
1740790103.2416859,0.06692092267370749,0.29460794989313926,0.17882586003030043,0.06763241618756347,nan
1740790103.2455916,0.025644756743199153,0.3511354326448506,0.13799408838083274,0.015946911365788484,nan
1740790103.2494986,-0.015479075596313313,0.4067972629515148,0.09859433177746767,-0.035535184485214505,nan
1740790103.2534046,-0.056032618225580845,0.461085640962854,0.06103303604978796,-0.08629326178629165,nan
1740790103.2573106,-0.09559666987855231,0.5134927752283944,0.025703240385656318,-0.1358067405772346,nan
1740790103.2612164,-0.133754898830215,0.5635158263615729,-0.007019375616389393,-0.18356015628103092,nan
1740790103.2651224,-0.17009801072258873,0.6106619146015129,-0.0367803573064496,-0.22904827972949074,nan
1740790103.2690284,-0.20422793176176032,0.6544531444681495,-0.06325021704732622,-0.2717812244109926,nan
1740790103.2729344,-0.23576196880411734,0.6944315987803957,-0.08612801787266802,-0.3112894934315394,nan
1740790103.2768402,-0.2643369074775559,0.73016425382193,-0.10514476454162525,-0.34712891864050277,nan
1740790103.2807462,-0.2896130094606472,0.7612477674045982,-0.12006656901751822,-0.3788854447666349,nan
1740790103.2846522,-0.3112778703738588,0.7873130920009417,-0.13069755892747822,-0.40617971223857224,nan
1740790103.288558,-0.32905010042298427,0.808029865996295,-0.1368824993836102,-0.42867139362358525,nan
1740790103.292464,-0.34268279097371185,0.8231105374442333,-0.13850910065077246,-0.44606324030120054,nan
1740790103.2963707,-0.35196673162238945,0.8323141764895213,-0.13550998651603335,-0.4581047980831188,nan
1740790103.3002768,-0.35673334405287177,0.8354499348386023,-0.1278643008320348,-0.4645957529822844,nan
1740790103.3041828,-0.3568573010210596,0.8323801132931752,-0.11559893255041491,-0.465388871202994,nan
1740790103.3080885,-0.3522588011724938,0.8230228013976749,-0.09878934260942014,-0.4603925006480375,nan
1740790103.3119946,-0.3429054730562749,0.8073540566626715,-0.07755997926725731,-0.4495726047919661,nan
1740790103.3159006,-0.32881388462998873,0.7854095945856884,-0.05208427185307895,-0.43295430362264514,nan
1740790103.3198066,-0.3100506377318038,0.7572859647676438,-0.022584196412786146,-0.4106229004739963,nan
1740790103.3237123,-0.28673303040167225,0.7231411927826653,0.010670589672315533,-0.38272437792667435,nan
1740790103.3276184,-0.2590292735354603,0.6831948720640532,0.047364043349994576,-0.3494653505030785,nan
1740790103.3315244,-0.22715825212370888,0.6377276948797396,0.08713545740085543,-0.3111124665894708,nan
1740790103.3354304,-0.1913888252286545,0.5870804164444009,0.1295815996356631,-0.2679912568401219,nan
1740790103.3393362,-0.15203866285567816,0.5316522513083363,0.1742592579686724,-0.2204844312141525,nan
1740790103.343243,-0.10947262194387167,0.47189870632953596,0.22068817593972273,-0.1690296317218242,nan
1740790103.347149,-0.06410066779929416,0.40832885972835015,0.2683543597420876,-0.11411665286971459,nan
1740790103.3510547,-0.016375351387686345,0.3415021008962946,0.31671373442246026,-0.0562841466495233,nan
1740790103.3549607,0.033211143045648595,0.27202435073409514,0.36519612368437304,0.00388416633068184,nan
1740790103.3588667,0.08413036158865013,0.20054378728164823,0.41320952467602584,0.06576375336418783,nan
1740790103.3627727,0.1358213332100347,0.1277461062271568,0.46014464630582597,0.12869396318054951,nan
1740790103.3666785,0.18769468523564103,0.05434935049865789,0.5053796770301192,0.19198312167009646,nan
1740790103.3705845,0.23913709222386512,-0.018901652495933712,0.548285245721947,0.254913991041016,nan
1740790103.3744905,0.2895160254037667,-0.09124120334650444,0.5882295371794752,0.31674955002600674,nan
1740790103.3783965,0.3381847667810967,-0.16188894647012855,0.6245835220878726,0.3767390494673515,nan
1740790103.3823023,0.38448764923693096,-0.23005633956652555,0.6567262598263148,0.43412429469073527,nan
1740790103.3862083,0.42776548146787086,-0.2949533240211609,0.6840502314271965,0.48814610355785537,nan
1740790103.3901148,0.46736111447063283,-0.35579514106244825,0.7059666592594777,0.5380508869911172,nan
1740790103.3940208,0.5026251044791774,-0.4118092364290779,0.7219107696313737,0.5830972971121735,nan
1740790103.3979268,0.5329214258384191,-0.4622421947408611,0.731346954495279,0.6225628869476425,nan
1740790103.4018326,0.5576331862608823,-0.5063666437104183,0.7337737887927465,0.6557507249439046,nan
1740790103.4057386,0.5761682962740605,-0.5434880677979611,0.7287288606993405,0.6819959073081823,nan
1740790103.4096446,0.5879650444359883,-0.5729514709070744,0.7157933731146408,0.700671911460688,nan
1740790103.4135506,0.5924975300802335,-0.5941478282508694,0.6945964761852462,0.7111967346436425,nan
1740790103.4174564,0.5892809059513878,-0.6065202685853378,0.6648192924384335,0.7130387629843,nan
1740790103.4213624,0.5778763841065749,-0.6095699296056104,0.626198598228609,0.7057223180432463,nan
1740790103.4252684,0.5578959598823695,-0.6028614314217431,0.5785301276421199,0.6888328300844069,nan
1740790103.4291744,0.5290068105510293,-0.5860279156592371,0.5216714677499366,0.6620215899633805,nan
1740790103.4330802,0.4909353275027172,-0.558775600847062,0.45554451712104543,0.6250100346258364,nan
1740790103.4369864,0.443470743375567,-0.5208878083388744,0.3801374827884385,0.5775935247137306,nan
1740790103.4408925,0.3864683184938894,-0.4722284170337557,0.29550639436847204,0.5196445766663094,nan
1740790103.4447982,0.3198520542439565,-0.4127447095891054,0.20177611774494572,0.4511155159439133,nan
1740790103.4487042,0.2436169045913624,-0.3424695776146205,0.09914085461176875,0.372040522561095,nan
1740790103.4526103,0.15783046079547058,-0.2615230584631211,-0.012135881809135335,0.2825370449539014,nan
1740790103.4565163,0.06263408847415372,-0.17011318164883887,-0.13172182042767955,0.18280656328441988,nan
1740790103.460422,-0.04175649951737668,-0.06853610858110629,-0.2592170166723624,0.0731346885612548,nan
1740790103.464328,-0.155051246441669,0.04282444484667065,-0.3941554647102936,-0.04610941061664284,nan
1740790103.468234,-0.27688633868732565,0.1634985072764001,-0.5360072303604706,-0.1744742563494506,nan
1740790103.47214,-0.406825379118975,0.2929318708872556,-0.6841810933455553,-0.3114279818197375,nan
1740790103.4760458,-0.5443611446642267,0.43048882262483656,-0.8380276833796675,-0.45636091522141037,nan
1740790103.4799519,-0.6889179212177239,0.5754555737858978,-0.9968430905437157,-0.6085888131132332,nan
1740790103.4838579,-0.8398544041460603,0.7270443680378788,-1.1598729264897505,-0.7673567235864304,nan
1740790103.487764,-0.9964671479407444,0.8843982420237332,-1.3263168092747064,-0.9318434542775423,nan
1740790103.49167,-1.1579945439301689,1.0465964069471365,-1.4953332410836158,-1.101166615076926,nan
1740790103.4955757,-1.3236213004657256,1.2126602140023914,-1.666044844793013,-1.2743882004252314,nan
1740790103.4994817,-1.4924833956807053,1.3815596612571512,-1.8375439222752312,-1.4505206713982512,nan
1740790103.5033877,-1.6636734688212096,1.5522203946621003,-2.0088982945798795,-1.6285334933960054,nan
1740790103.5072937,-1.8362466123018777,1.7235311512950353,-2.179157381673848,-1.8073600812134991,nan
1740790103.5111995,-2.009226523079856,1.8943515887895686,-2.3473584772972664,-1.9859050996142755,nan
1740790103.5151055,-2.1816119686997677,2.0635204411895547,-2.5125331727184106,-2.1630520642862745,nan
1740790103.5190115,-2.3523835204696852,2.2298639382444425,-2.6737138817616377,-2.337671185261974,nan
1740790103.5229175,-2.520510503709422,2.392204422448855,-2.8299404184515966,-2.508627392556776,nan
1740790103.5268233,-2.6849581128911955,2.549369095958491,-2.980266577973911,-2.674788481942679,nan
1740790103.5307305,-2.8446946377885856,2.7001988279057088,-3.1237666714036396,-2.8350333174457782,nan
1740790103.5346365,-2.9986987454793534,2.8435569516092145,-3.2595419648011914,-2.988260026349241,nan
1740790103.5385425,-3.1459667622236553,2.978337980734889,-3.386726973820609,-3.133394122206473,nan
1740790103.5424485,-3.285519898870664,3.1034761736262895,-3.504495565913974,-3.2693964916265323,nan
1740790103.5463543,-3.4164113635386695,3.2179538757851742,-3.6120668235408546,-3.395271181384749,nan
1740790103.5502603,-3.537733305867685,3.320809571841168,-3.70871062349349,-3.5100729237309243,nan
1740790103.5541663,-3.648623538156628,3.411145580296584,-3.7937528895130925,-3.612914339605719,nan
1740790103.5580723,-3.7482719801629303,3.4881353268535524,-3.866580477784329,-3.7029727618188333,nan
1740790103.561978,-3.8359267762501066,3.5510301352068296,-3.926645657633964,-3.779496623071644,nan
1740790103.565884,-3.910900035904441,3.5991654777932016,-3.973470152804248,-3.8418113569995835,nan
1740790103.5697901,-3.972573151387363,3.631966633098314,-4.006648711996931,-3.889324764138886,nan
1740790103.5736961,-4.020401649423844,3.6489537007011474,-4.025852180963084,-3.9215317988578695,nan
1740790103.577603,-4.053919537324354,3.6497459302475206,-4.030830052217848,-3.938018737800668,nan
1740790103.581509,-4.072743107770561,3.634065325945887,-4.021412472457157,-3.938466695233998,nan
1740790103.5854151,-4.076574170632102,3.601739493926218,-3.997511691912284,-3.9226544558248673,nan
1740790103.589321,-4.06520268458974,3.552703705848207,-3.9591229441643705,-3.8904606007665112,nan
1740790103.593227,-4.038508765983101,3.487002158437201,-3.9063247493192637,-3.841864908766091,nan
1740790103.597133,-3.99646405714087,3.404788415112664,-3.8392786378777366,-3.776949019164247,nan
1740790103.601039,-3.939132441447999,3.3063250224991654,-3.7582282970908873,-3.6958963503252042,nan
1740790103.6049447,-3.8666700975169874,3.1919823013179673,-3.663498146029046,-3.5989912723674964,nan
1740790103.6088507,-3.7793248900162,3.0622363178909664,-3.555491349978419,-3.4866175392500725,nan
1740790103.6127567,-3.6774350999247836,2.917666049190585,-3.4346872890774343,-3.359255991136381,nan
1740790103.6166627,-3.5614275021874016,2.7589497609818205,-3.3016385002790525,-3.2174815437806656,nan
1740790103.6205685,-3.4318148038898197,2.586860625069346,-3.1569671157425434,-3.0619594873672424,nan
1740790103.6244755,-3.2891924611253103,2.4022616079278065,-3.001360824585556,-2.893441122737313,nan
1740790103.6283815,-3.134234897629827,2.206099669003232,-2.8355683885339413,-2.7127587682126975,nan
1740790103.6322873,-2.9676911529903243,1.999399312676105,-2.6603947453637393,-2.520820175227823,nan
1740790103.6361933,-2.7903799927357285,1.7832555432227528,-2.4766957371098663,-2.318602395668313,nan
1740790103.6400993,-2.6031845168666488,1.5588262770552606,-2.285372502795066,-2.107145148147773,nan
1740790103.6440053,-2.407046307332417,1.327324271018086,-2.087365577888446,-1.8875437343975487,nan
1740790103.647911,-2.2029591585896737,1.0900086295332,-1.8836487448162693,-1.6609415604649909,nan
1740790103.651817,-1.9919624386452603,0.8481759568798874,-1.6752226806022465,-1.4285223204847137,nan
1740790103.655723,-1.775134130870564,0.6031512238400023,-1.4631084490971191,-1.1915019033795666,nan
1740790103.659629,-1.5535836093508284,0.3562784203089321,-1.2483408862576695,-0.951120084942398,nan
1740790103.6635349,-1.3284442025807803,0.10891106724597621,-1.031961927546552,-0.7086320693293973,nan
1740790103.667441,-1.1008656019206453,-0.13759733750009515,-0.815013926742834,-0.4652999450484782,nan
1740790103.6713476,-0.8720061723709582,-0.38190286441417065,-0.5985330152785641,-0.22238412104400926,nan
1740790103.6752536,-0.6430252239016486,-0.6226806135965748,-0.3835425506519283,0.01886519154110339,nan
1740790103.6791596,-0.41507530177534485,-0.8586340178254657,-0.17104670151889248,0.25721638690210163,nan
1740790103.6830657,-0.18929455403563844,-1.088503914453704,0.037975784258032,0.49146469747194427,nan
1740790103.6869714,0.033200766409010346,-1.3110773151343513,0.2425775840105778,0.720440189856356,nan
1740790103.6908774,0.251323608879136,-1.5251958049010843,0.44184853455365136,0.9430154635910518,nan
1740790103.6947834,0.46402318662665326,-1.7297635052318943,0.6349210561611743,1.158112995108413,nan
1740790103.6986895,0.6702917406725674,-1.9237545393697102,0.8209752286950909,1.3647120723647201,nan
1740790103.7025952,0.8691709558232719,-2.106219942330678,0.9992434853050574,1.5618552690789906,nan
1740790103.7065012,1.0597579818238239,-2.2762939626637477,1.169014892325694,1.7486544114397267,nan
1740790103.7104073,1.2412110158951242,-2.433199708094041,1.3296389874378225,1.9242959944122797,nan
1740790103.7143133,1.4127544065357946,-2.576254092643502,1.4805291518004102,2.088046009389894,nan
1740790103.7182212,1.5736832424174418,-2.7048720486282907,1.6211654956696524,2.239254149835742,nan
1740790103.7221272,1.7233673944303245,-2.8185699730334486,1.7510972409685566,2.3773573667191386,nan
1740790103.7260332,1.8612549834091103,-2.9169683841086993,1.8699445883209334,2.5018827509122255,nan
1740790103.729939,1.9868752507474663,-2.9997937705605136,1.9774000601840418,2.6124497252377092,nan
1740790103.733845,2.0998408139559426,-3.066879622378309,2.0732293158694945,2.7087715344966354,nan
1740790103.737751,2.1998492941891117,-3.1181666390699245,2.157271438398163,2.7906560275096006,nan
1740790103.741657,2.286684307823173,-3.1537021178352105,2.229438697257051,2.8580057309268994,nan
1740790103.7455628,2.3602158192618603,-3.1736385309191375,2.2897157951808214,2.9108172202545957,nan
1740790103.7494688,2.4203998572436065,-3.178231307999658,2.33815861103453,2.9491797991564543,nan
1740790103.7533748,2.467277601974133,-3.167835845924359,2.3748924546953405,2.973273503579177,nan
1740790103.7572808,2.500973855373663,-3.1429037743587234,2.4001098534886416,2.9833664525647032,nan
1740790103.7611866,2.52169491156591,-3.103978511894505,2.4140678931991375,2.979811572714514,nan
1740790103.7650907,2.529725849406562,-3.0516901528389195,2.417085139922741,2.963042728114817,nan
1740790103.7689967,2.52542727331418,-2.9867497302159527,2.4095381720252753,2.933570292078924,nan
1740790103.7729025,2.5092315328894603,-2.909942905416049,2.3918577542061574,2.89197620127695,nan
1740790103.7768085,2.4816384557556037,-2.8221231393885278,2.364524688108794,2.8389085366696474,nan
1740790103.7807145,2.4432106316913145,-2.7242044042457643,2.328065376056575,2.7750756791123337,nan
1740790103.7846205,2.39456828942959,-2.617153497606809,2.2830471363088107,2.7012400905195237,nan
1740790103.7885263,2.3363838104341874,-2.5019820249228517,2.230073309712529,2.618211774058283,nan
1740790103.7924323,2.2693759265185247,-2.3797381173747447,2.169778198764328,2.526841468949216,nan
1740790103.7963383,2.194303650319498,-2.2514979546956084,2.102821880885105,2.428013637083808,nan
1740790103.8002443,2.1119599893655527,-2.1183571634364937,2.0298849381461794,2.322639299804644,nan
1740790103.80415,2.023165495772106,-1.9814221617527044,1.9516631457678706,2.2116487838348498,nan
1740790103.808056,1.9287617044498242,-1.8418015217402937,1.868862161443641,2.0959844354827006,nan
1740790103.8119624,1.8296045131178533,-1.70059741969963,1.782192256930453,1.9765933618894072,nan
1740790103.8158681,1.726557557374103,-1.5588972434541954,1.6923631323974235,1.854420257239099,nan
1740790103.8197742,1.6204856335914928,-1.417765424021368,1.6000788527519516,1.7304003705210922,nan
1740790103.8236802,1.5122482214894788,-1.2782355565367296,1.506032943579227,1.605452669640558,nan
1740790103.8275862,1.402693156885072,-1.1413028723977034,1.4109036824543055,1.480473254433811,nan
1740790103.831492,1.2926505033711988,-1.0079171211445321,1.315349619234742,1.3563290684811897,nan
1740790103.835398,1.1829266695204101,-0.8789759166690676,1.2200053565375633,1.2338519565503854,nan
1740790103.839304,1.0742988156897715,-0.7553185979714896,1.1254776189703593,1.1138331110754291,nan
1740790103.84321,0.9675095916324226,-0.6377206499121133,1.0323416368476264,0.9970179473141206,nan
1740790103.8471158,0.8632622429298042,-0.5268887242738224,0.9411378671068158,0.8841014427646017,nan
1740790103.8510218,0.7622161207756332,-0.4234562960070683,0.8523690709717294,0.7757239720977084,nan
1740790103.8549278,0.6649826259003275,-0.3279799838231374,0.7664977646229862,0.6724676643153652,nan
1740790103.8588338,0.5721216134568498,-0.24093655838391415,0.6839440557558973,0.5748533041178127,nan
1740790103.8627398,0.48413828153154853,-0.1627206552606812,0.6050838754655173,0.48333779459657644,nan
1740790103.8666456,0.4014805616339056,-0.093643203654765,0.5302476114273499,0.3983121934091694,nan
1740790103.8705516,0.32453702509524485,-0.033930575643905996,0.4597191448705403,0.32010032957960843,nan
1740790103.8744576,0.2536353148076037,0.016275545504907694,0.3937352903985476,0.24895800304998608,nan
1740790103.8783636,0.18904110719945272,0.05691758557810471,0.3324856343297603,0.1850727641263375,nan
1740790103.8822694,0.13095760481422483,0.0880208018840259,0.27611276393598383,0.12856426506006785,nan
1740790103.8861754,0.07952555536990588,0.1096913274991299,0.22471287677781698,0.0794851712262766,nan
1740790103.8900814,0.034823788771591584,0.1221135625076631,0.17833675629896936,0.0378226147431033,nan
1740790103.8939874,-0.0031297407383570584,0.1255469428482314,0.1369910969712504,0.0035001689606449582,nan
1740790103.8978932,-0.034376424240158424,0.12032212246620497,0.10064015960135471,-0.023619681929238964,nan
1740790103.9017992,-0.05901500049647686,0.10683660920134506,0.06920773494072895,-0.04373260781538753,nan
1740790103.9057064,-0.07719911562244668,0.08554989917592236,0.042579391499693246,-0.05708906537530199,nan
1740790103.9096124,-0.08913446814326545,0.05697815835421829,0.020604981473342558,-0.06399053508891707,nan
1740790103.9135184,-0.09507557070325136,0.021688503387879497,0.003101376953878059,-0.06478540198697431,nan
1740790103.9174242,-0.09532216257062641,-0.01970706318407962,-0.010144592856245605,-0.05986452209078931,nan
1740790103.9213302,-0.09021530963417067,-0.06655800586978039,-0.01937303389435494,-0.049656518629095335,nan
1740790103.9252362,-0.08013323079189337,-0.11818183787074601,-0.02484774030464174,-0.034622853832854295,nan
1740790103.9291422,-0.06548689147193429,-0.1738708706488423,-0.0268528402735757,-0.01525272339936386,nan
1740790103.933048,-0.046715406489288056,-0.2328990698061305,-0.025689366888567298,0.007942178424162494,nan
1740790103.936954,-0.024281295519245707,-0.29452895540818985,-0.021671786286081896,0.03443297476338863,nan
1740790103.94086,0.0013343648460187412,-0.3580184851729654,-0.015124515078247015,0.06367895468173551,nan
1740790103.944766,0.02963684819996709,-0.42262785978510853,-0.006378458488069574,0.09513290646218374,nan
1740790103.9486718,0.06012270042707397,-0.48762619096847254,0.00423240020840686,0.1282463885405644,nan
1740790103.952579,0.09228463314454832,-0.5522979748405127,0.016374329427846283,0.16247489229305206,nan
1740790103.956485,0.12561634568362415,-0.6159493154607802,0.029717070049051515,0.19728285254126768,nan
1740790103.9603908,0.15961723405195763,-0.6779138463462037,0.04393692061487303,0.23214846367247052,nan
1740790103.9642968,0.19379694691089916,-0.7375583010288878,0.058719662162780975,0.26656826165733044,nan
1740790103.9682028,0.22767975052982603,-0.7942876874445014,0.07376329986267663,0.3000614349583571,nan
1740790103.9721088,0.2608086669237822,-0.8475500250241043,0.08878060079699432,0.3321738303301782,nan
1740790103.9760146,0.29274935191716484,-0.8968406077796431,0.10350140952634461,0.3624816227879535,nan
1740790103.9799206,0.32309368267944044,-0.9417057613805262,0.11767472552058016,0.3905946225297224,nan
1740790103.9838266,0.35146302732109674,-0.9817460671707395,0.1310705290758102,0.4161591953078761,nan
1740790103.9877326,0.3775111723894683,-1.016619031225779,0.1434813449577016,0.4388607766183895,nan
1740790103.9916384,0.40092688753336947,-1.0460411818479345,0.1547235356848896,0.4584259640767938,nan
1740790103.9955444,0.4214361101799879,-1.0697895842975138,0.16463831906808316,0.4746241764393101,nan
1740790103.9994514,0.43880373675340945,-1.087702767006485,0.17309250732474565,0.4872688718677353,nan
1740790104.0033574,0.45283501072721527,-1.0996810589695087,0.1799789677711349,0.4962183221892735,nan
1740790104.0072632,0.4633765016088252,-1.1056863434055417,0.18521680772805882,0.5013759440293192,nan
1740790104.0111692,0.47031667276588585,-1.105741238082193,0.18875128884015968,0.5026901917588021,nan
1740790104.0150752,0.47358603979036,-1.0999277178469087,0.19055347847786436,0.5001540211615118,nan
1740790104.018981,0.4731569248199252,-1.088385199867837,0.19061964824449848,0.4938039365556066,nan
1740790104.022887,0.4690428158656892,-1.0713081168088243,0.18897043182808046,0.4837186377635748,nan
1740790104.026793,0.46129734369797576,-1.048943007605963,0.1856497564989982,0.47001728678454036,nan
1740790104.030699,0.4500128921874049,-1.0215851596387557,0.18072356444400664,0.4528574172523878,nan
1740790104.0346048,0.43531886115782975,-0.9895748398619006,0.1742783418283274,0.4324325127355387,nan
1740790104.0385108,0.4173796037538867,-0.9532931558519123,0.16641947497774728,0.408969282624874,nan
1740790104.0424168,0.3963920630343046,-0.9131575906982535,0.15726945436012996,0.38272466674362343,nan
1740790104.0463235,0.3725831349502778,-0.869617258207117,0.14696594811155117,0.3539826018783867,nan
1740790104.0502295,0.3462067870364331,-0.8231479269676242,0.13565976768934587,0.32305058515845997,nan
1740790104.0541353,0.3175409640132235,-0.7742468634394903,0.12351274883810612,0.2902560705891229,nan
1740790104.0580413,0.28688431305975476,-0.7234275453470678,0.11069557142262287,0.25594273606481355,nan
1740790104.0619473,0.2545527627541082,-0.6712142973007047,0.09738554181385589,0.22046665884480532,nan
1740790104.0658534,0.22087599058594176,-0.6181369007107053,0.08376436141239206,0.18419243776532282,nan
1740790104.0697591,0.18619381451875522,-0.5647252297145804,0.07001590456283249,0.14748930038947575,nan
1740790104.0736651,0.15085254431476067,-0.5115039640120276,0.056324028558712984,0.11072723286498878,nan
1740790104.0775712,0.11520132823522217,-0.4589874282059267,0.042870437669421474,0.07427316947771237,nan
1740790104.0814772,0.07958853029780949,-0.40767460549759926,0.02983262214871056,0.03848727776778227,nan
1740790104.085383,0.04435817251740322,-0.3580443714008524,0.01738189202120354,0.003719373629636179,nan
1740790104.089289,0.009846475488300012,-0.31055099054598695,0.005681524102785899,-0.029694500935667195,nan
1740790104.0931957,-0.023621470702941537,-0.2656199166697634,-0.005114960791338173,-0.061435306787089985,nan
1740790104.0971017,-0.05573487489778033,-0.2236439325613991,-0.014865375143897063,-0.09120401500443327,nan
1740790104.1010075,-0.08620022420187266,-0.1849796630922821,-0.023440283004247203,-0.11872436686189641,nan
1740790104.1049135,-0.11474404798415914,-0.14994449053512526,-0.030724247574968548,-0.1437453633886326,nan
1740790104.1088195,-0.14111544267267678,-0.1188138972160889,-0.03661689843026799,-0.1660434644300516,nan
1740790104.1127255,-0.16508833606554343,-0.09181925618224411,-0.04103381071400302,-0.18542448021675342,nan
1740790104.1166313,-0.18646347263181295,-0.06914608604955096,-0.04390719074439721,-0.201725141663463,nan
1740790104.1205373,-0.20507010417714114,-0.050932781567270984,-0.045186364555889376,-0.21481433892615906,nan
1740790104.1244433,-0.22076737326464876,-0.03726982673828403,-0.04483806801470639,-0.22459402110904322,nan
1740790104.1283493,-0.23344537988258973,-0.028199492616192295,-0.04284653923273273,-0.2309997534013317,nan
1740790104.132255,-0.24302592500721948,-0.023716017204408177,-0.03921341605325047,-0.23400093130424224,nan
1740790104.136161,-0.24946292789136137,-0.02376626025410477,-0.03395744337233094,-0.2336006549487641,nan
1740790104.1400673,-0.2527425170863161,-0.028250821240461337,-0.027113996971657735,-0.229835269773162,nan
1740790104.1439734,-0.25288279834688954,-0.03702560443227546,-0.018734432354280472,-0.22277358299515262,nan
1740790104.1478794,-0.2499333056471499,-0.04990381079910236,-0.00888526877705877,-0.21251576834791122,nan
1740790104.1517854,-0.24397414451951094,-0.0666583325609581,0.002352779753347817,-0.19919197442393033,nan
1740790104.1556911,-0.2351148397945293,-0.08702452251412963,0.014885913324507923,-0.18296065466014816,nan
1740790104.1595972,-0.22349290253739004,-0.1107033068957699,0.02860848033240224,-0.16400663947802896,nan
1740790104.1635032,-0.20927213352509416,-0.1373646075097063,0.043404321489808925,-0.14253897334160587,nan
1740790104.1674092,-0.19264068296328415,-0.16665103615280577,0.05914820712323039,-0.1187885414958833,nan
1740790104.171315,-0.17380888828290805,-0.1981818220783816,0.07570735050696446,-0.09300551288070655,nan
1740790104.175221,-0.15300691376631861,-0.23155693132962615,0.09294297942644864,-0.06545662716760176,nan
1740790104.179127,-0.1304822174138281,-0.2663613352872341,0.1107119477994334,-0.03642235502803894,nan
1740790104.183033,-0.10649687186188295,-0.3021693847124221,0.1288683690143211,-0.006193961603116427,nan
1740790104.186939,-0.08132476729195146,-0.33854924493646976,0.14726525266976048,0.02492949629824169,nan
1740790104.190845,-0.05524872511674845,-0.375067347653572,0.16575612661591838,0.05664420849495044,nan
1740790104.194751,-0.02855755179217422,-0.41129281501385695,0.18419662660145678,0.08864465450071593,nan
1740790104.1986568,-0.001543062376617083,-0.446801812382336,0.20244603641499945,0.12062662099640425,nan
1740790104.2025628,0.02550289655583656,-0.4811817872177518,0.22036876216787107,0.1522901639935459,nan
1740790104.2064688,0.05229139534235816,-0.5140355530191897,0.23783572528652783,0.1833424869115509,nan
1740790104.2103748,0.07853931227313066,-0.5449851791705492,0.2547256598572088,0.2135007070010214,nan
1740790104.2142806,0.10397213937491785,-0.5736756497624996,0.2709263011793156,0.24249448401342594,nan
1740790104.2181866,0.1283266761768446,-0.5997782570639989,0.2863354537239843,0.2700684867262441,nan
1740790104.2220926,0.15135358606024418,-0.6229936982232099,0.30086192814510937,0.2959846748629201,nan
1740790104.2259986,0.17281979138833187,-0.6430548469703539,0.3144263385356976,0.32002437607730927,nan
1740790104.2299044,0.19251068542062325,-0.6597291755395807,0.3269617527459401,0.34199013997953814,nan
1740790104.2338104,0.21023214102179955,-0.6728208056882532,0.3384141902632302,0.3617073536396878,nan
1740790104.2377164,0.2258122983542157,-0.6821721715328561,0.3487429638804896,0.379025605591492,nan
1740790104.2416224,0.239103116074735,-0.6876652809025896,0.35792086312927984,0.39381978804343104,nan
1740790104.2455285,0.24998167301624982,-0.6892225659947675,0.3659341792098447,0.4059909297614771,nan
1740790104.2494342,0.25835120989719595,-0.6868073182599659,0.3727825728930945,0.4154667548883008,nan
1740790104.2533402,0.2641419032428933,-0.6804237066086043,0.3784787885815577,0.42220196577959623,nan
1740790104.2572463,0.2673113663944395,-0.6701163821735846,0.3830482193798328,0.42617825074130816,nan
1740790104.2611523,0.2678448751976568,-0.6559696769453082,0.3865283296230951,0.4274040203140154,nan
1740790104.265058,0.2657553186796805,-0.6381064075764719,0.3889679428285355,0.42591387844559175,nan
1740790104.268964,0.261082877707985,-0.6166862994961221,0.39042640445393806,0.42176783749420527,nan
1740790104.27287,0.2538944372600567,-0.5919040501388237,0.39097263015581485,0.4150502884857651,nan
1740790104.276776,0.2442827404865652,-0.5639870535507142,0.3906840514236527,0.4058687403894773,nan
1740790104.2806833,0.23236529520261026,-0.5331928118470389,0.3896454715153009,0.3943523443501746,nan
1740790104.284589,0.2182830457674888,-0.49980606193554844,0.3879478455212622,0.38065022080644617,nan
1740790104.288495,0.20219882549198243,-0.4641356485596991,0.38568699913405363,0.36492960921115425,nan
1740790104.292401,0.18429560672344414,-0.4265111770307854,0.3829623012860013,0.34737386163967876,nan
1740790104.296307,0.1647745675848339,-0.387279480988218,0.37987530623954496,0.3281803029076318,nan
1740790104.3002129,0.14385299596814477,-0.3468009421347456,0.3765283809649862,0.30755798091254083,nan
1740790104.3041189,0.1217620527912557,-0.30544570012485833,0.3730233337197535,0.2857253317545114,nan
1740790104.308025,0.09874441770820304,-0.2635897916299493,0.36946005965092227,0.26290778477303856,nan
1740790104.311931,0.07505184140662435,-0.22161125805691842,0.3659352189805988,0.23933533295752585,nan
1740790104.3158367,0.05094262932544538,-0.17988626145553324,0.36254096290550164,0.21524009424690346,nan
1740790104.3197427,0.0266790820759743,-0.1387852478156436,0.3593637217529211,0.1908538890308961,nan
1740790104.3236487,0.002524918048079159,-0.09866919623374446,0.35648306919206363,0.16640585870636757,nan
1740790104.327556,-0.021257296369770685,-0.05988599132855262,0.35397067541104965,0.14212014943387383,nan
1740790104.3314617,-0.04440868382955236,-0.022766954820205496,0.3518893611454984,0.11821368429141495,nan
1740790104.3353677,-0.06667653574037419,0.012376429626318032,0.3502922632958826,0.09489404584626503,nan
1740790104.3392737,-0.08781671086348487,0.04525556633611837,0.3492221216102406,0.07235748977560044,nan
1740790104.3431797,-0.10759592999535751,0.0756075428296355,0.34871069454995535,0.05078710857850173,nan
1740790104.3470855,-0.1257939451728916,0.10319764352022774,0.34877831101377543,0.030351162653694693,nan
1740790104.3509915,-0.1422055632606102,0.12782155810816503,0.3494335630843186,0.011201594088615353,nan
1740790104.3548975,-0.1566425053914093,0.14930726407861872,0.3506731433981425,-0.006527263562801262,nan
1740790104.3588035,-0.16893508551275443,0.16751656610335364,0.352481829141459,-0.02271976842159829,nan
1740790104.3627093,-0.17893369322028238,0.18234627869206965,0.3548326130556436,-0.037279837531741404,nan
1740790104.3666153,-0.18651006812055076,0.1937290421039118,0.35768698021670053,-0.05013159175075324,nan
1740790104.3705213,-0.19155835513278388,0.20163376527568677,0.3609953277478798,-0.061219774213354776,nan
1740790104.374428,-0.1939959323937945,0.2060656933133031,0.36469752305126735,-0.07050994071285269,nan
1740790104.378334,-0.1937640057479879,0.20706610088922234,0.3687235946189275,-0.07798842275471986,nan
1740790104.38224,-0.19082796616211128,0.20471161665350668,0.372994548022741,-0.0836620664171846,nan
1740790104.386146,-0.18517750877869596,0.1991131874622751,0.37742329829976135,-0.08755775248043665,nan
1740790104.3900518,-0.17682651468947333,0.1904146948186437,0.3819157086608327,-0.08972170553580129,nan
1740790104.3939579,-0.16581269884707125,0.17879123937242192,0.3863717242678355,-0.09021860193631501,nan
1740790104.3978639,-0.15219702981726368,0.16444711260218287,0.39068658876137186,-0.08913048847924465,nan
1740790104.4017699,-0.13606292928279157,0.14761347787522341,0.3947521302868952,-0.08655552559919842,nan
1740790104.4056756,-0.1175152613220565,0.12854578591755111,0.39845810297292994,-0.082606570579122,nan
1740790104.4095817,-0.09667912348171724,0.10752095230026942,0.40169356916820764,-0.07740961783902106,nan
1740790104.4134877,-0.07369845352248038,0.0848343268360676,0.40434830725189574,-0.07110211472393667,nan
1740790104.4173937,-0.04873446742487481,0.06079648675829154,0.40631422949777524,-0.06383117237072944,nan
1740790104.4213002,-0.021963945780704645,0.03572988720685926,0.40748679430254947,-0.05575169217712096,nan
1740790104.4252062,0.006422612947724965,0.00996540385495066,0.40776639708226714,-0.04702442911788582,nan
1740790104.4291122,0.0362229526567508,-0.016161196533929424,0.4070597242991917,-0.03781401364601678,nan
1740790104.4330182,0.06722511271790521,-0.04231282123528864,0.4052810554027836,-0.0282869541776683,nan
1740790104.436924,0.09920955263654077,-0.06815461576930736,0.40235349794945596,-0.018609642187382053,nan
1740790104.44083,0.13195132638124768,-0.0933574907135571,0.3982101418016696,-0.00894638173577546,nan
1740790104.444736,0.16522228420905086,-0.1176015751593657,0.39279511909124953,0.0005425351808410918,nan
1740790104.448642,0.19879327973111188,-0.14057956171302916,0.3860645575565349,0.009702686724748685,nan
1740790104.4525478,0.2324363601061864,-0.16199990915664494,0.3779874159189425,0.01838729289047358,nan
1740790104.4564538,0.2659269176112746,-0.18158987043271152,0.3685461911408325,0.026458881966955262,nan
1740790104.4603598,0.29904578141565474,-0.19909831548524912,0.35773748869148864,0.03379083426273271,nan
1740790104.4642658,0.33158122916852617,-0.21429832065858218,0.34557244832844947,0.04026878701142397,nan
1740790104.4681723,0.363330898992497,-0.2269894988004725,0.3320770193635545,0.045791885978917986,nan
1740790104.4720783,0.3941035836440105,-0.23700004691393073,0.3172920809118969,0.05027387104158059,nan
1740790104.475984,0.42372088994453816,-0.24418849112415675,0.3012734042021991,0.05364398487749073,nan
1740790104.47989,0.45201874808834536,-0.2484451118439711,0.28409145564286603,0.05584769588992992,nan
1740790104.4837961,0.4788487570777907,-0.24969303530121165,0.26583104097273474,0.056847228543035595,nan
1740790104.4877021,0.5040793543080757,-0.24788898100184004,0.24659079246301696,0.05662189641156544,nan
1740790104.491608,0.5275967992014656,-0.24302365820865116,0.22648250276039567,0.05516823540786267,nan
1740790104.495514,0.5493059627568596,-0.23512180808235048,0.20563031055435868,0.052499936826343616,nan
1740790104.49942,0.5691309169138697,-0.2242418917237396,0.18416974479858467,0.048647582016503994,nan
1740790104.503326,0.5870153197105162,-0.21047542793706683,0.16224663570079173,0.04365818263677396,nan
1740790104.5072317,0.6029225943190646,-0.19394598806957888,0.14001590210298165,0.037594532531270215,nan
1740790104.5111377,0.6168359021542336,-0.17480785873601548,0.1176402261901751,0.03053437928800178,nan
1740790104.5150442,0.6287579123407391,-0.15324438657494288,0.09528862767720762,0.02256942545951239,nan
1740790104.51895,0.6387103718820585,-0.1294660223736018,0.0731349507175529,0.013804171235523636,nan
1740790104.522856,0.6467334828690124,-0.10370808490785992,0.05135627774447579,0.004354612033423809,nan
1740790104.526762,0.652885094985621,-0.07622826764445664,0.030131285283063563,-0.005653194000682785,nan
1740790104.530668,0.6572397233918192,-0.04730391401651388,0.009638557453343563,-0.016084672225691835,nan
1740790104.5345738,0.6598874037704328,-0.017229089285357675,-0.009945126587110602,-0.026798373935848156,nan
1740790104.5384798,0.6609323979027228,0.013688520980413791,-0.02844651464375201,-0.03764769645661814,nan
1740790104.5423858,0.6604917645678631,0.04513085406338184,-0.045697596105560345,-0.04848266158210803,nan
1740790104.5462918,0.6586938118332708,0.07677282175390834,-0.06153729232173809,-0.05915173244512714,nan
1740790104.5501976,0.65567644790305,0.1082857363046771,-0.0758131059965727,-0.06950364853946267,nan
1740790104.5541036,0.651585448610803,0.1393407757655385,-0.08838271315528937,-0.07938925845910759,nan
1740790104.5580096,0.646572660372442,0.1696124534133949,-0.09911548168727677,-0.08866332998211911,nan
1740790104.5619159,0.6407941579483661,0.19878205597719642,-0.10789390108506598,-0.09718631740626184,nan
1740790104.5658216,0.6344083766979187,0.22654101569598195,-0.11461490876220887,-0.10482606653611261,nan
1740790104.5697277,0.6275742391404072,0.25259418193436994,-0.11919109924346573,-0.11145943842130986,nan
1740790104.5736337,0.6204492955658866,0.2766629591076344,-0.12155180356783679,-0.11697383384521731,nan
1740790104.5775397,0.613187898167138,0.29848827902688674,-0.12164402741888351,-0.12126860165269603,nan
1740790104.5814455,0.6059394276958773,0.3178333774498475,-0.11943323778630799,-0.12425631527308371,nan
1740790104.5853515,0.598846590986742,0.3344863465973558,-0.11490398935536766,-0.1258639032263526,nan
1740790104.5892575,0.5920438068499783,0.3482624376500045,-0.10806038330312029,-0.12603362098135218,nan
1740790104.5931635,0.5856556968172675,0.35900608975056364,-0.09892635273831463,-0.12472385324838972,nan
1740790104.5970693,0.5797956960461471,0.3665926647808397,-0.08754577063996025,-0.12190973761592083,nan
1740790104.6009753,0.5745647983596105,0.3709298701289741,-0.07398237781267614,-0.11758360236359414,nan
1740790104.6048813,0.570050447933101,0.3719588547854389,-0.05831953006857423,-0.11175521328104734,nan
1740790104.6087873,0.5663255885565611,0.369654967372068,-0.04065976554959957,-0.10445182637274102,nan
1740790104.6126933,0.5634478797112643,0.3640281680859096,-0.021124194804169088,-0.09571804541221239,nan
1740790104.616599,0.5614590869273216,0.35512308999496683,0.00014828208854102422,-0.08561548540267418,nan
1740790104.620505,0.5603846520464738,0.34301874862175735,0.02300192541065982,-0.07422224508292313,nan
1740790104.624411,0.5602334471249815,0.32782790225848907,0.04726526518793721,-0.0616321936663707,nan
1740790104.628317,0.5609977137924721,0.30969606893981916,0.07275236101411754,-0.04795407899533039,nan
1740790104.632223,0.5626531879541298,0.2888002094212314,0.09926420182977633,-0.033310466211536514,nan
1740790104.636129,0.5651594078051193,0.26534708883940183,0.12659023382507548,-0.01783651786751502,nan
1740790104.640035,0.5684602012370605,0.23957133293267466,0.154510003402538,-0.0016786281126150244,nan
1740790104.643941,0.5724843468757365,0.2117331977434036,0.18279490102384816,0.015007074835355745,nan
1740790104.6478467,0.5771464012153926,0.18211607457974077,0.21120999078467942,0.03205634229336534,nan
1740790104.6517527,0.5823476826257235,0.15102375465418877,0.23951590972297096,0.04929851788653145,nan
1740790104.6556602,0.587977401419671,0.11877748021424638,0.26747082017699464,0.06655833149830728,nan
1740790104.659566,0.5939139236991007,0.08571281111320277,0.2948323979765389,0.08365775550341437,nan
1740790104.663472,0.6000261553557262,0.05217633761580524,0.3213598388785765,0.10041790368607575,nan
1740790104.667378,0.606175031409396,0.01852227177609336,0.34681586545163146,0.11666095274738857,nan
1740790104.671284,0.6122150948263781,-0.014891049051691755,0.37096871657223945,0.132212066016848,nan
1740790104.6751897,0.6179961480867541,-0.04770471211555931,0.3935941018231557,0.14690129890727674,nan
1740790104.6790957,0.6233649600703363,-0.07956279757471854,0.41447710337463217,0.16056546579052883,nan
1740790104.6830018,0.6281670103113155,-0.11011592999954443,0.4334140083845139,0.17304994832200077,nan
1740790104.6869078,0.632248252337502,-0.13902477798500812,0.45021405556552446,0.18421042580182964,nan
1740790104.6908135,0.6354568776632933,-0.16596346728278463,0.46470108033294283,0.19391450892382403,nan
1740790104.6947196,0.6376450620471119,-0.19062287368015857,0.476715043855609,0.20204325922210775,nan
1740790104.6986256,0.638670675852895,-0.21271376300833195,0.4861134323788116,0.2084925776702789,nan
1740790104.7025325,0.6383989407682159,-0.2319697471375621,0.4927725143592812,0.21317444720692683,nan
1740790104.7064385,0.6367040157239516,-0.2481500265968886,0.496588444238656,0.21601801544122634,nan
1740790104.7103446,0.633470495625341,-0.2610418925244706,0.4974782030702683,0.21697050541776425,nan
1740790104.7142506,0.6285948074335427,-0.2704629629904297,0.4953803676914639,0.21599794407428133,nan
1740790104.7181563,0.6219864892201956,-0.27626313131434027,0.49025570168573557,0.21308569989151188,nan
1740790104.7220623,0.6135693390437407,-0.27832620679897635,0.48208756299101796,0.20823882319179188,nan
