timestamps,TP9,AF7,AF8,TP10,Right AUX
1740789307.9615936,-0.028850367446180185,0.6409031284313145,0.3508430828631354,0.05723183096255069,nan
1740789307.9654994,-0.04789933346766033,0.6761022593916494,0.3486454042100872,0.035038002200296965,nan
1740789307.9694052,-0.06717884376486292,0.7079924528475022,0.3454589172287259,0.013015365830151341,nan
1740789307.973311,-0.0864742419467483,0.7363066289171487,0.3413651002826235,-0.008613348679087146,nan
1740789307.977217,-0.10557144382134992,0.7608050209782926,0.3364520411976723,-0.029629281489212574,nan
1740789307.9811227,-0.1242591465529493,0.7812774989697084,0.3308133964162308,-0.04981965541286355,nan
1740789307.9850285,-0.14233099900974888,0.7975456219089223,0.32454731128287806,-0.06897992318437658,nan
1740789307.9889343,-0.1595877111541393,0.8094643992878157,0.31775531344657443,-0.08691582714635182,nan
1740789307.9928403,-0.17583908103856066,0.8169237438553532,0.31054119147649484,-0.10344535045715592,nan
1740789307.996746,-0.19090591889816905,0.8198496013170378,0.3030098707707244,-0.11840054007625041,nan
1740789308.0006518,-0.20462184896701463,0.8182047456444893,0.29526629868975623,-0.13162918313563038,nan
1740789308.0045578,-0.21683497097485896,0.8119892319638254,0.2874143505735799,-0.14299631984230077,nan
1740789308.0084672,-0.22740936479309692,0.8012405023460514,0.27955576790617487,-0.15238557776298423,nan
1740789308.012373,-0.23622642337435937,0.7860331432227874,0.2717891393801787,-0.15970031420013586,nan
1740789308.0162787,-0.24318600095381931,0.7664782965627974,0.26420893499403697,-0.1648645553589243,nan
1740789308.0201845,-0.2482073654317238,0.7427227303348438,0.25690460259200454,-0.16782372310734994,nan
1740789308.0240905,-0.2512299459160535,0.714947577116814,0.24995973544281277,-0.16854514232472753,nan
1740789308.0279963,-0.25221386854996825,0.683366752956687,0.2434513185554894,-0.16701832409465223,nan
1740789308.031902,-0.2511402759586233,0.648225071715533,0.2374490604612766,-0.16325502230425207,nan
1740789308.0358078,-0.24801142790122244,0.6097960730953865,0.23201481616020095,-0.1572890635383872,nan
1740789308.0397139,-0.24285058298354598,0.5683795853460061,0.22720210585138748,-0.1491759524816249,nan
1740789308.0436196,-0.23570166355034233,0.5242990462266114,0.22305573295001338,-0.1389922573387623,nan
1740789308.0475254,-0.22662870811267125,0.4778986081461527,0.21961150375338856,-0.12683478203273268,nan
1740789308.0514314,-0.21571511784952727,0.4295400554951688,0.21689604996679215,-0.11281953411425119,nan
1740789308.0553403,-0.20306270583368585,0.3795995639934591,0.2149267541490596,-0.09708049939825257,nan
1740789308.059246,-0.1887905596469436,0.32846433339243164,0.21371177700122787,-0.07976823630698467,nan
1740789308.063152,-0.1730337299495054,0.276529126074618,0.21325018431097664,-0.06104830472863648,nan
1740789308.0670578,-0.15594175933261462,0.224192744973249,0.21353217029337848,-0.041099545874999435,nan
1740789308.0709636,-0.13767706739504526,0.17185448478381535,0.21453937304573892,-0.02011223112504006,nan
1740789308.0748694,-0.11841320942624317,0.119910590651585,0.21624527687217646,0.001713900841849404,nan
1740789308.0787754,-0.09833302733739048,0.0687507583925127,0.21861569534186875,0.024171698201949476,nan
1740789308.0826812,-0.07762671254373969,0.018754709841075776,0.2216093281329906,0.04704872010546205,nan
1740789308.086587,-0.056489801356741996,-0.029711123877599565,0.22517838399039283,0.07012940874342541,nan
1740789308.0904927,-0.03512112408428591,-0.07629677947448407,0.22926926149637167,0.0931972868903595,nan
1740789308.0943987,-0.013720729455613034,-0.12067176877871671,0.23382327882644788,0.1160371582215197,nan
1740789308.0983045,0.007512193819782027,-0.1625278876631975,0.23877744324103206,0.13843728770889593,nan
1740789308.1022131,0.028381376584249718,-0.20158180011443375,0.24406525075272323,0.16019153963848332,nan
1740789308.106119,0.04869548834075508,-0.23757737322063024,0.24961750621051573,0.18110145126035004,nan
1740789308.110025,0.06827009490782762,-0.2702877413629444,0.2553631539573446,0.2009782207774954,nan
1740789308.1139307,0.08692953429210773,-0.2995170806183883,0.2612301092463754,0.21964458929239167,nan
1740789308.1178365,0.10450869136189454,-0.3251020772915224,0.2671460807426813,0.23693659745164275,nan
1740789308.1217422,0.12085465301784151,-0.34691307755687034,0.2730393746881566,0.25270519884806447,nan
1740789308.1256483,0.1358282268582159,-0.36485490838394263,0.27883967166459533,0.26681771374179436,nan
1740789308.129554,0.14930530781256132,-0.37886736320014863,0.2844787673482501,0.27915910833247065,nan
1740789308.1334598,0.16117807885329885,-0.38892534909057314,0.28989126920242975,0.28963308663576126,nan
1740789308.1373658,0.17135603367290655,-0.39503869570428707,0.295015241696105,0.2981629839708877,nan
1740789308.1412716,0.17976681111597903,-0.3972516294007,0.2997927933577319,0.3046924531311839,nan
1740789308.1451774,0.18635683316090507,-0.3956419194927609,0.30417059976588284,0.309185936465885,nan
1740789308.1490858,0.19109174033421522,-0.3903197066933806,0.30810035743206576,0.311628919326215,nan
1740789308.1529915,0.19395662058988888,-0.3814260270146772,0.31153916443604307,0.3120279625994362,nan
1740789308.1568975,0.19495602987388,-0.36913104737512936,0.3144498246192216,0.31041051434766503,nan
1740789308.1608033,0.19411380479785684,-0.3536320320073921,0.3168010731160831,0.3068245028603337,nan
1740789308.164709,0.19147267004278334,-0.33515106140097073,0.31856772199554306,0.30133771569661033,nan
1740789308.1686149,0.18709364527964498,-0.3139325279328023,0.3197307257821032,0.29403697151374003,nan
1740789308.1725209,0.18105525850871368,-0.2902404345107904,0.3202771676187903,0.2850270936261397,nan
1740789308.1764266,0.17345257475834944,-0.26435552445889543,0.32020016780880667,0.27442969629626307,nan
1740789308.1803324,0.16439605102812163,-0.23657227248837187,0.3194987174190396,0.26238179670052036,nan
1740789308.1842384,0.15401023018882126,-0.20719576791209138,0.3181774405352394,0.24903426732188458,nan
1740789308.1881442,0.14243228824470774,-0.1765385222545921,0.3162462896152946,0.23455014517675377,nan
1740789308.19205,0.1298104509033124,-0.14491723407945106,0.31372017918359935,0.21910281576988833,nan
1740789308.195958,0.1163022967694819,-0.11264954419147222,0.3106185638371092,0.20287409097272768,nan
1740789308.1998637,0.10207296566845822,-0.08005081437040357,0.3069649671836417,0.18605220112335885,nan
1740789308.2037697,0.08729329159554554,-0.04743096245591736,0.30278646889820926,0.16882972253972678,nan
1740789308.2076755,0.07213788057661144,-0.015091385933578299,0.2981131575568875,0.15140146231176504,nan
1740789308.2115812,0.05678315429626759,0.016677994824395605,0.29297755728480135,0.13396232268615468,nan
1740789308.215487,0.04140538070283163,0.04760154382164659,0.2874140365308097,0.11670516757447652,nan
1740789308.219393,0.026178712927418597,0.07742053897594699,0.28145820745336575,0.0998187136993038,nan
1740789308.2232988,0.01127325775722644,0.10589559760629398,0.275146324467944,0.08348546864325336,nan
1740789308.2272046,-0.003146805418851493,0.1328088737094528,0.26851469046560744,0.06787973758552059,nan
1740789308.2311103,-0.016925034817478063,0.15796600527900612,0.2615990790654286,0.05316571980382054,nan
1740789308.2350163,-0.02991444600551102,0.18119779255295532,0.25443418101223886,0.03949571509382648,nan
1740789308.238922,-0.04197912253393194,0.2023615909026962,0.24705308247869245,0.027008459122687706,nan
1740789308.2428298,-0.05299569997871822,0.22134240506805739,0.23948678258097628,0.015827605399270937,nan
1740789308.2467356,-0.06285470725822516,0.23805367456980367,0.2317637568760691,0.006060370025089899,nan
1740789308.2506416,-0.07146175062089058,0.2524377433606786,0.22390957298157385,-0.0022036462981999067,nan
1740789308.2545474,-0.07873852737787813,0.26446601007600323,0.21594656375428334,-0.008893446369143175,nan
1740789308.2584531,-0.08462365827522082,0.2741387585814308,0.20789356268901993,-0.013957424032782235,nan
1740789308.262359,-0.0890733293402176,0.2814846718547423,0.19976570536414817,-0.01736394259799975,nan
1740789308.266265,-0.09206173607718932,0.2865600355465556,0.1915742998743051,-0.01910169772996594,nan
1740789308.2701707,-0.09358132500687248,0.28944764080774105,0.18332676826485492,-0.019179860670237633,nan
1740789308.2740765,-0.09364282971974236,0.29025539911605197,0.17502666002734532,-0.01762799993220136,nan
1740789308.2779822,-0.09227510082360105,0.28911468484886693,0.16667373774218977,-0.014495781937589375,nan
1740789308.2818882,-0.08952473138674415,0.2861784242020258,0.15826413397558955,-0.009852453376974196,nan
1740789308.285794,-0.0854554816866859,0.28161895171726053,0.14979057756406444,-0.0037861103695898263,nan
1740789308.2897043,-0.08014750924747577,0.2756256581252624,0.1412426864636297,0.0035972382582540197,nan
1740789308.29361,-0.07369641226328225,0.26840245541262137,0.1326073234133098,0.012174804084564237,nan
1740789308.2975159,-0.0662120965397288,0.2601650869560394,0.12386900977555267,0.02180833702320447,nan
1740789308.3014216,-0.05781747801597184,0.2511383122160227,0.11501039208020808,0.03234561454363817,nan
1740789308.3053277,-0.048647034739020364,0.24155299682741682,0.10601275502446418,0.043622086820956536,nan
1740789308.3092334,-0.038845223828202116,0.2316431399514836,0.09685657397819737,0.055462660787693116,nan
1740789308.3131392,-0.028564780473804702,0.2216428714524124,0.08752209942164554,0.06768360456133558,nan
1740789308.317045,-0.017964917343738108,0.2117834518226919,0.07798996520827246,0.08009455241264521,nan
1740789308.320951,-0.007209443910864984,0.20229030780205842,0.06824181210728553,0.09250058933385975,nan
1740789308.3248568,0.0035351738510153,0.19338013631291978,0.05826091774367981,0.10470439337442615,nan
1740789308.3287625,0.014101792233235178,0.1852581086737697,0.048032823823865145,0.1165084132449032,nan
1740789308.3326685,0.024324585352026622,0.17811520605709116,0.037545951415644034,0.12771705825437707,nan
1740789308.3365784,0.03404103556301734,0.17212571583893407,0.026792195045283376,0.1381388774484792,nan
1740789308.3404841,0.043093896752697494,0.16744491685653715,0.01576748648264771,0.1475887048562562,nan
1740789308.34439,0.051333108723816065,0.16420697966368153,0.004472319308200743,0.15588974803532277,nan
1740789308.3482957,0.058617641318333434,0.16252310567008577,-0.007087774308587385,0.16287559762330744,nan
1740789308.3522017,0.0648172475769765,0.1624799265925573,-0.01890180274356084,0.16839213635529754,nan
1740789308.3561075,0.06981410611247135,0.16413818295639834,-0.03095295753631166,0.17229932698447248,nan
1740789308.3600132,0.0735043339659558,0.1675316974924164,-0.04321832640996597,0.17447285973711607,nan
1740789308.3639193,0.0757993525124677,0.17266665620677418,-0.055668682860461435,0.17480564133212934,nan
1740789308.367825,0.076627090468918,0.1795212066886606,-0.06826835764699783,0.1732091091851012,nan
1740789308.3717308,0.07593300972207019,0.18804537989666678,-0.08097519659996422,0.16961435618238033,nan
1740789308.3756366,0.07368094151801512,0.19816133826247787,-0.09374060817819807,0.16397305333364828,nan
1740789308.3795426,0.06985372252020007,0.20976394950445085,-0.1065097031641258,0.1562581596730486,nan
1740789308.3834522,0.06445362233037359,0.2227216820889504,-0.11922152779472736,0.14646441095820795,nan
1740789308.387358,0.05750255625455133,0.23687781484917458,-0.13180939050003054,0.1346085809914175,nan
1740789308.3912637,0.04904207936206437,0.25205194990474766,-0.144201281271695,0.1207295117348374,nan
1740789308.3951695,0.03913316020647073,0.2680418147552343,-0.156320381524928,0.10488791078785492,nan
1740789308.3990755,0.027855734928846358,0.2846253362805756,-0.16808566116070928,0.08716591721523523,nan
1740789308.4029813,0.015308044822175827,0.30156296640406965,-0.17941255839539488,0.06766643913464723,nan
1740789308.406887,0.001605762775736716,0.31860023638972135,-0.19021373681450096,0.04651226886656497,nan
1740789308.4107928,-0.013119083683970684,0.33547051418499385,-0.20039991303991025,0.023844983793785524,nan
1740789308.4146988,-0.02871938280828893,0.35189793690920534,-0.2098807473877938,-0.00017635665250008553,nan
1740789308.4186046,-0.0450343904095028,0.36760048855173566,-0.21856578895052392,-0.025376705291632905,nan
1740789308.4225104,-0.06189134889660929,0.38229319120484323,-0.22636546567152221,-0.05156669813829703,nan
1740789308.4264164,-0.07910725755605143,0.39569137673238786,-0.233192109208467,-0.07854448544597445,nan
1740789308.4303253,-0.0964907763327532,0.4075140046840955,-0.23896100370773582,-0.10609770455633599,nan
1740789308.434231,-0.1138442438043737,0.4174869915179655,-0.2435914470506006,-0.13400557469772353,nan
1740789308.438137,-0.13096578867102218,0.4253465158002691,-0.2470078126877185,-0.16204109250995039,nan
1740789308.4420428,-0.14765151291931647,0.4308422640193082,-0.24914059985981526,-0.18997330591978764,nan
1740789308.4459486,-0.163697723876907,0.43374058197767146,-0.24992745981479925,-0.21756964306458093,nan
1740789308.4498544,-0.17890319166269805,0.4338274974169924,-0.24931418557924753,-0.2445982722708832,nan
1740789308.4537604,-0.1930714080679305,0.4309115805739895,-0.2472556529282246,-0.27083046864914995,nan
1740789308.4576662,-0.20601282268037735,0.42482661075830064,-0.24371670042306698,-0.296042962669943,nan
1740789308.461572,-0.21754703209226597,0.4154340187691725,-0.23867293675222218,-0.32002024614508745,nan
1740789308.4654777,-0.2275048983135409,0.4026250770138725,-0.23211146411380665,-0.3425568113493689,nan
1740789308.4693837,-0.23573057304454922,0.3863228115369099,-0.22403150701717417,-0.36345929958265266,nan
1740789308.4732895,-0.24208340524244482,0.3664836127939279,-0.214444936649994,-0.3825485362843267,nan
1740789308.4771981,-0.24643971043728738,0.3430985248825236,-0.2033766818509487,-0.3996614308644762,nan
1740789308.481104,-0.24869438150808817,0.31619419604691623,-0.19086501873878528,-0.414652720699719,nan
1740789308.48501,-0.24876232210471705,0.2858334765743433,-0.17696173216725325,-0.42739654024421947,nan
1740789308.4889157,-0.24657968558504134,0.25211565366633637,-0.16173214339222164,-0.43778779791365124,nan
1740789308.4928215,-0.2421049042120733,0.21517631646387364,-0.14525499964073507,-0.44574334529554416,nan
1740789308.4967272,-0.23531949540546532,0.17518684809647073,-0.1276222226494961,-0.45120292530505085,nan
1740789308.5006332,-0.22622863404554885,0.1323535453751901,-0.10893851467876278,-0.4541298881203978,nan
1740789308.504539,-0.21486148216487944,0.08691637052111555,-0.08932082199277362,-0.4545116660754144,nan
1740789308.5084448,-0.20127126980887214,0.03914734307647268,-0.06889765731444815,-0.4523600011341645,nan
1740789308.5123506,-0.18553512337939454,-0.010651416152398773,-0.04780828429485034,-0.4477109211004568,nan
1740789308.5162566,-0.1677536403677877,-0.06214997365990046,-0.026201768570642273,-0.4406244632974031,nan
1740789308.5201623,-0.14805021201058538,-0.11499318536992514,-0.004235901499386186,-0.4311841470631967,nan
1740789308.5240707,-0.12657009803572197,-0.16880359006402904,0.01792399585320457,-0.41949619902230684,nan
1740789308.5279768,-0.10347926028213139,-0.2231845687212017,0.04010637946447507,-0.40568853767965096,nan
1740789308.5318825,-0.0789629645446569,-0.27772374148761914,0.06213488946388221,-0.3899095264223884,nan
1740789308.5357883,-0.05322416249238939,-0.33199657136072047,0.08382984592846437,-0.37232650647359256,nan
1740789308.5396943,-0.026481667905859436,-0.3855701413256161,0.10500982049751965,-0.3531241236985445,nan
1740789308.5436,0.0010318562483307204,-0.4380070696482813,0.12549326985275386,-0.33250246539307615,nan
1740789308.5475059,0.029072081262021512,-0.48886952633145764,0.14510021614615534,-0.3106750252607428,nan
1740789308.5514116,0.05738534605221021,-0.5377233123947138,0.16365395862861717,-0.28786651668942087,nan
1740789308.5553176,0.08571111809196447,-0.5841419626652904,0.18098280004878706,-0.26431055614773535,nan
1740789308.5592234,0.11378455799868058,-0.6277108321732839,0.1969217708636208,-0.24024724001873873,nan
1740789308.5631292,0.14133916255357348,-0.6680311260417635,0.21131433393769142,-0.21592063945596626,nan
1740789308.567035,0.1681094598520822,-0.7047238329541284,0.22401405221433854,-0.19157623887080624,nan
1740789308.570943,0.19383372946871447,-0.7374335228681038,0.23488620182311618,-0.16745834442809357,nan
1740789308.5748491,0.21825671997226023,-0.7658319706251067,0.24380931324814506,-0.1438074894293759,nan
1740789308.578755,0.24113233585616833,-0.7896215684681114,0.2506766235223922,-0.12085786369345888,nan
1740789308.5826607,0.26222626595941595,-0.8085384922198958,0.25539742293333983,-0.09883479399743915,nan
1740789308.5865664,0.28131852574771465,-0.822355587971805,0.25789828042385254,-0.07795230231701986,nan
1740789308.5904725,0.2982058864030478,-0.8308849485728368,0.2581241327443918,-0.05841076800375982,nan
1740789308.5943782,0.31270416452796185,-0.8339801519681891,0.2560392234532181,-0.04039471916327547,nan
1740789308.598284,0.32465034740357074,-0.8315381364903358,0.25162787906241274,-0.024070777359095876,nan
1740789308.6021898,0.3339045301380415,-0.8235006915263238,0.24489511097996278,-0.009585778371652616,nan
1740789308.6060958,0.34035164269362916,-0.8098555455414792,0.23586703339097803,0.002934909897092657,nan
1740789308.6100016,0.34390294667093807,-0.7906370371987244,0.2245910888416345,0.013388853150687222,nan
1740789308.6139073,0.344497283842037,-0.7659263592388668,0.21113607502365866,0.02169778291360153,nan
1740789308.617815,0.3421020607403654,-0.7358513688431685,0.1955919680897004,0.027808580363325088,nan
1740789308.621721,0.33671395611348104,-0.7005859623464352,0.1780695397440553,0.03169399934957824,nan
1740789308.6256268,0.32835934070135847,-0.6603490163668557,0.1586997673312295,0.03335311876037569,nan
1740789308.6295326,0.31709440159302277,-0.6154029016272795,0.13763303816815903,0.03281151710605985,nan
1740789308.6334386,0.3030049663110095,-0.5660515799204325,0.11503815141505085,0.030121164999400648,nan
1740789308.6373444,0.2862060247486105,-0.5126382987768892,0.09110112283494741,0.025360034084803067,nan
1740789308.6412501,0.26684095011003667,-0.4555429023889029,0.06602379983285216,0.018631423884039655,nan
1740789308.645156,0.2450804230487765,-0.3951787811858372,0.04002229617117172,0.010063010950643572,nan
1740789308.649062,0.2211210662343486,-0.3319894861094703,0.013325257708804585,-0.00019437236936658195,nan
1740789308.6529677,0.19518379957197354,-0.2664450370631637,-0.01382802761369199,-0.011968219415806652,nan
1740789308.6568735,0.1675119292232415,-0.1990379581729672,-0.04118966054068278,-0.02506607799798072,nan
1740789308.6607792,0.1383689863987448,-0.13027907536868016,-0.06850528535225775,-0.03927751087739088,nan
1740789308.6646864,0.1080363345869644,-0.06069311433899447,-0.09551635059921504,-0.05437626980499291,nan
1740789308.6685922,0.07681056641929301,0.009185860889835454,-0.1219624561396433,-0.0701226625912986,nan
1740789308.6724982,0.04500071372230038,0.0788191266812284,-0.1475837656781712,-0.08626609049682218,nan
1740789308.676404,0.012925296450069219,0.1476680523242101,-0.17212346297336292,-0.10254773124951765,nan
1740789308.6803098,-0.019090761901681665,0.2151988818649188,-0.19533022903715017,-0.11870334124680297,nan
1740789308.6842158,-0.050719323143063724,0.28088750012790253,-0.21696071701393183,-0.1344661490020597,nan
1740789308.6881216,-0.08163229686043465,0.344224137660533,-0.2367820010057971,-0.14956981066639582,nan
1740789308.6920273,-0.11150494477839744,0.4047179696090654,-0.25457397491171024,-0.16375139751077133,nan
1740789308.695933,-0.14001919449215958,0.46190156424626416,-0.27013167737819543,-0.17675438460326495,nan
1740789308.699839,-0.16686692957300364,0.5153351380141094,-0.2832675192204411,-0.18833160957057157,nan
1740789308.703745,-0.19175322289511343,0.5646105755125675,-0.29381339016709657,-0.19824817029802677,nan
1740789308.7076507,-0.21439948020386318,0.6093551748443018,-0.301622622508364,-0.20628423070171578,nan
1740789308.7115605,-0.23454646144544763,0.6492350810991039,-0.306571790182074,-0.21223770429976888,nan
1740789308.7154663,-0.2519571482038757,0.6839583735103221,-0.30856232301074205,-0.215926786214768,nan
1740789308.719372,-0.2664194267389436,0.7132777749144913,-0.3075219171963887,-0.21719230544916998,nan
1740789308.723278,-0.2777485575799676,0.736992955567127,-0.30340572477923494,-0.2158998707817429,nan
1740789308.7271838,-0.2857894043935554,0.754952407081257,-0.2961973065591753,-0.21194178542295072,nan
1740789308.7310896,-0.29041839689541504,0.7670548662268082,-0.28590933495107673,-0.20523870762603738,nan
1740789308.7349954,-0.2915452048989211,0.7732502725218118,-0.27258403538038695,-0.19574103676035529,nan
1740789308.7389014,-0.28911410316702657,0.7735402479215467,-0.25629335710645684,-0.1834300068938238,nan
1740789308.7428071,-0.28310500953648793,0.7679780914282563,-0.23713886676780932,-0.16831847267927702,nan
1740789308.746713,-0.27353418178928957,0.7566682860593249,-0.2152513604554006,-0.15045137526982255,nan
1740789308.7506187,-0.26045456192841465,0.739765520282069,-0.19079019271435096,-0.12990587907386197,nan
1740789308.7545247,-0.24395575984447326,0.7174732307039119,-0.16394232352830512,-0.10679117337223627,nan
1740789308.758434,-0.224163671805325,0.69004167745278,-0.13492108702912703,-0.08124793612754534,nan
1740789308.7623398,-0.20123973273041745,0.6577655682491658,-0.10396468837309267,-0.05344746068739156,nan
1740789308.7662458,-0.1753798047916503,0.6209812516140256,-0.07133443790762373,-0.023590449486515293,nan
1740789308.7701516,-0.14681270847896954,0.5800635039320704,-0.037312734394224355,0.008094517745723341,nan
1740789308.7740574,-0.1157984058468824,0.5354219391558555,-0.002200811627997186,0.04135283039973595,nan
1740789308.7779632,-0.0826258491827778,0.4874970737520291,0.03368373472348747,0.07590599385157507,nan
1740789308.7818692,-0.04761051177471272,0.436756083018932,0.07000962087395167,0.11145405941397586,nan
1740789308.785775,-0.011091620770958821,0.3836882881086217,0.10643472785286086,0.1476783169446293,nan
1740789308.7896807,0.026570884717174188,0.32880041593362513,0.14260911014910072,0.18424422678763397,nan
1740789308.7935867,0.06499964414602315,0.2726116765995687,0.17817813471927665,0.2208045650237543,nan
1740789308.7974925,0.10380338582709904,0.21564870505321387,0.2127857233496064,0.25700275352893237,nan
1740789308.8013983,0.14258062558830156,0.1584404152490173,0.24607766991959365,0.29247634411515083,nan
1740789308.8053074,0.18092352019297006,0.10151281629783358,0.27770500291737626,0.3268606240775194,nan
1740789308.8092134,0.21842183996636524,0.04538384075461123,0.3073273626157911,0.3597923088184336,nan
1740789308.8131192,0.2546670234644819,-0.009441764581691506,0.3346163616474341,0.3909132858830095,nan
1740789308.817025,0.28925627574420665,-0.062477435248603753,0.35925889732672023,0.4198743737362698,nan
1740789308.820931,0.3217966708725797,-0.11325962372232574,0.38096038396494,0.44633905795501894,nan
1740789308.8248367,0.351909218758877,-0.1613524239104628,0.39944787361593387,0.4699871672062206,nan
1740789308.8287425,0.3792328562157145,-0.20635193910207542,0.4144730341777771,0.49051845144574163,nan
1740789308.8326483,0.40342832235999937,-0.24789034909711283,0.4258149545597491,0.5076560251999951,nan
1740789308.8365543,0.424181879053593,-0.2856396348323685,0.4332827477009193,0.5211496395881332,nan
1740789308.84046,0.4412088380554004,-0.3193149218342474,0.43671792359130274,0.5307787479004517,nan
1740789308.8443658,0.45425685790623577,-0.34867740723392904,0.435996506090343,0.5363553310623486,nan
1740789308.8482716,0.46310897528638895,-0.3735368388481788,0.4310308692493594,0.5377264511719927,nan
1740789308.8521805,0.4675863376609944,-0.3937535189256437,0.4217712710108387,0.5347765034896865,nan
1740789308.8560863,0.46755060644429947,-0.40923980954730915,0.4082070645618316,0.5274291397604984,nan
1740789308.859992,0.4629060026514119,-0.41996112131101415,0.3903675702424781,0.515648838548524,nan
1740789308.8638978,0.4536009700427504,-0.4259363717812321,0.36832259373301723,0.4994421013276712,nan
1740789308.8678038,0.4396294340766602,-0.42723790520199767,0.3421825792403277,0.47885825638381935,nan
1740789308.8717096,0.42103163854121867,-0.4239908701064141,0.3120983895532572,0.4539898561077196,nan
1740789308.8756154,0.39789454550625186,-0.4163720566626773,0.27826070810800174,0.4249726569658711,nan
1740789308.8795211,0.3703517881878289,-0.4046082008250789,0.24089906157233693,0.3919851752946153,nan
1740789308.8834271,0.33858317041470454,-0.3889737675596271,0.20028046489138301,0.35524781603581224,nan
1740789308.887333,0.3028137105925436,-0.3697882305381702,0.15670769420712055,0.315021575584285,nan
1740789308.8912387,0.2633122323388385,-0.3474128706932839,0.11051719653822918,0.27160632401022533,nan
1740789308.8951447,0.22038950826999013,-0.3222471208503413,0.062076648554191864,0.22533867601563803,nan
1740789308.8990529,0.17439596772204152,-0.2947244882564079,0.01178218016646238,0.17658946404400375,nan
1740789308.9029586,0.1257189834377014,-0.26530809116268206,-0.039944718041920166,0.12576083094788093,nan
1740789308.9068646,0.07477975641442632,-0.2344858496453451,-0.0926605813495688,0.07328296349184943,nan
1740789308.9107704,0.022029822141556573,-0.2027653745286481,-0.14590362616872932,0.019610491690139405,nan
1740789308.9146762,-0.032052794679969236,-0.170668601566605,-0.1991976459877191,-0.03478141748701938,nan
1740789308.9185822,-0.08696774618187934,-0.1387262209119809,-0.25205611728084576,-0.08940124019222799,nan
1740789308.922488,-0.14219681396511374,-0.10747195432331719,-0.3039864822842496,-0.14374551466286717,nan
1740789308.9263937,-0.19720861101472942,-0.0774367345063574,-0.35449457339848156,-0.19730346139575644,nan
1740789308.9302995,-0.25146349274509583,-0.04914284243380074,-0.4030891421247007,-0.24956176441236375,nan
1740789308.9342055,-0.3044186345306638,-0.02309805941946113,-0.4492864538916899,-0.30000947138379613,nan
1740789308.9381113,-0.35553323094517436,0.00021010887277875606,-0.4926149089034083,-0.34814296864261507,nan
1740789308.942017,-0.40427377018744687,0.02032007943607644,-0.5326196482468598,-0.3934709857532206,nan
1740789308.945925,-0.45011933583499625,0.03680165356414778,-0.5688671039601059,-0.43551958336081,nan
1740789308.949831,-0.49256688715432684,0.049261237956952836,-0.6009494515798116,-0.4738370775042047,nan
1740789308.9537368,-0.5311364687215474,0.05734677184835092,-0.6284889238730423,-0.5079988534695541,nan
1740789308.9576426,-0.5653763000779886,0.06075230896591527,-0.6511419450123942,-0.5376120225858435,nan
1740789308.9615483,-0.5948676965675492,0.05922220588255833,-0.6686030453767311,-0.5623198761209387,nan
1740789308.9654543,-0.6192297733764246,0.05255487154636052,-0.6806085184484401,-0.5818060916263682,nan
1740789308.96936,-0.6381238861183282,0.04060603645233846,-0.6869397829255003,-0.5957986486939122,nan
1740789308.973266,-0.6512577630717795,0.02329150401707384,-0.6874264151627405,-0.6040734131170744,nan
1740789308.9771717,-0.6583892863689946,0.0005893511991304771,-0.6819488193882635,-0.6064573508815695,nan
1740789308.9810777,-0.6593298820426728,-0.027458449763756974,-0.6704405057917439,-0.6028313362229883,nan
1740789308.9849834,-0.6539474818380789,-0.06074501149781747,-0.6528899495318093,-0.5931325211652873,nan
1740789308.9888892,-0.6421690230699509,-0.09909813112333771,-0.629342006937682,-0.5773562374653708,nan
1740789308.992797,-0.6239824565200203,-0.1422805213773078,-0.599898868660783,-0.5555574057084772,nan
1740789308.9967027,-0.5994382364011146,-0.1899906794728162,-0.5647205332375052,-0.5278514303946477,nan
1740789309.0006084,-0.5686502707245432,-0.24186439406965538,-0.5240247884251686,-0.49441456419399743,nan
1740789309.0045145,-0.5317963149625484,-0.2974768848058761,-0.47808669173732626,-0.4554837290909219,nan
1740789309.0084202,-0.4891177966583709,-0.35634556291447805,-0.42723754579858203,-0.41135578684563445,nan
1740789309.012326,-0.4409190635619653,-0.4179333955775858,-0.3718633684276755,-0.36238625603472224,nan
1740789309.0162318,-0.3875660529169222,-0.48165285090669485,-0.3124028617045391,-0.3089874778482069,nan
1740789309.0201378,-0.32948438464950436,-0.5468703948355508,-0.24934488864501983,-0.2516262377754164,nan
1740789309.0240436,-0.26715688636859847,-0.6129115058245695,-0.18322547045821608,-0.19082085526154072,nan
1740789309.0279493,-0.201120563229937,-0.6790661681531982,-0.11462432165782242,-0.12713775831639737,nan
1740789309.031855,-0.13196303080289545,-0.744594799768141,-0.04416094450252134,-0.06118756486220664,nan
1740789309.035761,-0.06031843405762325,-0.8087345662070479,0.027509691686207247,0.006379302726052292,nan
1740789309.0396683,0.013137119581361852,-0.8707060280722343,0.09970185687433332,0.07487743894903319,nan
1740789309.043574,0.0876905805360345,-0.9297200659271242,0.17170411917571082,0.1435916771799763,nan
1740789309.0474799,0.1625973937566716,-0.9849850233650993,0.24278471959860384,0.21178267313231974,nan
1740789309.0513856,0.2370873106964132,-1.0357140063882755,0.3121972228577364,0.2786928069044418,nan
1740789309.0552917,0.3103705316945167,-1.0811322751595087,0.37918640153495176,0.34355235735014283,nan
1740789309.0591974,0.3816441304436827,-1.1204846626773344,0.4429943083037206,0.4055858995365795,nan
1740789309.0631032,0.45009870916525635,-1.1530429539880245,0.5028664887189408,0.4640188734653198,nan
1740789309.067009,0.5149252304838057,-1.1781131592039995,0.5580582852364576,0.5180842700737117,nan
1740789309.070915,0.5753219698065561,-1.195042613850513,0.6078411816864281,0.5670293788258669,nan
1740789309.0748208,0.6305015302964772,-1.2032268409145699,0.6515091363972882,0.6101225399644533,nan
1740789309.0787265,0.6796978612995463,-1.2021161104177807,0.688384851565973,0.6466598437413038,nan
1740789309.0826325,0.7221732203618697,-1.1912216343691324,0.7178259263044614,0.6759717186875355,nan
1740789309.0865421,0.757225018761353,-1.1701213375600197,0.7392308410686582,0.6974293512290516,nan
1740789309.090448,0.784192490787633,-1.1384651478225987,0.7520447218949999,0.7104508797031268,nan
1740789309.094354,0.8024631278344844,-1.0959797530587887,0.7557648340313295,0.7145073070840424,nan
1740789309.0982597,0.8114788197177731,-1.0424727765312958,0.7499457561458992,0.7091280784736109,nan
1740789309.1021655,0.8107416474915972,-0.9778363265555942,0.7342041883224593,0.6939062716448018,nan
1740789309.1060715,0.7998192743932172,-0.9020498818040701,0.7082233494871752,0.6685033516279312,nan
1740789309.1099772,0.7783498843870157,-0.8151824788878645,0.6717569227477579,0.6326534434792436,nan
1740789309.113883,0.746046621077953,-0.7173941746719156,0.6246325103364115,0.5861670809472236,nan
1740789309.1177888,0.7027014835004606,-0.6089367618547088,0.5667545634121762,0.5289343927248424,nan
1740789309.1216948,0.6481886394302594,-0.4901537226538644,0.4981067558681666,0.4609276923146387,nan
1740789309.1256006,0.5824671213810462,-0.36147941192711797,0.4187537754749882,0.3822034422030512,nan
1740789309.1295063,0.5055828752989872,-0.2234374676689355,0.3288425101406406,0.29290356800275863,nan
1740789309.1334157,0.4176701371156907,-0.07663845349784304,0.22860261174424598,0.19325610343594737,nan
1740789309.1373217,0.31895211772238846,0.07822325557016392,0.11834642486853204,0.08357515245408734,nan
1740789309.1412275,0.20974098253936788,0.24037332614023615,-0.001531727225155547,-0.03573983962451889,nan
1740789309.1451333,0.09043711762821789,0.40896203381355645,-0.13055690190635602,-0.16420550837668021,nan
1740789309.149039,-0.03847231981858713,0.5830695141396525,-0.26817553909920494,-0.30125668258416083,nan
1740789309.152945,-0.17641556282587065,0.7617116602519058,-0.41375809792751067,-0.4462491774530062,nan
1740789309.1568508,-0.3227390980739117,0.9438466244594337,-0.5666023149842294,-0.5984632538489019,nan
1740789309.1607566,-0.4767112157545301,1.1283818755714279,-0.7259370659862876,-0.7571077229816812,nan
1740789309.1646624,-0.6375262243386927,1.3141817586185631,-0.8909268075391942,-0.9213246704296318,nan
1740789309.1685684,-0.8043093030553328,1.5000754989569123,-1.0606765708476908,-1.0901947680312238,nan
1740789309.1724741,-0.976121959377372,1.6848655885360866,-1.2342374745108227,-1.2627431370354938,nan
1740789309.17638,-1.1519680535456898,1.8673364884240982,-1.4106127190726865,-1.43794572103803,nan
1740789309.1802893,-1.3308003471813687,2.046263578541283,-1.5887640218026333,-1.6147361226805843,nan
1740789309.184195,-1.511527528385243,2.2204222829944595,-1.7676184462876237,-1.7920128538996636,nan
1740789309.1881008,-1.693021661442998,2.3885972974451417,-1.9460755778692462,-1.9686469457108342,nan
1740789309.1920068,-1.8741260053823985,2.5495918436116125,-2.1230149927802646,-2.143489860145644,nan
1740789309.1959126,-2.053663142201725,2.7022368753081496,-2.2973039660593733,-2.315381644048038,nan
1740789309.1998184,-2.230443352636621,2.8454001603742243,-2.467805360973589,-2.4831592620142784,nan
1740789309.2037241,-2.4032731748837635,2.9779951634447834,-2.633385640777579,-2.645665043847714,nan
1740789309.2076302,-2.5709640797771574,3.098989655757064,-2.7929229422066233,-2.8017551805161722,nan
1740789309.211536,-2.7323411945354,3.207413980070974,-2.945315149149498,-2.950308201759639,nan
1740789309.2154417,-2.886252006379714,3.302368901284839,-3.089487904489959,-3.090233368208818,nan
1740789309.2193475,-3.031574977072651,3.383032976436313,-3.2244024981472603,-3.2204789111462513,nan
1740789309.2232535,-3.1672279997502586,3.4486693814644456,-3.3490635698896405,-3.3400400538708706,nan
1740789309.2271621,-3.292176630315897,3.4986321363429296,-3.462526566538176,-3.4479667500097264,nan
1740789309.231068,-3.4054420271263455,3.532371674941185,-3.563904894715737,-3.5433710760474795,nan
1740789309.2349737,-3.5061085347201115,3.5494397111894473,-3.6523767123168853,-3.6254342178011036,nan
1740789309.2388794,-3.59333084989871,3.549493358772297,-3.7271913043650957,-3.6934129935351505,nan
1740789309.2427855,-3.6663407115544526,3.5322984676042752,-3.7876749918653867,-3.746645859868743,nan
1740789309.2466912,-3.724453059218542,3.4977321466999216,-3.8332365256311207,-3.784558350541615,nan
1740789309.250597,-3.7670716093522256,3.4457844496846115,-3.8633719208377086,-3.806667902451419,nan
1740789309.2545028,-3.793693802888796,3.3765592060448264,-3.8776686922037684,-3.812588028112854,nan
1740789309.2584088,-3.8039150824185666,3.290273988228506,-3.875809454189449,-3.8020317987821697,nan
1740789309.2623146,-3.7974324626524263,3.187259211817158,-3.8575748553967886,-3.7748146078960887,nan
1740789309.2662203,-3.77404736335911,3.067956373140557,-3.822845821419682,-3.730856190147796,nan
1740789309.2701263,-3.73366767980043,2.9329154358301173,-3.771605085681006,-3.6701818774167165,nan
1740789309.2740345,-3.6763090717392397,2.7827913848470858,-3.7039379932688465,-3.592923078834651,nan
1740789309.2779403,-3.6020954583161067,2.618339973415547,-3.6200325683986696,-3.4993169784574056,nan
1740789309.2818463,-3.511258712430567,2.440412694978302,-3.520178841837699,-3.389705450266646,nan
1740789309.285752,-3.4041375546683312,2.249951018718055,-3.4047674403856933,-3.2645331964987063,nan
1740789309.2896578,-3.281175653233023,2.047979933291464,-3.274287446265362,-3.124345121532758,nan
1740789309.2935636,-3.14291894271604,1.8356008491565532,-3.1293235399889237,-2.969782959717486,nan
1740789309.2974696,-2.9900121808172577,1.613983915185227,-2.970552445887826,-2.8015811815214366,nan
1740789309.3013754,-2.8231947682596155,1.3843598100962013,-2.7987387049742445,-2.6205622082067404,nan
1740789309.3052812,-2.643295863070562,1.148011073577702,-2.6147298051004886,-2.427630970799824,nan
1740789309.309187,-2.4512288260826236,0.9062630457564489,-2.419450703452116,-2.223768854418894,nan
1740789309.313093,-2.247985039886406,0.6604744868770852,-2.213897781210643,-2.0100270739717088,nan
1740789309.3169987,-2.0346271485065457,0.4120279516568516,-1.9991322747123135,-1.7875195318165322,nan
1740789309.3209069,-1.8122817697220643,0.16231999475169204,-1.776273231573379,-1.557415212145459,nan
1740789309.3248127,-1.5821317361781821,-0.0872487149045182,-1.546490044015326,-1.3209301705673615,nan
1740789309.3287184,-1.345407925201178,-0.3352832924574137,-1.310994614974126,-1.079319180606074,nan
1740789309.3326244,-1.1033807404999803,-0.5804044697496897,-1.0710332154881779,-0.8338671015609156,nan
1740789309.3365302,-0.8573513116901641,-0.8212582844175678,-0.8278780943056462,-0.5858800343781788,nan
1740789309.340436,-0.6086424797852333,-1.0565255489956955,-0.5828189026133049,-0.33667633383552353,nan
1740789309.3443418,-0.35858963844796743,-1.2849310255140183,-0.3371539982490376,-0.08757754643241654,nan
1740789309.3482478,-0.10853150186788198,-1.5052522336498315,-0.0921816947069159,0.16010065609991223,nan
1740789309.3521535,0.1401991293792047,-1.7163278236803612,0.1508084793309955,0.405057477810202,nan
1740789309.3560593,0.38628453323038264,-1.9170654492375496,0.39054444430162233,0.646015864830463,nan
1740789309.3599653,0.6284310912168408,-2.106449079163739,0.6257800928962439,0.8817311689377261,nan
1740789309.363871,0.8653781044114973,-2.28354569256673,0.8553036081570426,1.110999542095615,nan
1740789309.3677788,1.0959063327564225,-2.4475113064327463,1.0779455143206855,1.3326659979938125,nan
1740789309.3716846,1.3188461926635935,-2.5975962908298715,1.2925864003439553,1.545632079422221,nan
1740789309.3755906,1.5330855506932062,-2.733149932772558,1.4981642586740134,1.748863073632993,nan
1740789309.3794963,1.7375770545294178,-2.853624216166956,1.6936813849100103,1.9413947216287475,nan
1740789309.383402,1.9313449463643608,-2.9585767918613155,1.878210787518025,2.1223393715366408,nan
1740789309.387308,2.113491308133809,-3.0476731186279813,2.050902060678495,2.2908915308490028,nan
1740789309.391214,2.2832016927845107,-3.1206877628440375,2.210986677632016,2.446332777292313,nan
1740789309.3951197,2.439750100853195,-3.177504851656206,2.357782666510171,2.5880359933845614,nan
1740789309.3990254,2.5825032670566292,-3.21811768145106,2.490698635554571,2.71546889531107,nan
1740789309.4029312,2.710924227284397,-3.2426274904431422,2.6092371197989825,2.8281968325431457,nan
1740789309.4068372,2.8245751423026717,-3.251241411080766,2.712997226673556,2.925884840592772,nan
1740789309.410743,2.923119360567406,-3.2442696246927247,2.801676563542172,3.008298935389376,nan
1740789309.414653,3.0063227087573634,-3.22212174730136,2.8750724358582187,3.075306643929452,nan
1740789309.4185588,3.074054004918427,-3.1853024817525633,2.9330823103737815,3.126876772034427,nan
1740789309.4224648,3.126284795407283,-3.1344065772087215,2.975703543615117,3.163078416204153,nan
1740789309.4263706,3.1630883230818765,-3.0701131425660626,3.003032381595924,3.184079232621017,nan
1740789309.4302764,3.184637740355002,-2.99317936544735,3.0152622424321267,3.190142982291793,nan
1740789309.4341822,3.1912035867544977,-2.90443369304163,3.012681299101212,3.1816263770613906,nan
1740789309.4380882,3.1831505564680165,-2.8047685351767724,2.9956693850100176,3.158975256746608,nan
1740789309.441994,3.160933586944036,-2.6951325535842274,2.9646942502533196,3.122720132873052,nan
1740789309.4458997,3.1250933049270326,-2.576522604320099,2.920307201419309,3.073471139411448,nan
1740789309.4498057,3.0762508712799965,-2.449975402718777,2.8631381624870085,3.0119124354601725,nan
1740789309.4537115,3.015102270551051,-2.3165589820567747,2.793890198727224,2.9387961089720696,nan
1740789309.4576173,2.9424120954354693,-2.1773640182823732,2.713333549527987,2.854935634342052,nan
1740789309.461527,2.85900688003629,-2.033495093714065,2.6222992196859076,2.761198939927864,nan
1740789309.4654331,2.7657680391062254,-1.8860619725259637,2.52167218190798,2.658501144344532,nan
1740789309.469339,2.6636244732352994,-1.7361709601255777,2.4123842460295513,2.5477970226319897,nan
1740789309.4732447,2.553544902211366,-1.584916417198054,2.2954066527521215,2.430073265128663,nan
1740789309.4771504,2.436529990508067,-1.4333724972564594,2.1717424515226647,2.306340593079377,nan
1740789309.4810565,2.31360433003488,-1.2825851740200682,2.042418723500975,2.177625795656389,nan
1740789309.4849622,2.1858083459098556,-1.1335646218676216,1.908478711384581,2.0449637531751605,nan
1740789309.488868,2.0541901910851244,-0.9872780090102017,1.7709739181773816,1.9093895108437897,nan
1740789309.492774,1.919797695171067,-0.8446427589337987,1.6309562367981663,1.7719304664037916,nan
1740789309.4966798,1.7836704317744538,-0.7065203311136845,1.4894701717324572,1.6335987335116071,nan
1740789309.5005856,1.6468319671012395,-0.5737105670444673,1.347545212743942,1.4953837406909936,nan
1740789309.5044913,1.5102823504925247,-0.4469466423073652,1.2061884189924692,1.3582451231766528,nan
1740789309.508401,1.3749909049838003,-0.3268906597593191,1.066377269770411,1.2231059619937898,nan
1740789309.5123067,1.241889372928175,-0.21412991302893006,0.9290528354883902,1.0908464212051234,nan
1740789309.5162125,1.1118654682331908,-0.1091738433958463,0.7951133195387201,0.9622978304385582,nan
1740789309.5201182,0.9857568828610265,-0.01245170686881943,0.6654080182677482,0.8382372556206914,nan
1740789309.5240242,0.8643457909697138,0.07568903808025962,0.5407317425270095,0.7193825963221779,nan
1740789309.52793,0.7483538894678289,0.15498361806612823,0.4218197401812082,0.6063882433120007,nan
1740789309.5318358,0.6384380088590502,0.22525010994260034,0.30934315456443023,0.49984132486235344,nan
1740789309.5357418,0.5351863231103289,0.28638889218085006,0.2039050492331764,0.40025856508973356,nan
1740789309.5396476,0.43911518193445737,0.3383813972704426,0.10603702450588931,0.3080837722077231,nan
1740789309.5435534,0.3506665833822442,0.3812881859288744,0.016196446245703017,0.22368596905100632,nan
1740789309.5474591,0.27020629904005355,0.41524636965718004,-0.06523569782071376,0.14735817265696116,nan
1740789309.5513651,0.1980226584745277,0.44046641364388556,-0.13795630420611105,0.07931682410955751,nan
1740789309.555274,0.13432599390735026,0.4572283571504418,-0.20174101743834935,0.01970186430895914,nan
1740789309.55918,0.07924874048820961,0.46587749326443956,-0.25644445205056954,-0.03142255412291988,nan
1740789309.5630858,0.032846182012160594,0.46681955424251476,-0.3019997785716583,-0.07406673390872329,nan
1740789309.5669916,-0.004902173454210065,0.4605154525468686,-0.3384176844565606,-0.1083134993992214,nan
1740789309.5708973,-0.034090608769232894,0.4474756310761674,-0.3657847259166491,-0.13431568723314313,nan
1740789309.5748034,-0.05488462943263058,0.4282540789761623,-0.3842610914566562,-0.15229309118070244,nan
1740789309.5787091,-0.06751784221400112,0.4034420717655186,-0.3940778025570829,-0.16252889532283304,nan
1740789309.582615,-0.07228831546962425,0.3736616963108221,-0.39553338132199245,-0.16536563372326635,nan
1740789309.5865207,-0.06955445996216009,0.33955922241943515,-0.38899001900659774,-0.1612007183838397,nan
1740789309.5904267,-0.05973047265744197,0.3017983834829566,-0.37486928311462453,-0.1504815805058772,nan
1740789309.5943325,-0.043281389224668766,0.26105362869583765,-0.35364740418253215,-0.13370047288705703,nan
1740789309.5982382,-0.020717793785767193,0.21800340889683842,-0.325850186420049,-0.1113889836426722,nan
1740789309.6021469,0.007409763174548986,0.1733235570442238,-0.29204758903108774,-0.08411231333559295,nan
1740789309.6060526,0.04051658593135678,0.1276808227527425,-0.25284802727662087,-0.05246336901769628,nan
1740789309.6099586,0.07798983945610759,0.08172661821024296,-0.2088924441458072,-0.01705672961870157,nan
1740789309.6138644,0.11919468502795169,0.03609103017769753,-0.16084820486170376,0.02147746243792538,nan
1740789309.6177702,0.16348048995503234,-0.008622850313676246,-0.10940286735528877,0.06249962855764666,nan
1740789309.621676,0.21018705590979408,-0.05184423248843154,-0.05525788229227647,0.10536684593139609,nan
1740789309.625582,0.25865081094043724,-0.09303952043819105,0.000877723768824366,0.14943885082628522,nan
1740789309.6294878,0.3082109112585257,-0.13171675799067323,0.058293628967819824,0.1940839013778445,nan
1740789309.6333935,0.35821520040667526,-0.16742958864510707,0.11628440826757759,0.23868444996320115,nan
1740789309.6372995,0.40802597536257473,-0.19978070029939496,0.17415558623459246,0.2826425775703345,nan
1740789309.6412053,0.4570255115145615,-0.22842472964408048,0.23122950135375686,0.32538514531336715,nan
1740789309.645111,0.5046213012243981,-0.25307060643133766,0.28685093491178437,0.3663686213495257,nan
1740789309.6490195,0.5502509638459828,-0.27348332329312425,0.3403924600177073,0.4050835448986922,nan
1740789309.6529253,0.5933867885627275,-0.2894851223296132,0.3912594692156422,0.44105859281730364,nan
1740789309.656831,0.6335398752065805,-0.3009560952649623,0.4388948423567579,0.47386421819812574,nan
1740789309.660737,0.6702638422910343,-0.30783419952045604,0.48278321990348616,0.5031158347174982,nan
1740789309.6646428,0.7031580757897264,-0.3101146980335921,0.5224548506067617,0.5284765248914347,nan
1740789309.6685486,0.7318704966804326,-0.3078490360054594,0.557488986491573,0.5496592549896949,nan
1740789309.6724544,0.7560998299089596,-0.30114317293884946,0.587516802270866,0.5664285840496925,nan
1740789309.6763604,0.7755973621654076,-0.29015539328909645,0.6122238206450412,0.5786018591863779,nan
1740789309.6802661,0.7901681806625421,-0.2750936237440467,0.6313518293949424,0.5860498941663901,nan
1740789309.684172,0.7996718899185356,-0.25621228953710046,0.6447002807009521,0.5886971329613111,nan
1740789309.688078,0.8040228083303019,-0.23380874623930487,0.6521271676795691,0.5865213046728266,nan
1740789309.6919837,0.80318965103584,-0.20821932713788238,0.6535493776819911,0.5795525807901901,nan
1740789309.6958919,0.7971947101622617,-0.17981504955802943,0.6489425264071658,0.5678722501569071,nan
1740789309.6997976,0.7861125479997276,-0.14899702629504596,0.6383402813059503,0.5516109312502696,nan
1740789309.7037034,0.7700682228914052,-0.1161916306719336,0.6218331870556963,0.530946345377427,nan
1740789309.7076094,0.7492350716488108,-0.08184546560497678,0.5995670100295847,0.5061006781306878,nan
1740789309.7115152,0.7238320760561848,-0.04642018843277061,0.5717406226377565,0.4773375598909753,nan
1740789309.715421,0.6941208444849853,-0.010387244133474095,0.5386034521452344,0.44495869929308957,nan
1740789309.7193267,0.6604022427716049,0.02577744008349596,0.5004525220444519,0.40930020634396663,nan
1740789309.7232327,0.623012711292441,0.061598745971060666,0.457629117250164,0.3707286442934635,nan
1740789309.7271385,0.582320307578471,0.0966075890311855,0.4105151072665041,0.32963685137757726,nan
1740789309.7310443,0.5387205158281324,0.1303460258427487,0.3595289640279369,0.2864395751717521,nan
1740789309.7349503,0.49263186628793076,0.1623721944964914,0.30512151331870735,0.2415689634958516,nan
1740789309.738856,0.44449140866403236,0.1922650407794742,0.24777146051351398,0.1954699565955473,nan
1740789309.7427638,0.39475008449839954,0.2196287852635264,0.18798073284296268,0.14859562568400958,nan
1740789309.7466695,0.3438680437868766,0.2440970893726082,0.12626968146208095,0.10140250286376422,nan
1740789309.7505755,0.29230995103526053,0.2653368818020735,0.06317218728324266,0.05434594696610394,nan
1740789309.7544813,0.24054032544786091,0.2830518103043158,-0.0007692851756017965,0.007875588953027358,nan
1740789309.758387,0.18901895903023724,0.2969852878030477,-0.06500864177898676,-0.03756910076334502,nan
1740789309.7622929,0.1381964550764853,0.3069231060126177,-0.12900107693929405,-0.0815630824007095,nan
1740789309.7661989,0.08850992781779521,0.3126955941772479,-0.19220791316847347,-0.12369981563696092,nan
1740789309.7701046,0.040378901952758214,0.3141793051638538,-0.25410132046005773,-0.16359509091634367,nan
1740789309.7740104,-0.005798551616030201,0.3112982158958713,-0.314168875532376,-0.20089058964540646,nan
1740789309.7779164,-0.04964941022433965,0.3040244339577774,-0.3719179228850724,-0.23525714266785935,nan
1740789309.7818222,-0.0908289934480385,0.29237840708397184,-0.426879701855837,-0.26639765963814743,nan
1740789309.785728,-0.12902392929398754,0.27642863712425547,-0.4786132063895148,-0.2940497053672784,nan
1740789309.7896352,-0.1639547686805965,0.25629090490471157,-0.5267087470217738,-0.31798770285648564,nan
1740789309.793541,-0.19537822796562052,0.2321270171314524,-0.5707911876067688,-0.338024746528823,nan
1740789309.7974467,-0.22308904308594646,0.20414309107087517,-0.6105228325530369,-0.3540140130784384,nan
1740789309.8013525,-0.2469214227940337,0.17258739714070387,-0.6456059437432341,-0.3658497613443588,nan
1740789309.8052585,-0.26675009247017145,0.13774778372028298,-0.6757848698688611,-0.37346791664164747,nan
1740789309.8091643,-0.2824909240203776,0.09994871239779556,-0.7008477745774904,-0.3768462390095471,nan
1740789309.81307,-0.29410115139806087,0.05954793548053227,-0.7206279535732486,-0.37600407882561665,nan
1740789309.816976,-0.301579175275443,0.016932850869443267,-0.7350047345970837,-0.3710017271495626,nan
1740789309.8208818,-0.3049639643007687,-0.027483427688400043,-0.7439039580072649,-0.36193937196412895,nan
1740789309.8247876,-0.30433406417317027,-0.07326624443157027,-0.7472980394485904,-0.3489556751380582,nan
1740789309.8286934,-0.2998062294138393,-0.11996377684823645,-0.7452056198073785,-0.33222598841453466,nan
1740789309.8325994,-0.2915336961765869,-0.16711156803366115,-0.7376908112658707,-0.3119602299961967,nan
1740789309.836509,-0.27970411769185327,-0.21423717055711447,-0.7248620517627229,-0.28840044632591605,nan
1740789309.840415,-0.2645371869467663,-0.2608648554588144,-0.706870583505816,-0.26181808642429666,nan
1740789309.8443208,-0.2462819739436865,-0.3065203396572094,-0.6839085743413152,-0.23251101861666165,nan
1740789309.8482265,-0.22521400732720118,-0.3507354851620196,-0.656206903732435,-0.20080032164314254,nan
1740789309.8521323,-0.20163213230419144,-0.39305292405482384,-0.624032637818392,-0.16702688397775095,nan
1740789309.8560383,-0.17585517858595767,-0.4330305642084376,-0.5876862204868759,-0.13154784667151254,nan
1740789309.859944,-0.14821847354137907,-0.47024593215614335,-0.5474984095824976,-0.09473292616977694,nan
1740789309.8638499,-0.11907023685489689,-0.5043003113756201,-0.5038269892726643,-0.05696065432711813,nan
1740789309.867756,-0.0887678937256276,-0.5348226364994396,-0.4570532911871458,-0.018614573250689763,nan
1740789309.8716617,-0.05767434402031695,-0.5614731065803309,-0.407578558227535,0.019920577356075508,nan
1740789309.8755674,-0.026154224803047157,-0.5839464834972311,-0.35582018589975023,0.05826264299999727,nan
1740789309.8794732,0.005429796688099626,-0.6019750448569746,-0.3022078766519216,0.09603577068509202,nan
1740789309.8833828,0.036720663256092,-0.6153311642925744,-0.2471797429994377,0.13287402303706208,nan
1740789309.8872886,0.0673704658451986,-0.623829495846574,-0.19117839518993607,0.1684248559839038,nan
1740789309.8911943,0.0970438456073862,-0.6273287431186092,-0.13464704880756975,0.20235242739087791,nan
1740789309.8951,0.12542122771945458,-0.6257329980103895,-0.07802568704518306,0.23434070602720206,nan
1740789309.8990061,0.1522018567359191,-0.618992638177404,-0.021747311394896794,0.2640963524985047,nan
1740789309.902912,0.17710660553785657,-0.6071047766527129,0.033765686765346255,0.29135134628922815,nan
1740789309.9068177,0.19988053246338516,-0.5901132615014328,0.08810500276430287,0.3158653357963018,nan
1740789309.9107237,0.22029516395440843,-0.5681082277521603,0.1408797142987326,0.337427691171141,nan
1740789309.9146295,0.2381504829980891,-0.5412252081910249,0.19171936911017257,0.3558592428912443,nan
1740789309.9185352,0.25327660674993335,-0.5096438138535628,0.240276839901422,0.37101369222394653,nan
1740789309.922441,0.26553513996665856,-0.47358599916834476,0.2862309241914325,0.3827786830905904,nan
1740789309.926347,0.2748201942185573,-0.4333139306551033,0.32928866945363805,0.3910765282563899,nan
1740789309.9302561,0.28105906625946564,-0.38912748182156587,0.3691874066744946,0.39586458622560144,nan
1740789309.934162,0.28421257237389247,-0.3413613804022335,0.4056964783786979,0.3971352886797896,nan
1740789309.938068,0.2842750389616273,-0.2903820373062233,0.4386186501669025,0.39491582172509176,nan
1740789309.9419737,0.28127395302657376,-0.2365840895603626,0.46779119787210555,0.38926746757964464,nan
1740789309.9458795,0.2752692795757827,-0.18038669212127983,0.49308666553305247,0.3802846166024152,nan
1740789309.9497852,0.26635245617465075,-0.12222959566304266,0.5144132924782359,0.36809346270867854,nan
1740789309.9536912,0.25464507801412595,-0.06256904930518423,0.5317151108834873,0.3528503982056997,nan
1740789309.957597,0.24029728979623527,-0.0018735687138327968,0.5449717181817938,0.3347401268870302,nan
1740789309.9615028,0.22348590350781772,0.0593803889259718,0.5541977316384537,0.31397351681941765,nan
1740789309.9654088,0.2044122637034267,0.12071280091397275,0.559441935231828,0.2907852166190318,nan
1740789309.9693146,0.1832998842337267,0.1816444636215383,0.5607861316747791,0.26543106112241033,nan
1740789309.9732203,0.16039188241463667,0.2417013434434259,0.5583437149510323,0.23818529419368528,nan
1740789309.977129,0.13594823841673553,0.30041885248150374,0.5522579811024368,0.2093376379575682,nan
1740789309.9810348,0.1102429091488544,0.3573460083153944,0.5427001971676461,0.1791902389943724,nan
1740789309.9849408,0.08356082710186849,0.41204943859365195,0.5298674501223675,0.1480545229693397,nan
1740789309.9888465,0.056194815499220355,0.4641171929328353,0.5139802993905188,0.11624798978695107,nan
1740789309.9927523,0.028442451663454122,0.5131623267214611,0.49528025797122,0.08409098165826613,nan
1740789309.9966583,0.0006029107498638228,0.5588262238687576,0.4740271284477699,0.05190345644520733,nan
1740789310.000564,-0.027026178080463828,0.6007816282885818,0.450496221103389,0.02000179830290909,nan
1740789310.0044699,-0.054151831372335105,0.6387353569383054,0.4249754820588871,-0.011304303014408656,nan
1740789310.0083756,-0.08048873600448885,0.6724306705096815,0.39776255976639097,-0.04171487377821311,nan
1740789310.0122817,-0.105762168774993,0.7016492813602564,0.3691618383404068,-0.07094254968711942,nan
1740789310.0161874,-0.12971078228393973,0.7262129819443688,0.3394814660848075,-0.09871531342055252,nan
1740789310.0200932,-0.15208923002693622,0.745984880815373,0.30903040718641106,-0.12477905051014475,nan
1740789310.0240016,-0.17267060544351762,0.7608702371871277,0.2781155438996794,-0.148899899725289,nan
1740789310.0279074,-0.19124867173226062,0.7708168890241639,0.24703885565209976,-0.17086637641925848,nan
1740789310.0318131,-0.20763986152693217,0.775815273636797,0.21609470036762676,-0.19049124972755294,nan
1740789310.0357192,-0.2216850280013684,0.775898043750417,0.18556722194988065,-0.20761315712509293,nan
1740789310.039625,-0.23325093160904434,0.7711392859579743,0.15572790630332417,-0.22209794260651272,nan
1740789310.0435307,-0.2422314494392016,0.761653352313067,0.1268333065168218,-0.23383970762579684,nan
1740789310.0474365,-0.2485484970565499,0.747593319540519,0.09912295590887946,-0.2427615668887308,nan
1740789310.0513425,-0.2521526556565165,0.7291490938961671,0.07281748555799274,-0.24881610410417251,nan
1740789310.0552483,-0.2530235003829055,0.7065451830635163,0.04811696073648415,-0.25198552583790346,nan
1740789310.059154,-0.25116962868945575,0.6800381596001751,0.02519944835470175,-0.2522815146454935,nan
1740789310.06306,-0.24662839065081152,0.6499138433118088,0.0042198251277989355,-0.2497447856582778,nan
1740789310.0669658,-0.2394653261120744,0.6164842325090205,-0.014691166276503811,-0.24444435372975892,nan
1740789310.0708737,-0.22977331647992377,0.5800842163691582,-0.03142760833967007,-0.23647652108989842,nan
1740789310.0747797,-0.21767146177391022,0.5410681025597698,-0.04590884477371647,-0.22596359817437273,nan
1740789310.0786855,-0.20330369624661013,0.49980599586599506,-0.058079661798680536,-0.2130523728688073,nan
1740789310.0825913,-0.18683715841996912,0.45668006478672035,-0.06791021728212032,-0.1979123458097559,nan
1740789310.0864973,-0.16846033374819716,0.41208073391361066,-0.07539572279605847,-0.18073375159209898,nan
1740789310.090403,-0.14838099028256468,0.366402840376713,-0.08055588595418305,-0.16172538772599507,nan
1740789310.0943089,-0.12682392966026895,0.3200417927275237,-0.08343412259628484,-0.1411122749472148,nan
1740789310.0982146,-0.1040285774500944,0.2733897703362397,-0.08409655046793037,-0.1191331739966082,nan
1740789310.1021206,-0.08024643834650569,0.22683200070929022,-0.08263077798285352,-0.09603798523433171,nan
1740789310.1060264,-0.05573844289802921,0.18074315109467926,-0.07914450343654067,-0.07208505843153175,nan
1740789310.1099322,-0.0307722133751979,0.1354838693482339,-0.0737639416468468,-0.04753844077853695,nan
1740789310.113838,-0.005619277020384808,0.09139750729932206,-0.06663209641793713,-0.022665091559205996,nan
1740789310.1177459,0.019447744727947185,0.04880705779860295,-0.05790689844598305,0.0022679079364298104,nan
1740789310.1216516,0.04415794238252792,0.008012334275185435,-0.04775922929963769,0.026996120853884694,nan
1740789310.1255574,0.06824489149795943,-0.030712580999159276,-0.03637085290811797,0.051260469611709485,nan
1740789310.1294634,0.09144936478616106,-0.06712159661785062,-0.023932276569732343,0.07480987190253527,nan
1740789310.1333692,0.11352195612405165,-0.10099855949238198,-0.010640563851139843,0.09740377162034486,nan
1740789310.137275,0.134225590374382,-0.13215887310255764,0.0033028781182434406,0.11881453972857454,nan
1740789310.1411808,0.15333789424918778,-0.16045077302753397,0.01769451453984897,0.1388297215784437,nan
1740789310.1450868,0.17065340499441836,-0.18575624978917946,0.03233087991629631,0.15725410890804697,nan
1740789310.1489925,0.1859855954472286,-0.20799161266842645,0.0470107345051671,0.17391161668177224,nan
1740789310.1528983,0.1991686959949708,-0.2271076918288296,0.06153715938533523,0.1886469470458394,nan
1740789310.156804,0.21005929612636787,-0.24308967976271104,0.07571957018235373,0.20132702495692664,nan
1740789310.16071,0.21853771058792434,-0.25595661672720726,0.08937563060024716,0.21184219246310534,nan
1740789310.164617,0.22450909761828566,-0.2657605284238794,0.10233304817822894,0.2201071511546074,nan
1740789310.168523,0.2279043193046314,-0.27258522766074506,0.1144312361178403,0.22606164493003306,nan
1740789310.1724288,0.228680536761909,-0.276544795085177,0.12552282659274142,0.22967087791477678,nan
1740789310.1763346,0.22682153555083004,-0.2777817572571749,0.1354750226428004,0.2309256650951764,nan
1740789310.1802404,0.2223377794965467,-0.27646498331387265,0.14417077754801855,0.22984231596674473,nan
1740789310.1841464,0.21526619381910472,-0.2727873242287392,0.1515097924572721,0.22646225421019794,nan
1740789310.1880522,0.2056696812117518,-0.2669630211661262,0.15740932499227353,0.2208513790778252,nan
1740789310.191958,0.19363637717669308,-0.2592249116495501,0.16180480353847337,0.21309917676833762,nan
1740789310.195864,0.17927865352349798,-0.24982146417926152,0.16465024395175526,0.203317592565175,nan
1740789310.1997697,0.16273188142752149,-0.2390136735330755,0.16591846743229804,0.19163967688661127,nan
1740789310.2036755,0.14415296780996686,-0.22707185024939416,0.16560112032501756,0.17821802062281555,nan
1740789310.2075813,0.12371868101452568,-0.21427233871123644,0.16370849857966888,0.16322299719355302,nan
1740789310.2114913,0.10162378379667289,-0.20089419881703244,0.16026918152405617,0.14684083063075518,nan
1740789310.2153971,0.07807899349083336,-0.18721588643343734,0.15532948145230652,0.12927151065474332,nan
1740789310.219303,0.05330879086045066,-0.17351196767657895,0.1489527172894875,0.11072657715590298,nan
1740789310.223209,0.02754910055102769,-0.16004990156385654,0.14121832224754602,0.09142679770159476,nan
1740789310.2271147,0.0010448672433454515,-0.14708692472468893,0.1322207969204825,0.07159976265009373,nan
1740789310.2310205,-0.025952447467204074,-0.13486707066542952,0.1220685206650815,0.05147742316088237,nan
1740789310.2349265,-0.0531874217670556,-0.12361835456398135,0.1108824353651526,0.031293597837886,nan
1740789310.2388322,-0.08040325778840011,-0.1135501527398638,0.09879461677131976,0.011281473925904869,nan
1740789310.242738,-0.10734436698701219,-0.10485080382492273,0.08594674953604811,-0.008328871099951571,nan
1740789310.2466438,-0.1337589306000856,-0.09768545627084732,0.07248852281749298,-0.027312902054492785,nan
1740789310.2505498,-0.15940140943240647,-0.09219418419696612,0.05857596390051959,-0.04545398777484532,nan
1740789310.2544556,-0.18403497785889159,-0.08849039073264016,0.04436972767524398,-0.06254566801744314,nan
1740789310.2583652,-0.20743385782095666,-0.08665951497241121,0.03003336002106421,-0.07839380256225674,nan
1740789310.262271,-0.2293855297233023,-0.0867580554698161,0.015731553167415004,-0.09281858088535991,nan
1740789310.2661767,-0.24969279849408083,-0.08881291988022959,0.0016284109434433107,-0.10565637229327059,nan
1740789310.2700827,-0.2681756946401655,-0.09282110695788635,-0.012114258508704673,-0.11676139814218281,nan
1740789310.2739885,-0.28467319189391865,-0.09874972365196548,-0.025338605492877732,-0.1260072096739961,nan
1740789310.2778943,-0.29904472498949086,-0.10653633656634631,-0.03789234060236989,-0.13328795706875796,nan
1740789310.2818003,-0.31117149320523296,-0.11608965358247518,-0.04963026009335492,-0.13851943751823922,nan
1740789310.285706,-0.3209575375422005,-0.1272905280297427,-0.060415680213832555,-0.1416399124448672,nan
1740789310.2896118,-0.32833058175411445,-0.13999327445702378,-0.07012176702884176,-0.1426106864003468,nan
1740789310.2935176,-0.33324262987724806,-0.15402728184625814,-0.0786327495200206,-0.1414164426540486,nan
1740789310.2974236,-0.3356703154047644,-0.16919890704608923,-0.0858450050833627,-0.13806533299745474,nan
1740789310.3013294,-0.33561499978360587,-0.18529362832135407,-0.09166800798813451,-0.13258882182193024,nan
1740789310.3052385,-0.3331026204574155,-0.20207843624141247,-0.09602513287680292,-0.12504128704708095,nan
1740789310.3091445,-0.328183291210565,-0.2193044366933547,-0.09885430696424956,-0.11549938296063557,nan
1740789310.3130503,-0.3209306600606509,-0.23670963862937638,-0.10010850621768003,-0.10406117245293826,nan
1740789310.316956,-0.31144103237490056,-0.25402189726242347,-0.09975609244964909,-0.09084503846563081,nan
1740789310.3208618,-0.29983226922563144,-0.27096198182940473,-0.0977809899182599,-0.0759883867014727,nan
1740789310.3247678,-0.2862424732279869,-0.2872467357623077,-0.09418270168402842,-0.05964615373837042,nan
1740789310.3286736,-0.2708284761976724,-0.30259229615700795,-0.08897616760524102,-0.041989136634798974,nan
1740789310.3325794,-0.25376414490679655,-0.3167173388164776,-0.08219146744661766,-0.02320216188674299,nan
1740789310.3364851,-0.23523852298318634,-0.32934631487520855,-0.07387337411393846,-0.003482113180675682,nan
1740789310.3403912,-0.21545382857571604,-0.34021264508729615,-0.0640807634949703,0.016964161232394217,nan
1740789310.344297,-0.1946233287799817,-0.34906183828056936,-0.05288588877038097,0.037922039553559286,nan
1740789310.3482027,-0.1729691129722137,-0.3556545012387608,-0.04037352834422944,0.05917139292005756,nan
1740789310.3521113,-0.15071978812380019,-0.3597692083650352,-0.02664001772005794,0.08048890373541907,nan
1740789310.3560174,-0.12810811985579715,-0.3612052008918433,-0.011792176704772242,0.10165041176969764,nan
1740789310.3599231,-0.10536864343643648,-0.35978488711954176,0.004053855750898023,0.12243326374598076,nan
1740789310.363829,-0.08273526912124886,-0.35535611717197435,0.02077386597772806,0.14261864217013248,nan
1740789310.367735,-0.060438906184128977,-0.3477942080308499,0.03823687553668549,0.1619938494484584,nan
1740789310.3716407,-0.03870512968994997,-0.33700369712906564,0.056306502452895035,0.18035452386928774,nan
1740789310.3755465,-0.01775191351905001,-0.3229198055208406,0.0748423591536419,0.19750676479299298,nan
1740789310.3794522,0.0022125476223028816,-0.3055095945757383,0.09370147234019756,0.21326914539224606,nan
1740789310.3833582,0.020991905474980314,-0.2847728032349853,0.11273970998877716,0.22747459249953597,nan
1740789310.387264,0.0384035942729463,-0.26074235609074903,0.13181320079442457,0.23997211453909342,nan
1740789310.3911698,0.054280616474372996,-0.2334845358697435,0.15077973164012504,0.250628360130396,nan
1740789310.3950756,0.06847316070104549,-0.20309881728843224,0.16950010908754873,0.25932899173345303,nan
1740789310.398984,0.08085003619093645,-0.16971736266408943,0.18783947143946148,0.2659798606434088,nan
1740789310.4028897,0.09129991000277736,-0.13350418307990072,0.20566853860982018,0.27050797171369306,nan
1740789310.4067957,0.09973233527743228,-0.09465397227879431,0.22286478784714644,0.2728622283713303,nan
1740789310.4107015,0.10607856103751187,-0.05339062376616829,0.239313544280318,0.2730139507628528,nan
1740789310.4146073,0.11029211627136867,-0.009965444802827943,0.2549089762823221,0.2709571622109104,nan
1740789310.418513,0.11234916337726987,0.03534491596548193,0.26955498676526685,0.2667086415464048,nan
1740789310.422419,0.112248618414048,0.08224080759745409,0.28316599271599535,0.2603077412842385,nan
1740789310.4263248,0.11001203799197257,0.1304021603175032,0.29566758654310316,0.2518159740081955,nan
1740789310.4302306,0.10568327501732505,0.1794912885222948,0.30699707411869054,0.24131637169767775,nan
1740789310.4341366,0.099327907852449,0.22915588627348038,0.31710388574793563,0.2289126250419826,nan
1740789310.4380424,0.09103244974571721,0.279032186254971,0.3259498576717023,0.21472801202315686,nan
1740789310.4419482,0.0809033476002279,0.3287482514995334,0.33350938308755307,0.19890412718368214,nan
1740789310.445856,0.06906578126349273,0.3779273678218056,0.3397694330480132,0.18159942500877185,nan
1740789310.4497619,0.05566227651208627,0.42619150384641036,0.34472944894756813,0.16298759272483404,nan
1740789310.4536679,0.04085114675505188,0.47316480480126777,0.3484011096275604,0.14325576952677757,nan
1740789310.4575737,0.02480478016975599,0.5184770858642944,0.3508079773976239,0.12260263078048947,nan
1740789310.4614794,0.007707790496858069,0.5617672908104709,0.35198502848055696,0.1012363570875261,nan
1740789310.4653852,-0.01024494895737189,0.6026868820057011,0.35197807452275137,0.07937250923391934,nan
