timestamps,TP9,AF7,AF8,TP10,Right AUX
1740522712.033831,0.22053724028066735,0.02275062534112025,0.34463735698181935,0.28929335850027094,nan
1740522712.0377364,0.2480547078143396,0.013829748738427438,0.3531053202647947,0.3040601205773208,nan
1740522712.0416422,0.2754866985423472,0.003874897557401223,0.36078443336847604,0.3181210191533762,nan
1740522712.045548,0.30258153618673256,-0.0068909413577327655,0.3676608763435692,0.33134058320623644,nan
1740522712.0494537,0.3290884570346136,-0.018242123366811632,0.373718198175517,0.34358720977293966,nan
1740522712.0533593,0.3547600935403756,-0.029952890118940777,0.3789374113804956,0.3547345745886252,nan
1740522712.057265,0.3793549272049152,-0.04179988982930719,0.38329717768903493,0.36466300164147186,nan
1740522712.0611708,0.4026396861184078,-0.053564647689956044,0.38677408476516884,0.3732607770491249,nan
1740522712.0650766,0.4243916631302504,-0.06503596099819584,0.3893430125863472,0.3804253932109535,nan
1740522712.0689824,0.44440093142760256,-0.07601219448293371,0.3909775867819964,0.38606470988617597,nan
1740522712.072888,0.4624724353539188,-0.08630345245154875,0.3916507149122764,0.39009801968317087,nan
1740522712.0767937,0.4784279355699923,-0.09573360575528433,0.3913352003793358,0.39245700641132786,nan
1740522712.0807025,0.492107789139348,-0.10414215316521659,0.3900044274167272,0.3930865858337319,nan
1740522712.0846083,0.5033725467920538,-0.1113858985465484,0.3876331094143373,0.3919456195553202,nan
1740522712.088514,0.5121043514692588,-0.11734042719780155,0.3841980917208367,0.3890074940747382,nan
1740522712.0924196,0.518208124256061,-0.12190136686262901,0.37967919903781044,0.38426055840535484,nan
1740522712.0963254,0.521612525952493,-0.12498542120348567,0.37406011659268557,0.3777084151177243,nan
1740522712.1002312,0.5222706847896473,-0.12653116592468855,0.36732929346389603,0.3693700611571197,nan
1740522712.104137,0.5201606831476642,-0.1264996002229357,0.35948085574272093,0.3592798763302296,nan
1740522712.1080425,0.5152857985505511,-0.12487444880061005,0.35051551666210706,0.34748745891872135,nan
1740522712.1119483,0.5076744966755534,-0.12166221227520271,0.34044147041211276,0.33405730944814305,nan
1740522712.115854,0.49738017659702105,-0.11689196643037303,0.3292752561018568,0.3190683652022084,nan
1740522712.1197598,0.48448067096181757,-0.11061491335424288,0.31704257822442267,0.3026133896090275,nan
1740522712.1236653,0.46907750624022376,-0.10290369007197638,0.303779070038329,0.28479822212127254,nan
1740522712.127574,0.45129493058874603,-0.09385144277682152,0.28953098649901865,0.26574089565141634,nan
1740522712.1314797,0.4312787191752364,-0.08357067717134482,0.2743558137570178,0.24557062999108656,nan
1740522712.1353855,0.4091947690292801,-0.07219189772447844,0.2583227827845838,0.2244267109263448,nan
1740522712.1392913,0.3852274975697751,-0.059862050807010916,0.24151327539694312,0.20245726594489513,nan
1740522712.1431968,0.3595780609064838,-0.046742788667104004,0.22402111179255643,0.17981794850504773,nan
1740522712.1471026,0.3324624097934731,-0.03300857302786346,0.20595270974290839,0.15667054378817521,nan
1740522712.1510084,0.3041092027125323,-0.018844638713383596,0.18742710670765184,0.13318150967715348,nan
1740522712.1549141,0.27475759696773694,-0.0044448391214595906,0.16857583742578142,0.10952046738394264,nan
1740522712.1588197,0.24465493986479597,0.009990603453204797,0.14954266092631782,0.08585865668338305,nan
1740522712.1627254,0.2140543830188012,0.024257418693846098,0.1304831324000153,0.062367371091740155,nan
1740522712.1666312,0.18321244357225924,0.03814965568247706,0.11156401696247949,0.03921638855367357,nan
1740522712.170537,0.15238653660452148,0.051462071767823074,0.09296254400363732,0.016572413267764007,nan
1740522712.1744454,0.12183250326946803,0.06399251759245617,0.07486550254208042,-0.005402455812248398,nan
1740522712.1783512,0.09180215920807731,0.07554429306155004,0.05746817976829107,-0.026552214514816604,nan
1740522712.1822567,0.0625408875467248,0.08592844936420614,0.04097314675001942,-0.046728386148309715,nan
1740522712.1861625,0.03428530031320111,0.09496601274127521,0.025588897067592712,-0.06579138304020796,nan
1740522712.1900682,0.007260991385771719,0.10249010652473825,0.01152834592782614,-0.08361178330441041,nan
1740522712.193974,-0.01831959685655882,0.10834794904418477,-0.0009928009466359615,-0.100071510067869,nan
1740522712.1978796,-0.04225917218217071,0.11240270629461219,-0.011757797659254367,-0.11506490136279471,nan
1740522712.2017853,-0.06437743682941106,0.11453517977304374,-0.020550715093557093,-0.12849965998624685,nan
1740522712.205691,-0.08451275945084914,0.11464531160383924,-0.027158390322786063,-0.14029767383390168,nan
1740522712.2095969,-0.10252365837619147,0.11265349096626684,-0.031372452888347495,-0.15039569851688783,nan
1740522712.2135024,-0.11829008180164176,0.10850164789362256,-0.03299141105313218,-0.1587458954565729,nan
1740522712.2174082,-0.13171447256582405,0.10215412270970828,-0.03182277996815704,-0.16531622010790362,nan
1740522712.2213166,-0.14272260734565914,0.0935983016835212,-0.027685232677432482,-0.17009065647262803,nan
1740522712.225222,-0.15126420237779467,0.08284501189277726,-0.02041075404005123,-0.17306929561390003,nan
1740522712.229128,-0.15731328015949408,0.06992867076695995,-0.00984677698196413,-0.17426825745780722,nan
1740522712.2330337,-0.16086829398367497,0.05490718830560012,0.004141719986783949,-0.17371945674898,nan
1740522712.2369394,-0.16195200959187545,0.037861622511838194,0.02167017533205385,-0.171470215600776,nan
1740522712.240845,-0.16061114566200727,0.018895591119105777,0.042832488548973605,-0.16758272662928766,nan
1740522712.2447507,-0.15691577726040923,-0.0018655548057511016,0.06769916698855219,-0.16213337216903517,nan
1740522712.2486565,-0.15095850875569908,-0.024275787351869846,0.09631559638877517,-0.15521190652106825,nan
1740522712.2525623,-0.1428534249917115,-0.048169677950013964,0.1287004554797013,-0.14692050956671282,nan
1740522712.2564678,-0.13273483172516656,-0.07336388059959244,0.1648442942587872,-0.1373727213780006,nan
1740522712.2603736,-0.12075579842890528,-0.0996588073528196,0.2047082945514128,-0.12669226865593614,nan
1740522712.2642794,-0.10708651852224711,-0.12684047929354708,0.24822323028800236,-0.11501179491760385,nan
1740522712.2681873,-0.09191250389722798,-0.15468253444084487,0.2952886435510931,-0.10247150732193497,nan
1740522712.272093,-0.07543263224466275,-0.18294837238935527,0.3457722508828984,-0.08921775386140197,nan
1740522712.2759988,-0.057857067131414704,-0.21139341408584836,0.39950959260821284,-0.07540154534485521,nan
1740522712.2799044,-0.03940507202516801,-0.23976745394879176,0.4563039360324395,-0.06117703714758737,nan
1740522712.2838101,-0.0203027404934416,-0.2678170805769341,0.5159264413355202,-0.046699986103207816,nan
1740522712.287716,-0.0007806656091726659,-0.29528814157377903,0.578116596816577,-0.032126198153642864,nan
1740522712.2916217,0.01892842783180082,-0.32192822754450084,0.6425829278696513,-0.017609982456225706,nan
1740522712.2955272,0.03859206434117157,-0.3474891501051054,0.7090039817077566,-0.0033026275694057854,nan
1740522712.299433,0.0579803879828055,-0.37172938878269624,0.7770295874215896,0.010649084898110811,nan
1740522712.3033388,0.0768684979463122,-0.39441648198001633,0.846282388482421,0.02410431418367221,nan
1740522712.3072445,0.09503872595304706,-0.41532933772415653,0.9163596422986312,0.036929527367917665,nan
1740522712.31115,0.11228283262292263,-0.43426044071276554,0.9868352789351511,0.048999785722546776,nan
1740522712.315058,0.12840410078499978,-0.45101793320333067,1.057262208628272,0.060199937492662836,nan
1740522712.3189638,0.1432193047902423,-0.46542754855158236,1.1271748652983704,0.07042570516416881,nan
1740522712.3228695,0.1565605361701013,-0.47733437768111586,1.196091970903627,0.07958465635517771,nan
1740522712.3267753,0.16827686746662737,-0.48660445044294354,1.2635195032117659,0.08759704866997019,nan
1740522712.330681,0.17823583772344928,-0.49312611568389036,1.3289538474168459,0.09439654015232794,nan
1740522712.3345866,0.1863247449553995,-0.496811205867808,1.3918851100158025,0.09993075835902414,nan
1740522712.3384924,0.1924517328891859,-0.4975959742628624,1.4518005715055153,0.10416172252961187,nan
1740522712.3423982,0.19654666136832313,-0.4954417949998165,1.508188252785162,0.10706611484061652,nan
1740522712.346304,0.19856175202131424,-0.4903356186970391,1.5605405686684828,0.10863539828538543,nan
1740522712.3502095,0.1984720030804179,-0.48229017881366254,1.6083580406428457,0.10887578029924126,nan
1740522712.3541152,0.1962753695862491,-0.471343946408072,1.6511530399712582,0.1078080228371535,nan
1740522712.358021,0.1919927075970414,-0.4575608335190343,1.6884535314325009,0.10546710119151623,nan
1740522712.3619285,0.18566748341679107,-0.4410296479257728,1.7198067874439187,0.10190171539479362,nan
1740522712.3658342,0.17736525123930183,-0.42186330455520277,1.7447830420196198,0.09717365956953691,nan
1740522712.36974,0.16717290495152626,-0.40019780126408777,1.7629790539899624,0.09135705605128386,nan
1740522712.3736455,0.1551977121256992,-0.3761909691059564,1.7740215491500597,0.0845374625028475,nan
1740522712.3775513,0.141566140432645,-0.35002100947314346,1.777570511516864,0.0768108615473224,nan
1740522712.381457,0.12642248880608997,-0.32188483266010093,1.7733222946550786,0.06828254365817567,nan
1740522712.3853629,0.10992733765858129,-0.2919962144032281,1.7610125250779907,0.059065895145615555,nan
1740522712.3892684,0.09225583427401869,-0.26058378879447425,1.740418771034213,0.04928110405761839,nan
1740522712.3931742,0.0735958311612619,-0.2278888976221169,1.7113629515466589,0.03905379766139426,nan
1740522712.39708,0.054145896631254596,-0.19416331764546377,1.6737134623648622,0.02851362587786567,nan
1740522712.4009857,0.03411321814157223,-0.15966688854600758,1.6273869975127815,0.017792805600524438,nan
1740522712.4048915,0.01371142002446581,-0.12466506530298117,1.572350047345886,0.0070246412349301264,nan
1740522712.4087987,-0.006841681933544786,-0.08942641950610059,1.508620056456206,-0.0036579629581787987,nan
1740522712.4127045,-0.027326365969136127,-0.05422011463457529,1.4362662273624152,-0.014123983047404302,nan
1740522712.4166102,-0.04752330639700828,-0.01931338059374064,1.3554099586729011,-0.02424573255027241,nan
1740522712.420516,-0.06721586861283992,0.015030987193773307,1.2662249092900035,-0.033900281132831056,nan
1740522712.4244215,-0.08619237350600262,0.048557079096976374,1.1689366832092005,-0.04297081993092069,nan
1740522712.4283273,-0.10424830807382324,0.08101824844639131,1.0638221325322832,-0.05134795908661951,nan
1740522712.432233,-0.1211884595954049,0.11217939078166135,0.9512082794323353,-0.058930943795047944,nan
1740522712.4361389,-0.1368289515194309,0.14181910239190956,0.8314708609533642,-0.06562877600102213,nan
1740522712.4400444,-0.1509991602389947,0.16973169659444365,0.7050325036711932,-0.0713612298636664,nan
1740522712.4439502,-0.16354349315691322,0.19572905764798373,0.5723605383569301,-0.07605975020992681,nan
1740522712.447856,-0.17432300987476548,0.21964231385269617,0.43396446784219345,-0.07966822441399943,nan
1740522712.4517617,-0.1832168699535422,0.2413233132342668,0.290393104258828,-0.08214361945644084,nan
1740522712.4556706,-0.19012359247693505,0.26064588722444887,0.14223139468811904,-0.08345647732090136,nan
1740522712.4595761,-0.19496211458182075,0.27750688991572636,-0.009903043020544587,-0.08359126336354279,nan
1740522712.463482,-0.1976726381848508,0.2918270027609524,-0.16536364993926114,-0.08254656382525384,nan
1740522712.4673877,-0.19821725630825066,0.3035512969869584,-0.3234788945610481,-0.08033513023392655,nan
1740522712.4712934,-0.1965803526699349,0.3126495484698726,-0.4835564512433159,-0.07698377004721009,nan
1740522712.475199,-0.19276877052983724,0.319116302353961,-0.6448875577914239,-0.07253308449862719,nan
1740522712.4791048,-0.18681174915237833,0.32297068725970446,-0.8067515196881584,-0.06703705621532974,nan
1740522712.4830105,-0.1787606286301043,0.3242559814942009,-0.9684203270493198,-0.06056249075723817,nan
1740522712.4869163,-0.16868832619149948,0.32303893622182467,-1.129163349238822,-0.0531883177686155,nan
1740522712.490822,-0.15668858946263065,0.31940886304942145,-1.2882520712206846,-0.04500475891822867,nan
1740522712.4947276,-0.14287503444363592,0.31347649590242577,-1.444964835169465,-0.036112371217585953,nan
1740522712.4986334,-0.12737997817386496,0.305372639391665,-1.5985915506117185,-0.026620975633675763,nan
1740522712.502542,-0.11035307817104076,0.2952466180710463,-1.7484383364330753,-0.01664848213908448,nan
1740522712.5064478,-0.0919597927185758,0.28326454304138043,-1.8938320584597281,-0.006319623455540761,nan
1740522712.5103533,-0.07237967792086467,0.26960741424398216,-2.0341247270080034,0.004235389265027793,nan
1740522712.514259,-0.05180453912990371,0.25446907848971523,-2.168697719786981,0.014882274725534777,nan
1740522712.5181649,-0.030436455850866816,0.23805406476729324,-2.296965796829678,0.02548413893090088,nan
1740522712.5220706,-0.008485700543564846,0.2205753196529755,-2.4183808757083884,0.035902966438493895,nan
1740522712.5259762,0.013831427162293939,0.20225186668899864,-2.532435537146941,0.04600112965671495,nan
1740522712.529882,0.03629482843902214,0.1833064143989132,-2.6386662332618473,0.055642900203632446,nan
1740522712.5337877,0.05868287236899237,0.16396293815566498,-2.736656173028249,0.0646959462707709,nan
1740522712.5376935,0.08077467872164218,0.1444442614068725,-2.826037862155547,0.07303280003764064,nan
1740522712.5415993,0.10235239275672782,0.12496966178740455,-2.906495277349828,0.08053227944990154,nan
1740522712.5455048,0.12320342847806169,0.10575252741152655,-2.977765657912011,0.08708084910590795,nan
1740522712.5494132,0.14312265707120503,0.08699808813712497,-3.0396409007466465,0.09257390558876542,nan
1740522712.553319,0.16191451780705718,0.06890124583741591,-3.0919685481096693,0.09691697332845434,nan
1740522712.5572248,0.1793950294759992,0.051644526708132014,-3.134652360775972,0.10002679797366826,nan
1740522712.5611305,0.19539368142618846,0.03539617739019633,-3.1676524727303166,0.10183232528708362,nan
1740522712.565036,0.20975518450518146,0.02030842521129331,-3.1909851269481195,0.10227555474058032,nan
1740522712.5689418,0.22234106363371367,0.006515921159300443,-3.2047219953055346,0.10131225826681055,nan
1740522712.5728476,0.233031075360198,-0.00586561768741711,-3.208989089110689,0.09891255600771191,nan
1740522712.5767534,0.2417244355378469,-0.016740551614189417,-3.2039652701494434,0.09506134237501405,nan
1740522712.580659,0.2483408442153825,-0.026034235174425012,-3.1898803754595493,0.08975855728764986,nan
1740522712.5845647,0.25282129691729904,-0.03369369746989301,-3.167012972257245,0.08301929906036626,nan
1740522712.5884705,0.25512867368956016,-0.03968807820442871,-3.1356877625116395,0.0748737770703954,nan
1740522712.5923762,0.25524809957913625,-0.04400881446737489,-3.0962726595672705,0.06536710400772706,nan
1740522712.5962844,0.2531870725775719,-0.04666957582278554,-3.0491755619283056,0.05455892920207019,nan
1740522712.6001902,0.24897535746588803,-0.04770594793449214,-2.994840851814394,0.042522916198579265,nan
1740522712.604096,0.24266464642585128,-0.04717486761842872,-2.9337456483561786,0.029346069407293836,nan
1740522712.6080015,0.2343279897063088,-0.04515381485489609,-2.8663958472974063,0.015127916260845121,nan
1740522712.6119072,0.22405900202798268,-0.04173976988756859,-2.793321980792627,-2.044713554661868e-05,nan
1740522712.615813,0.21197085275113525,-0.037047946056146086,-2.715074932318971,-0.015977437404930944,nan
1740522712.6197188,0.19819505009399332,-0.03121031142965214,-2.6322215428447113,-0.032612181512639116,nan
1740522712.6236243,0.1828800318520475,-0.02437391460205472,-2.5453401452058713,-0.04978581848190663,nan
1740522712.62753,0.16618957710712365,-0.01669903215724891,-2.4550160641278094,-0.06735289194625198,nan
1740522712.6314359,0.1483010553091819,-0.0083571572837763,-2.3618371194869385,-0.08516281925356345,nan
1740522712.6353416,0.12940353084318942,0.0004711492000458938,-2.26638917023705,-0.10306142196105314,nan
1740522712.6392472,0.10969574274020429,0.009598522581677182,-2.169251735926573,-0.1208925018385294,nan
1740522712.6431553,0.08938398053933372,0.018833148582697364,-2.07099373191182,-0.13849944593817798,nan
1740522712.647061,0.06867987844131741,0.02798118301700358,-1.9721693532343305,-0.15572684389877858,nan
1740522712.6509666,0.047798150802750426,0.03684921067726597,-1.8733141406878675,-0.1724221004359777,nan
1740522712.6548724,0.026954292692391375,0.045246716775717906,-1.7749412608654964,-0.18843702593106618,nan
1740522712.6587782,0.006362269660050064,0.052988543966392423,-1.6775380299651426,-0.2036293881699441,nan
1740522712.662684,-0.013767778951028075,0.05989730795498561,-1.5815627088610826,-0.2178644086012437,nan
1740522712.6665895,-0.033231798888304104,0.0658057449612236,-1.487441594439694,-0.23101618697551424,nan
1740522712.6704953,-0.051834018132807115,0.07055896483580397,-1.395566429472942,-0.24296903889187657,nan
1740522712.674401,-0.06938905893418976,0.07401658444575845,-1.3062921503873384,-0.25361873160870163,nan
1740522712.6783068,-0.08572394218660104,0.07605471702172421,-1.2199349892057458,-0.2628736044630822,nan
1740522712.6822124,-0.10067996264557337,0.07656779449853793,-1.1367709427224122,-0.27065556138065366,nan
1740522712.6861181,-0.1141144147643282,0.07547020146475637,-1.057034618647101,-0.27690092423205914,nan
1740522712.690026,-0.12590215042029107,0.07269770115243976,-0.9809184650523151,-0.28156113719243514,nan
1740522712.6939318,-0.13593695149471377,0.06820863592862009,-0.9085723860092209,-0.2846033137720759,nan
1740522712.6978376,-0.1441327021436959,0.061984886975167144,-0.8401037428343012,-0.2860106197950344,nan
1740522712.7017431,-0.1504243476387722,0.05403258024259714,-0.7755777369213104,-0.2857824872916149,nan
1740522712.705649,-0.15476862883958512,0.04438252831266671,-0.7150181667332113,-0.2839346560237105,nan
1740522712.7095547,-0.15714458366801692,0.03309040047929073,-0.6584085482070913,-0.2804990411608836,nan
1740522712.7134604,-0.15755380935935587,0.02023661613113458,-0.605693584611887,-0.2755234274517156,nan
1740522712.717366,-0.1560204817474275,0.005925959364686887,-0.5567809688230316,-0.2690709920705324,nan
1740522712.7212718,-0.15259113037192357,-0.009713084354665828,-0.5115434980678697,-0.2612196601452244,nan
1740522712.7251775,-0.14733417075163463,-0.026529265763024643,-0.46982147847712014,-0.25206129876852146,nan
1740522712.7290833,-0.140339197720911,-0.04434977699120152,-0.43142539427533744,-0.2417007570440436,nan
1740522712.7329888,-0.13171604625212655,-0.06298171492840815,-0.3961388141798381,-0.23025476140120207,nan
1740522712.7368965,-0.12159362865819281,-0.08221379053345945,-0.3637215055732651,-0.21785067701184382,nan
1740522712.7408023,-0.11011855946062389,-0.10181826920193518,-0.3339127252877323,-0.2046251476390421,nan
1740522712.744708,-0.09745358149543261,-0.12155312475829529,-0.30643465440386075,-0.19072262762871994,nan
1740522712.7486136,-0.08377580898711125,-0.14116438725865857,-0.2809959433385005,-0.17629382100241467,nan
1740522712.7525194,-0.06927480532741602,-0.160388662587538,-0.2572953326805388,-0.16149404371071507,nan
1740522712.7564251,-0.054150515129333436,-0.178955799833982,-0.23502531474176402,-0.14648152604926407,nan
1740522712.760331,-0.03861107176752934,-0.1965916806608076,-0.2138758006232707,-0.1314156730115706,nan
1740522712.7642365,-0.022870503047093756,-0.21302110335441016,-0.19353775775834114,-0.1164553009460766,nan
1740522712.7681422,-0.0071463588466063885,-0.2279707329790546,-0.1737067833779192,-0.10175686929134906,nan
1740522712.772048,0.008342714454184632,-0.2411720880733981,-0.15408658014972734,-0.08747272637716035,nan
1740522712.7759538,0.02337942723865927,-0.25236453363005207,-0.13439230135858332,-0.0737493882968663,nan
1740522712.7798593,0.03775030163295821,-0.2612982497005825,-0.11435373441266886,-0.06072586967602865,nan
1740522712.7837667,0.05124810203719852,-0.26773714487463196,-0.0937182931645794,-0.04853208478382481,nan
1740522712.7876725,0.06367421512701892,-0.2714616840962536,-0.07225379151059497,-0.03728733685967502,nan
1740522712.791578,0.07484095359703025,-0.2722716008031411,-0.04975097295774029,-0.027098912761886616,nan
1740522712.7954838,0.08457375853907863,-0.26998846420262046,-0.026025773304720775,-0.01806079909416904,nan
1740522712.7993896,0.09271327623332343,-0.26445807362604085,-0.0009212962462076983,-0.010252534837682604,nan
1740522712.8032954,0.09911728627161559,-0.2555526533218269,0.0256905154449916,-0.003738214220962678,nan
1740522712.807201,0.1036624593205287,-0.24317282274504054,0.053907527503688206,0.0014343478907465717,nan
1740522712.8111067,0.10624592445315674,-0.2272493193633512,0.08379639174587018,0.00523427739798059,nan
1740522712.8150125,0.10678662781926873,-0.20774445320837073,0.11539186162742616,0.007648120192315027,nan
1740522712.8189182,0.10522646646546832,-0.18465327483756794,0.14869645049666597,0.0086801320655779,nan
1740522712.8228238,0.10153118334110102,-0.15800444101313213,0.1836804339254341,0.008352374087334385,nan
1740522712.8267295,0.09569101191032142,-0.12786076522575723,0.22028219417606995,0.006704610232057629,nan
1740522712.8306403,0.08772106131288793,-0.09431944316701443,0.25840890156156376,0.003794006088911281,nan
1740522712.834546,0.07766143565109261,-0.057511946355589746,0.29793752421514896,-0.0003053704275570264,nan
1740522712.8384519,0.06557708370178525,-0.017603580320805678,0.33871615463380866,-0.005503243349189614,nan
1740522712.8423574,0.05155737813357828,0.025207292989339943,0.3805656383273771,-0.011694012801847793,nan
1740522712.8462632,0.035715426122280555,0.07069036561031258,0.4232814870197748,-0.01875782186208852,nan
1740522712.850169,0.018187116073854263,0.11858482050790035,0.4666360561384333,-0.026561796946896095,nan
1740522712.8540747,-0.0008700920446464148,0.16860108553442862,0.5103809638177127,-0.03496145062337836,nan
1740522712.8579803,-0.021278622528383622,0.2204228916516389,0.5542497263556904,-0.04380223388074106,nan
1740522712.861886,-0.04284247301910423,0.27370961956465667,0.5979605830225223,-0.052921223174501666,nan
1740522712.8657918,-0.06534912141153454,0.328098915924331,0.6412194813418107,-0.06214892595165257,nan
1740522712.8696976,-0.08857163273312622,0.38320955742393714,0.6837231924707142,-0.07131118691286367,nan
1740522712.8736033,-0.11227094590056431,0.43864453846982954,0.7251625251038182,-0.08023117598035277,nan
1740522712.8775089,-0.13619831819438247,0.49399435567137756,0.7652256054313054,-0.08873143783246946,nan
1740522712.8814147,-0.1600979034391034,0.5488404601988762,0.8036011901019007,-0.09663598195159039,nan
1740522712.8853204,-0.18370943825112446,0.6027588471223903,0.8399819788807876,-0.10377239142204644,nan
1740522712.889226,-0.20677100933832668,0.6553237491907689,0.8740678937544069,-0.10997392821889883,nan
1740522712.8931317,-0.22902187372022023,0.7061114011564983,0.9055692916169651,-0.11508161245399466,nan
1740522712.8970375,-0.250205302898735,0.7547038397144877,0.9342100783737746,-0.11894625299806001,nan
1740522712.9009433,-0.2700714214584799,0.8006927034137596,0.9597306933073113,-0.12143040707985185,nan
1740522712.9048488,-0.2883800103193536,0.843682996529965,0.9818909338633487,-0.12241024687629341,nan
1740522712.9087546,-0.3049032449091213,0.8832967808600769,1.000472592613966,-0.12177731174977979,nan
1740522712.9126604,-0.31942833887105326,0.9191767597214237,1.015281880026302,-0.1194401256566147,nan
1740522712.9165661,-0.3317600645712693,0.9509897191053358,1.0261516087925333,-0.11532566033787722,nan
1740522712.9204717,-0.341723122618162,0.9784297919472597,1.0329431178373307,-0.10938062620262579,nan
1740522712.92438,-0.3491643338455104,1.0012215128234214,1.035547916691255,-0.10157257431283621,nan
1740522712.9282858,-0.3539546287317709,1.0191226320586488,1.0338890336775486,-0.09189079456732621,nan
1740522712.9321916,-0.35599081101797825,1.0319266602172485,1.0279220542789829,-0.08034699704351657,nan
1740522712.9360974,-0.3551970743303379,1.0394651162324102,1.0176358391029612,-0.06697576547494286,nan
1740522712.940003,-0.35152625289279393,1.041609454989713,1.003052914017427,-0.05183477400073715,nan
1740522712.9439087,-0.34496078990920126,1.0382726529947397,0.9842295282572171,-0.03500476060118578,nan
1740522712.9478145,-0.33551340988128053,1.0294104337984136,0.9612553795691153,-0.01658925300982856,nan
1740522712.9517202,-0.32322748398237006,1.01502211809923,0.9342530087426927,0.0032859546549536024,nan
1740522712.9556258,-0.30817708060136834,0.9951510868594113,0.9033768691314713,0.024473573790507273,nan
1740522712.9595315,-0.29046669627765614,0.9698848493309591,0.8688120799736175,0.04680583846015159,nan
1740522712.9634373,-0.27023066543649166,0.9393547115545072,0.8307728754423991,0.07009576197230835,nan
1740522712.967343,-0.2476322505744741,0.903735044634667,0.7895007643638644,0.09413862455025394,nan
1740522712.9712512,-0.22286241780459157,0.8632421558750176,0.7452624184036033,0.11871368128261106,nan
1740522712.975157,-0.19613830591792067,0.8181327696381784,0.6983473092181759,0.1435860771437788,nan
1740522712.9790628,-0.1677014003220183,0.76870212854551,0.6490651175639056,0.16850895356784407,nan
1740522712.9829683,-0.13781542634223803,0.715281729310807,0.5977429396316922,0.19322572887282818,nan
1740522712.986874,-0.10676397939000448,0.6582367110773606,0.5447223179093525,0.21747253278749906,nan
1740522712.9907799,-0.07484791238052774,0.5979629175629974,0.49035612564263287,0.2409807734521176,nan
1740522712.9946856,-0.04238250349177095,0.5348836575794421,0.4350053354552061,0.26347981356801403,nan
1740522712.9985912,-0.009694429868192906,0.4694461915481849,0.3790357038817561,0.2846997308776894,nan
1740522713.002497,0.022881424839796355,0.4021179744543092,0.32281440445484505,0.30437413688447146,nan
1740522713.0064027,0.055005299171598604,0.3333826882338796,0.2667066425565119,0.32224302668391724,nan
1740522713.0103085,0.08633598709192737,0.2637360988531324,0.211072285493509,0.338055631991331,nan
1740522713.014214,0.1165343425962674,0.1936817752852335,0.15626254117774227,0.3515732489219341,nan
1740522713.0181222,0.14526682135173874,0.12372670920178237,0.10261671839101388,0.36257201182101595,nan
1740522713.022028,0.17220902419833795,0.05437687545378286,0.05045910088884706,0.37084558445684124,nan
1740522713.0259335,0.19704920683101798,-0.013867225694210986,9.596655827556657e-05,0.3762077401828686,nan
1740522713.0298393,0.21949171982311694,-0.08051500310380064,-0.04818721850152132,0.3784948032488098,nan
1740522713.033745,0.23926034334148583,-0.1450901444815846,-0.09412840274676712,0.37756792429055724,nan
1740522713.0376508,0.25610148144531864,-0.2071348799521862,-0.1374913224944344,0.3733151641526412,nan
1740522713.0415564,0.269787181752718,-0.26621409882231106,-0.1780676216344781,0.36565336158663286,nan
1740522713.0454621,0.2801179474965942,-0.3219192799231953,-0.2156786960380189,0.3545297620151095,nan
1740522713.049368,0.2869253105664601,-0.37387219735103927,-0.25017724358832744,0.33992338644132625,nan
1740522713.0532737,0.2900741360334857,-0.4217283652284146,-0.2814485035921944,0.3218461217048318,nan
1740522713.0571795,0.2894646308680712,-0.4651801872699315,-0.30941117232628174,0.3003435156160571,nan
1740522713.061085,0.2850340320642857,-0.5039597794350434,-0.33401798460784204,0.2754952630290936,nan
1740522713.064993,0.27675795216292376,-0.5378414367687269,-0.35525595452216346,0.24741537161021812,nan
1740522713.0688984,0.2646513631909607,-0.5666437186428362,-0.3731462717592113,0.2162519989071319,nan
1740522713.0728042,0.2487692032835154,-0.5902311299901172,-0.3877438533776597,0.1821869552954896,nan
1740522713.07671,0.2292065936964185,-0.6085153797393982,-0.39913655419354777,0.14543487044887754,nan
1740522713.0806158,0.20609865752226406,-0.6214562014822496,-0.4074440423508074,0.10624202411843392,nan
1740522713.0845213,0.1796199351577365,-0.6290617253939941,-0.41281634993956273,0.06488484519031407,nan
1740522713.088427,0.1499833954008931,-0.6313883945592664,-0.4154321117535248,0.02166808618400403,nan
1740522713.0923328,0.11743904494835555,-0.6285404230766517,-0.41549650838877006,-0.023077316467612977,nan
1740522713.0962386,0.08227214297773426,-0.6206687975994001,-0.41323893285251134,-0.06899668288440511,nan
1740522713.1001441,0.044801031403022426,-0.6079698282702791,-0.4089104026432957,-0.11571431442468176,nan
1740522713.10405,0.0053745952429830384,-0.5906832592880155,-0.40278074185599627,-0.16283648311507817,nan
1740522713.1079557,-0.035630628692418224,-0.5690899535605283,-0.3951355602305221,-0.2099546635352907,nan
1740522713.1118631,-0.0778136729513649,-0.5435091700162366,-0.3862730581789961,-0.25664898221688587,nan
1740522713.115769,-0.12075266509773609,-0.5142954561200789,-0.37650068867098685,-0.3024918571531544,nan
1740522713.1196747,-0.16400862926229665,-0.48183518193730285,-0.36613170841177517,-0.3470517977692478,nan
1740522713.1235805,-0.20712953191355857,-0.4465427456689055,-0.3554816519985183,-0.389897333691992,nan
1740522713.127486,-0.24965453737390306,-0.40885648391287305,-0.34486476367057334,-0.43060103890861806,nan
1740522713.1313918,-0.2911184360943212,-0.36923432295218805,-0.3345904218730231,-0.46874361643251616,nan
1740522713.1352975,-0.33105620650390527,-0.3281492101035637,-0.3249595921195348,-0.5039180074192388,nan
1740522713.1392033,-0.36900766939213475,-0.2860843665523171,-0.31626134356839025,-0.5357334878118942,nan
1740522713.1431088,-0.4045221922842699,-0.2435284051239139,-0.3087694643129479,-0.563819715053785,nan
1740522713.1470146,-0.4371634001507867,-0.20097035808011357,-0.30273920963770773,-0.5878306871966948,nan
1740522713.1509204,-0.46651384806544144,-0.15889466125923352,-0.29840421640918113,-0.6074485768618941,nan
1740522713.1548262,-0.4921796111043822,-0.11777614169144425,-0.2959736153658983,-0.6223874029808143,nan
1740522713.1587334,-0.5137947468682663,-0.07807505620067436,-0.2956293713560029,-0.632396504053586,nan
1740522713.1626391,-0.5310255865142292,-0.04023222844793386,-0.2975238795591237,-0.6372637778132716,nan
1740522713.166545,-0.5435748111048544,-0.0046643313739966824,-0.301777843439173,-0.6368186536654878,nan
1740522713.1704507,-0.5511852714129287,0.02824063893612711,-0.30847845762710346,-0.630934766078162,nan
1740522713.1743562,-0.5536435110560751,0.058127653313271355,-0.31767791615027613,-0.6195322992120348,nan
1740522713.178262,-0.5507829549626729,0.08467866062759709,-0.3293922634333278,-0.6025799754942932,nan
1740522713.1821678,-0.5424867276745552,0.1076162793170973,-0.34360060232158957,-0.5800966635272429,nan
1740522713.1860735,-0.5286900688538257,0.12670713125848068,-0.3602446700513742,-0.5521525836707,nan
1740522713.189979,-0.5093823165584264,0.14176478288538688,-0.3792287896424191,-0.5188700928175517,nan
1740522713.1938848,-0.48460843235807727,0.15265226177381075,-0.4004202006485097,-0.4804240332712157,nan
1740522713.1977906,-0.45447004615013653,0.15928412054877183,-0.42364976960564227,-0.4370416342038465,nan
1740522713.2016964,-0.4191260025722335,0.16162802388874084,-0.4487130768966009,-0.38900195789557473,nan
1740522713.2056036,-0.37879239516092744,0.15970583858107285,-0.4753718731404413,-0.33663488679656606,nan
1740522713.2095094,-0.33374207883678286,0.1535942109763207,-0.5033558946490155,-0.28031965138269893,nan
1740522713.2134151,-0.2843036558676388,0.14342462076312035,-0.5323650240040164,-0.22048290275844648,nan
1740522713.2173207,-0.23085993513346825,0.12938290469775016,-0.5620717784300849,-0.15759633796263034,nan
1740522713.2212265,-0.17384586924675272,0.11170824873144923,-0.5921241054044525,-0.09217388991900319,nan
1740522713.2251322,-0.11374597882952076,0.09069165184087878,-0.6221484618823482,-0.024768497908951383,nan
1740522713.229038,-0.05109127796938284,0.06667386973876228,-0.6517531506592926,0.044031521707194814,nan
1740522713.2329435,0.013544280470836863,0.040042851478477914,-0.6805318847642006,0.11360648106534153,nan
1740522713.2368493,0.07954781647454354,0.011230686723858904,-0.7080675484063694,0.1833096756408041,nan
1740522713.240755,0.14627196382132845,-0.019289913910029013,-0.7339361209083035,0.2524720579449847,nan
1740522713.2446609,0.21303970857010987,-0.05100957857080987,-0.7577107282656697,0.32040719649439936,nan
1740522713.2485664,0.2791495893213499,-0.0833866428021745,-0.7789657855035503,0.3864164835533696,nan
1740522713.2524753,0.3438812198171677,-0.11585189194816557,-0.797281191859713,0.44979455251131917,nan
1740522713.256381,0.4065010910585085,-0.1478136384522267,-0.812246540032991,0.5098348634183307,nan
1740522713.2602868,0.46626860707930806,-0.17866309176852682,-0.8234653002970452,0.5658354131916574,nan
1740522713.2641923,0.5224423058492739,-0.2077799755509761,-0.8305589402024106,0.6171045253421307,nan
1740522713.268098,0.5742862145066785,-0.23453834411734686,-0.833170940875261,0.6629666727707146,nan
1740522713.272004,0.621076286274412,-0.2583125479286114,-0.8309706715688129,0.7027682862666316,nan
1740522713.2759097,0.6621068650067179,-0.2784832960000088,-0.8236570851283622,0.7358835008112853,nan
1740522713.2798152,0.6966971223671683,-0.2944437617896676,-0.8109621983860589,0.761719791664922,nan
1740522713.283721,0.7241974121629721,-0.3056056782081093,-0.7926543231957616,0.7797234524905677,nan
1740522713.2876267,0.7439954863651947,-0.31140536696862064,-0.7685410158376413,0.7893848684537159,nan
1740522713.2915325,0.7555225178330515,-0.311309647561275,-0.7384717148495272,0.790243538324481,nan
1740522713.295438,0.7582588757331508,-0.30482157168463936,-0.702340039957341,0.7818928010958675,nan
1740522713.2993464,0.7517396010969546,-0.29148593000710854,-0.6600857276576512,0.7639842245084025,nan
1740522713.3032522,0.735559531883272,-0.2708944796480049,-0.6116961821261224,0.7362316151250823,nan
1740522713.307158,0.7093780292942914,-0.2426908427564338,-0.5572076234590311,0.6984146122155724,nan
1740522713.3110638,0.6729232599165133,-0.2065750290085103,-0.49670581877140013,0.6503818306656984,nan
1740522713.3149693,0.6259959915009222,-0.1623075377217805,-0.4303263853434248,0.592053521405359,nan
1740522713.318875,0.5684728638347956,-0.10971299857651419,-0.35825465879383284,0.5234237214198886,nan
1740522713.3227808,0.5003091001622337,-0.04868331361003346,-0.2807251231306589,0.44456186924880986,nan
1740522713.3266866,0.42154062894965083,0.020819732818052352,-0.1980204034516849,0.3556138659515191,nan
1740522713.3305922,0.33228559043103373,0.09876242503868925,-0.11046982600302356,0.25680256579914296,nan
1740522713.334498,0.23274520726756912,0.18503765237558506,-0.01844755421925407,0.14842768540112433,nan
1740522713.3384037,0.12320400377679268,0.2794640501652607,0.07762968677342899,0.030865124557746215,nan
1740522713.3423095,0.004029363484845474,0.3817857598375036,0.17730528094375697,-0.09543430319172876,nan
1740522713.3462193,-0.12432957981287245,0.491672817153544,0.2800857675451221,-0.22994672762007307,nan
1740522713.350125,-0.2613437167784155,0.6087221723403138,0.38544423934296845,-0.372077659003682,nan
1740522713.3540308,-0.406406396782084,0.7324593404330865,0.4928240662274789,-0.5211649932648673,nan
1740522713.3579366,-0.5588365098625911,0.8623406746932107,0.6016429144951113,-0.6764825682055171,nan
1740522713.3618422,-0.7178821990860309,0.997756250550355,0.7112970292696046,-0.8372442494046998,nan
1740522713.365748,-0.8827251806005232,1.1380333421775122,0.8211657449977212,-1.0026085199249397,nan
1740522713.3696537,-1.0524856434412322,1.2824404685892747,0.9306161867210162,-1.1716835437222364,nan
1740522713.3735595,-1.2262276960947178,1.4301919811059989,1.0390081229135737,-1.3435326686199862,nan
1740522713.377465,-1.4029653220268692,1.5804531591935171,1.1456989291052493,-1.5171803309218261,nan
1740522713.3813708,-1.5816688018575997,1.7323457771132948,1.2500486202957943,-1.6916183202360173,nan
1740522713.3852766,-1.761271555668656,1.8849540995426965,1.351424909319514,-1.8658123598952003,nan
1740522713.3891823,-1.9406773550960026,2.0373312603878415,1.4492082478515287,-2.0387089555083984,nan
1740522713.3930902,-2.1187678514202446,2.188505975448423,1.5427968066607733,-2.209242461702655,nan
1740522713.396996,-2.294410362859016,2.337489536437284,1.6316113520136084,-2.3763423150220593,nan
1740522713.4009018,-2.46646586171217,2.4832830311368568,1.7150999758137584,-2.538940379271668,nan
1740522713.4048073,-2.6337970999382807,2.6248847322149422,1.792742638124413,-2.695978348338803,nan
1740522713.408713,-2.795276810169257,2.7612975954454315,1.864055482148255,-2.8464151507068824,nan
1740522713.4126189,-2.949795918115077,2.891536806802358,1.928594883529395,-2.989234299506183,nan
1740522713.4165246,-3.0962717017837433,3.0146373171312533,1.9859611979725134,-3.123451132026708,nan
1740522713.4204302,-3.2336558329499874,3.129661302858378,2.035802173631094,-3.2481198831520475,nan
1740522713.424336,-3.360942236851925,3.2357054914798478,2.0778159974772983,-3.3623405381571363,nan
1740522713.4282417,-3.477174707175858,3.3319082913782676,2.1117539479070633,-3.46526541174092,nan
1740522713.4321475,-3.5814542149985855,3.417456666838708,2.137422629128989,-3.5561054020269007,nan
1740522713.436053,-3.672945852482539,3.491592700968798,2.1546857664059047,-3.6341358705468516,nan
1740522713.439961,-3.750885354745841,3.55361979155492,2.1634655449328077,-3.698702101907958,nan
1740522713.4438667,-3.814585146436484,3.6029084276890275,2.1637434790116705,-3.7492242999108996,nan
1740522713.4477725,-3.863439863102977,3.6389014982555636,2.1555608021883987,-3.7852020803115303,nan
1740522713.451678,-3.8969313014440816,3.661119087048172,2.1390183731145784,-3.8062184241750465,nan
1740522713.4555838,-3.9146327569057107,3.6691627133605396,2.114276096050641,-3.811943059828659,nan
1740522713.4594896,-3.9162127118376104,3.662718981330445,2.0815518591008866,-3.8021352457445032,nan
1740522713.4633954,-3.901437842487293,3.6415626060734185,2.0411199974275274,-3.7766459312437055,nan
1740522713.467301,-3.8701753184518863,3.605558789681703,1.993309292793821,-3.7354192766685883,nan
1740522713.4712067,-3.8223943737858828,3.5546649254427543,1.9385005247990066,-3.6784935195840873,nan
1740522713.4751124,-3.7581671347277137,3.4889316141039286,1.877123593054548,-3.606001178601701,nan
1740522713.4790182,-3.6776686949125454,3.408502981629626,1.8096542332776606,-3.518168591528643,nan
1740522713.4829237,-3.581176434933248,3.3136162936156563,1.7366103538110678,-3.4153147896895804,nan
1740522713.486833,-3.469068589145849,3.2046008672938933,1.6585480223860594,-3.2978497154062265,nan
1740522713.4907389,-3.3418220686391726,3.081876287828805,1.5760571359996396,-3.1662717947092123,nan
1740522713.4946446,-3.200009555250265,2.945949941326537,1.4897568095488494,-3.0211648823551656,nan
1740522713.4985504,-3.044295887357015,2.7974138825976387,1.4002905213313288,-2.863194601088954,nan
1740522713.502456,-2.8754337638681893,2.636941061187938,1.308321055658968,-2.693104101786542,nan
1740522713.5063617,-2.6942587983105,2.4652809344712514,1.2145252846220338,-2.511709275599496,nan
1740522713.5102675,-2.5016839601362095,2.283254501637244,1.1195888324682652,-2.3198934534609297,nan
1740522713.5141733,-2.2986934452990155,2.09174879716437,1.0242006671126416,-2.1186016322700403,nan
1740522713.5180788,-2.0863360227288537,1.8917108868005907,0.929047663959024,-1.9088342707158832,nan
1740522713.5219846,-1.8657179075391084,1.6841414131454344,0.8348091874890428,-1.6916407010009546,nan
1740522713.5258904,-1.637995215587192,1.4700877416010185,0.7421517359535763,-1.4681122056546783,nan
1740522713.5297961,-1.4043660573493117,1.250636760705478,0.651723693989134,-1.2393748111621612,nan
1740522713.5337033,-1.1660623319347214,1.026907393652235,0.5641502370797856,-1.0065818522543162,nan
1740522713.537609,-0.924341284429514,0.8000428801089232,0.48002843050286076,-0.7709063623944188,nan
1740522713.5415149,-0.6804768916054476,0.5712028892612401,0.39992256374483315,-0.5335333472403367,nan
1740522713.5454204,-0.4357511423399925,0.34155552630423897,0.32435975936704076,-0.29565199865107483,nan
1740522713.5493262,-0.19144527985909585,0.11226929537626475,0.253825892957029,-0.058447907135441415,nan
1740522713.553232,0.051168926872144804,-0.11549491782743178,0.18876185814084318,0.17690466949271413,nan
1740522713.5571377,0.29083781562479055,-0.3405917808144206,0.12956020767813473,0.409250424081897,nan
1740522713.5610433,0.5263343011499091,-0.5618993043001292,0.0765621984415087,0.637460448610715,nan
1740522713.564949,0.756466118523497,-0.7783264266698893,0.030055264622417508,0.8604394585272014,nan
1740522713.5688548,0.9800837768837967,-0.9888203339578633,-0.009729060161214389,1.077132740256491,nan
1740522713.5727606,1.1960881633224685,-1.1923734587424393,-0.04261675502348947,1.286532771514114,nan
1740522713.576666,1.403437739651245,-1.3880301041678285,-0.06849244538801771,1.48768546679755,nan
1740522713.5805733,1.601155278189882,-1.5748926425569334,-0.08730004922914607,1.6796960035352457,nan
1740522713.584479,1.7883340865799668,-1.7521272417520715,-0.09904293138473105,1.8617341878235925,nan
1740522713.5883849,1.9641436758889617,-1.9189690763751837,-0.10378356554563689,2.0330393224488836,nan
1740522713.5922904,2.1278348308930157,-2.0747269856017914,-0.1016427077223275,2.1929245439411784,nan
1740522713.5961962,2.278744046375859,-2.2187875437543934,-0.09279808914504442,2.340780599705914,nan
1740522713.600102,2.4162972985119042,-2.3506185149995793,-0.0774826406348836,2.476079040790968,nan
1740522713.6040077,2.5400131258697822,-2.469771668635364,-0.05598226445302391,2.598374810533628,nan
1740522713.6079133,2.6495050002310925,-2.575884936835325,-0.0286331734598548,2.7073082141544798,nan
1740522713.611819,2.7444829732199456,-2.6686839022272224,0.004181178938388124,2.8026062592832286,nan
1740522713.6157248,2.824754590632475,-2.747982608277758,0.0420335511421155,2.884083362374126,nan
1740522713.6196306,2.8902250722919,-2.8136836910834804,0.08445671790078754,2.951641420954675,nan
1740522713.6235363,2.940896761183582,-2.865777836781693,0.13094759400725162,3.005269256609641,nan
1740522713.627445,2.9768678514958533,-2.904342574346171,0.18097164146965752,3.04504143849215,nan
1740522713.6313508,2.998330410956705,-2.929540418972739,0.23396752216474176,3.07111650193498,nan
1740522713.6352563,3.0055677184654037,-2.9416163865426648,0.28935195598867675,3.083734581369037,nan
1740522713.639162,2.998950943424891,-2.940894904732249,0.3465247428847146,3.0832144812049544,nan
1740522713.6430678,2.9789351983404297,-2.92777615117186,0.40487390585408733,3.069950212562022,nan
1740522713.6469736,2.946055001119831,-2.9027318536060553,0.46378091115801356,3.0444070277024364,nan
1740522713.6508791,2.9009191880504828,-2.866300591230227,0.5226259214012268,3.0071169877168287,nan
1740522713.654785,2.844205322601636,-2.8190826402432476,0.5807930370543282,2.9586741023801673,nan
1740522713.6586907,2.7766536489728857,-2.7617344101280126,0.6376754822238023,2.8997290841295476,nan
1740522713.6625965,2.699060642651699,-2.694962520224324,0.692680691110996,2.8309837607838753,nan
1740522713.666502,2.6122722131277722,-2.6195175687667986,0.7452352526082909,2.753185193910348,nan
1740522713.6704078,2.5171766163176827,-2.5361876487040087,0.7947896718517824,2.667119551627276,nan
1740522713.6743162,2.41469713616203,-2.4457916662776387,0.8408229092720303,2.5736057861043977,nan
1740522713.678222,2.3057845962549766,-2.34917251951019,0.8828466597413452,2.4734891670707007,nan
1740522713.6821277,2.1914097632442537,-2.247190194419216,0.9204093367885747,2.36763472326047,nan
1740522713.6860332,2.0725557040932783,-2.140714836942247,0.9530997295184461,2.2569206439183493,nan
1740522713.689939,1.950210159126301,-2.030619858220837,0.9805503028077768,2.1422316922455202,nan
1740522713.6938448,1.8253579920869771,-1.917775130060589,1.0024401145285162,2.0244526820066127,nan
1740522713.6977506,1.6989737772394475,-1.8030403260667522,1.0184973269388924,1.9044620674396813,nan
1740522713.701656,1.572014581842428,-1.6872584621666609,1.0285012929582749,1.7831256951315178,nan
1740522713.7055619,1.4454130001486722,-1.571249687989564,1.0322842017666802,1.6612907646535864,nan
1740522713.7094676,1.3200704924461693,-1.4558053779037934,1.029732272012891,1.5397800425185286,nan
1740522713.7133734,1.1968510795894132,-1.3416825674372035,1.0207864848416803,1.4193863714355242,nan
1740522713.7172792,1.0765754399981189,-1.2295987773589625,1.0054428529259065,1.3008675139392447,nan
1740522713.7211874,0.9600154522597114,-1.1202272639121904,0.9837522256781833,1.1849413662691004,nan
1740522713.7250931,0.8478892222962703,-1.0141927295933277,0.9558196347843814,1.0722815749123265,nan
1740522713.728999,0.7408566295849514,-0.9120675245138246,0.9218031881127204,0.9635135845278787,nan
1740522713.7329047,0.6395154221938996,-0.8143683637933533,0.8819125238736458,0.8592111420714289,nan
1740522713.7368102,0.5443978854560851,-0.7215535816634061,0.8364068406039007,0.7598932778797971,nan
1740522713.740716,0.4559681039957763,-0.6340209380497205,0.7855925220914978,0.6660217802819023,nan
1740522713.7446218,0.3746198315919564,-0.5521059883960706,0.7298203797162273,0.5779991760195929,nan
1740522713.7485275,0.30067497805639926,-0.4760810224359012,0.6694825378245567,0.49616722442280564,nan
1740522713.7524333,0.23438271696791013,-0.40615457255758475,0.6050089906616579,0.42080592892692026,nan
1740522713.7563388,0.1759192127852678,-0.3424714873889487,0.5368638620228275,0.3521330651832713,nan
1740522713.7602446,0.12538796060577684,-0.28511356129177573,0.465541401139823,0.29030422073337364,nan
1740522713.7641504,0.08282072668948473,-0.23410070565084165,0.39156175036579466,0.235413337029614,nan
1740522713.7680535,0.04817907287514894,-0.1893926432067708,0.315466521949047,0.18749374052491322,nan
1740522713.7719593,0.02135644321534489,-0.1508911022579875,0.23781422257778467,0.14651964565468917,nan
1740522713.775865,0.0021807865951997524,-0.11844248338240547,0.15917556542479325,0.11240810882826964,nan
1740522713.7797709,-0.009582315189885442,-0.09184096743995644,0.08012871011577602,0.08502140906355449,nan
1740522713.7836764,-0.014226048402081535,-0.07083203004543892,0.0012544713836802062,0.06416982766598722,nan
1740522713.7875822,-0.012098335517503788,-0.055116324477221555,-0.07686846284674953,0.0496147963959504,nan
1740522713.791488,-0.0035974119817420084,-0.04435389213751031,-0.15366826357255534,0.04107238091025432,nan
1740522713.7953937,0.010832944153335125,-0.03816865722698349,-0.2285846033738835,0.038217063923232215,nan
1740522713.7992992,0.03070848297612242,-0.03615316025969817,-0.30107317103416836,0.0406857905279075,nan
1740522713.803205,0.05550980509262043,-0.03787348343847224,-0.3706100209202027,0.048082236461605664,nan
1740522713.8071108,0.08468788531504495,-0.04287431974752221,-0.4366957216271131,0.059981258803690436,nan
1740522713.8110166,0.11766974623512093,-0.05068413690502558,-0.4988592703939483,0.07593348766326335,nan
1740522713.8149195,0.15386422961408894,-0.06082038705639262,-0.5566617420734312,0.09547001685555752,nan
1740522713.8188252,0.1926678133471728,-0.07279471327797786,-0.6096996439720889,0.11810715137820381,nan
1740522713.822731,0.23347042205032145,-0.08611810459545145,-0.6576079506404803,0.14335116967992695,nan
1740522713.8266368,0.275661180064577,-0.10030595229151354,-0.7000627956612337,0.1707030592587198,nan
1740522713.8305423,0.3186340568675094,-0.11488296177076845,-0.736783800627478,0.19966318502527308,nan
1740522713.834448,0.3617933565069062,-0.1293878761481504,-0.7675360247967083,0.22973585110830813,nan
1740522713.8383539,0.4045590047107288,-0.14337797001050923,-0.7921315223149608,0.26043371834664636,nan
1740522713.8422596,0.4463715897569603,-0.15643327444468383,-0.8104304974021924,0.29128204159060095,nan
1740522713.8461652,0.48669711598195703,-0.1681604974022081,-0.8223420514403321,0.32182269310244943,nan
1740522713.850071,0.5250314319374886,-0.17819660675053078,-0.8278245194786156,0.351617940779649,nan
1740522713.8539767,0.5609042986434976,-0.18621204691046264,-0.8268853972346913,0.38025395260037487,nan
1740522713.8578825,0.5938830670917021,-0.19191356376437263,-0.8195808631929152,0.40734400158226924,nan
1740522713.86179,0.6235759380983826,-0.19504661650253152,-0.8060149038523359,0.4325313486236279,nan
1740522713.8656957,0.6496347817451257,-0.19539735921722073,-0.7863380535260067,0.45549178383195954,nan
1740522713.8696015,0.6717574979444596,-0.19279417931612777,-0.7607457633114127,0.4759358103072139,nan
1740522713.873507,0.6896899040826944,-0.18710878416742405,-0.7294764169116038,0.4936104578042913,nan
1740522713.8774128,0.7032271401836256,-0.17825683176775844,-0.6928090138619458,0.5083007172197108,nan
1740522713.8813186,0.7122145865624419,-0.16619810559997392,-0.6510605433844887,0.5198305903981495,nan
1740522713.8852243,0.716548293457689,-0.15093623817898286,-0.6045830745285796,0.5280637533037253,nan
1740522713.8891299,0.7161749265992403,-0.13251799203164494,-0.5537605904430809,0.5329038341164778,nan
1740522713.8930357,0.7110912370517282,-0.11103211098074017,-0.49900559654490034,0.534294311265293,nan
1740522713.8969414,0.701343067926419,-0.08660775856651527,-0.44075553398596984,0.5322180397641307,nan
1740522713.9008472,0.687023914642575,-0.05941256420599041,-0.3794690311641753,0.5266964174497991,nan
1740522713.9047527,0.6682730593059782,-0.02965030122641484,-0.3156220270638263,0.5177882057989441,nan
1740522713.9086602,0.6452733034239228,0.002441775816382981,-0.24970380094163833,0.5055880229033837,nan
1740522713.912566,0.6182483265613291,0.03659590414021199,-0.18221294329124732,0.4902245288823738,nan
1740522713.9164715,0.58745970163329,0.072517062997357,-0.11365330312238289,0.47185832648577375,nan
1740522713.9203773,0.5532036002997307,0.10988646580361378,-0.044529946382072916,0.4506796018738029,nan
1740522713.924283,0.5158072243556892,0.14836525677497453,0.024654840170338282,0.42690553252973107,nan
1740522713.9281888,0.4756250010769692,0.1875983731152965,0.09340546613726211,0.4007774909569386,nan
1740522713.9320946,0.43303458217020824,0.22721853258842384,0.16123684331239987,0.37255807421913467,nan
1740522713.936,0.38843268727678043,0.26685030549303745,0.22767804915132817,0.34252799049309357,nan
1740522713.939906,0.34223083388350045,0.30611422964259166,0.2922758185085274,0.31098283461053106,nan
1740522713.9438117,0.2948509959952108,0.34463092693701125,0.35459783614892004,0.2782297850662827,nan
1740522713.9477174,0.24672123402469,0.3820251804943055,0.41423580464807436,0.24458425516299426,nan
1740522713.951623,0.19827133805685565,0.4179299320823628,0.47080826460317193,0.21036653085038748,nan
1740522713.9555302,0.14992852595397582,0.45199016074352544,0.5239631465635732,0.17589842740469205,nan
1740522713.959436,0.10211323669685182,0.4838666050232851,0.5733800367308591,0.14149999638878014,nan
1740522713.9633415,0.05523505791773851,0.5132392930823428,0.618772141247796,0.10748631334623188,nan
1740522713.9672472,0.009688824791267455,0.5398108471679364,0.6598879367672686,0.07416437542576444,nan
1740522713.971153,-0.03414907466979301,0.5633095314223451,0.6965124979384819,0.04183013662138067,nan
1740522713.9750588,-0.07592415529312088,0.5834920147875898,0.7284684954409536,0.010765706565579836,nan
1740522713.9789646,-0.11530702148573799,0.6001458237971172,0.7556168612092228,-0.01876326315262198,nan
1740522713.98287,-0.15199625807826803,0.6130914632965794,0.7778571204949417,-0.04650998333507789,nan
1740522713.9867759,-0.185721001500578,0.6221841865742439,0.7951273933808135,-0.07224870271316326,nan
1740522713.9906816,-0.21624317088538608,0.6273153999725967,0.8074040712659053,-0.0957766376886758,nan
1740522713.9945874,-0.24335934222275465,0.6284136907608944,0.8147011766582113,-0.11691564189736106,nan
1740522713.998493,-0.2669022523355282,0.6254454708373695,0.8170694173134051,-0.13551360392300005,nan
1740522714.0024018,-0.2867419231779645,0.6184152326624757,0.8145949483246782,-0.15144556426892314,nan
1740522714.0063076,-0.3027864007406701,0.6073654176639156,0.8073978581757897,-0.16461454551708019,nan
1740522714.0102134,-0.314982106638149,0.5923759011631569,0.7956303969974597,-0.17495209244508989,nan
1740522714.014119,-0.32331380422449674,0.5735631016153839,0.7794749672977753,-0.1824185217020753,nan
1740522714.0180247,-0.32780418479237144,0.5510787255946229,0.7591418992540305,-0.18700288343776333,nan
1740522714.0219305,-0.32851308302553767,0.5251081634588924,0.7348670342421872,-0.18872264001041691,nan
1740522714.0258362,-0.32553633436238144,0.49586855396366,0.7069091416291204,-0.18762306954246688,nan
1740522714.0297418,-0.31900429025474936,0.4636065392246931,0.6755471949524731,-0.18377640462424413,nan
1740522714.0336475,-0.3090800104429731,0.42859573433463277,0.6410775344563405,-0.17728071886337862,nan
1740522714.0375533,-0.2959571542857744,0.3911339385847088,0.6038109435334048,-0.16825857621895673,nan
1740522714.041459,-0.27985759585703374,0.35154011761006615,0.56406966694371,-0.1568554601261881,nan
1740522714.0453646,-0.2610287899268038,0.31015118784308277,0.5221843987372758,-0.14323800129144165,nan
1740522714.049273,-0.23974091806089218,0.26731863640573444,0.4784912676051585,-0.1275920247036734,nan
1740522714.0531788,-0.21628384588420924,0.22340501098461182,0.43332884692676726,-0.11012043785312557,nan
1740522714.0570846,-0.19096392404330495,0.17878031529900892,0.38703521607774166,-0.09104098336064843,nan
1740522714.0609903,-0.1641006665617739,0.1338183464853796,0.3399450986225874,-0.07058388019240779,nan
1740522714.064896,-0.13602334110042624,0.0888930110756334,0.29238710185138067,-0.048989378358733765,nan
1740522714.0688016,-0.10706750610756051,0.04437465624093922,0.24468108074437656,-0.026505252468608072,nan
1740522714.0727074,-0.07757152997196627,0.0006264526091557343,0.1971356478779958,-0.00338425973134314,nan
1740522714.0766132,-0.04787312707441938,-0.041999135751722365,0.15004584903804546,0.020118412034539478,nan
1740522714.080519,-0.018305945077661055,-0.08316375965054036,0.10369102240006109,0.04374768110503749,nan
1740522714.0844245,0.01080376309133443,-0.12254643824654869,0.05833285709262811,0.06725106850894491,nan
1740522714.0883303,0.039140350317923046,-0.15984662624096044,0.014213664798828818,0.09038113063914302,nan
1740522714.092236,0.06640183869544593,-0.19478706535027893,-0.028445124204256194,0.11289780479596333,nan
1740522714.0961442,0.09230280629607214,-0.22711639290360836,-0.06944423149502829,0.13457064583405956,nan
1740522714.10005,0.11657707043549614,-0.25661148293700753,-0.1086075607481816,0.15518093347420397,nan
1740522714.1039557,0.13898014285683932,-0.283079497915149,-0.14578298346956364,0.1745236314130217,nan
1740522714.1078613,0.1592914347853802,-0.3063596321662574,-0.18084287832987414,0.192409181099325,nan
1740522714.111767,0.17731619252484218,-0.32632453124047833,-0.21368442458251688,0.20866511492648648,nan
1740522714.1156728,0.1928871471497382,-0.3428813746635203,-0.24422965238747912,0.22313747559600172,nan
1740522714.1195786,0.20586586486699956,-0.3559726129238959,-0.272425255133708,0.23569203051693474,nan
1740522714.1234844,0.2161437877430883,-0.36557635297033203,-0.29824217103611617,0.24621527229732326,nan
1740522714.12739,0.2236429576884665,-0.3717063899719794,-0.3216749433602504,0.254615198634381,nan
1740522714.1312957,0.22831641982774678,-0.3744118865740308,-0.3427408705791658,0.2608218671976355,nan
1740522714.1352015,0.23014830462889724,-0.3737767043313723,-0.36147895957608145,0.26478772340004203,nan
1740522714.1391072,0.2291535913865702,-0.36991839538959376,-0.3779486966573876,0.266487701243765,nan
1740522714.1430151,0.22537755882147786,-0.36298686577343425,-0.39222865261979634,0.2659190996872581,nan
1740522714.146921,0.218894931639005,-0.3531627248060765,-0.4044149394109201,0.2631012391865159,nan
1740522714.1508267,0.2098087348562772,-0.34065533818848737,-0.4146195370243812,0.2580749051947788,nan
1740522714.1547325,0.19824887052938256,-0.3257006050878169,-0.42296851017075443,0.25090158744127583,nan
1740522714.158638,0.18437043416465462,-0.3085584821912094,-0.42960013495834837,0.24166252573174973,nan
1740522714.1625438,0.16835179055508853,-0.28951028005199003,-0.4346629562993833,0.2304575748037773,nan
1740522714.1664495,0.1503924310222431,-0.26885575916710774,-0.43831379702581974,0.2174039024119612,nan
1740522714.1703553,0.13071063604504413,-0.24691005505877897,-0.4407157397555101,0.20263453629737627,nan
1740522714.1742609,0.10954096900170221,-0.22400046317291045,-0.44203610239619434,0.18629677699927505,nan
1740522714.1781666,0.0871316282242812,-0.20046311563863692,-0.4424444278166062,0.1685504945840448,nan
1740522714.1820724,0.06374168575465035,-0.1766395828466153,-0.44211050765745197,0.14956632828766195,nan
1740522714.1859782,0.039638242086096676,-0.15287343339130538,-0.44120245950873976,0.12952380878649083,nan
1740522714.1898859,0.015093526770006332,-0.1295067861801524,-0.4398848757541002,0.10860942332226398,nan
1740522714.1937916,-0.009618024941937314,-0.10687688843944622,-0.4383170612895159,0.08701464420764693,nan
1740522714.1976974,-0.03422268926325997,-0.08531275294499138,-0.436651376076642,0.06493394132827374,nan
1740522714.2016032,-0.058450335005213815,-0.06513188708101444,-0.43503169710454886,0.04256279913699426,nan
1740522714.2055087,-0.08203723944873013,-0.04663714529160359,-0.4335920128244195,0.020095758309757072,nan
1740522714.2094145,-0.10472881063021047,-0.030113735146979414,-0.43245516150650276,-0.0022754982943739674,nan
1740522714.2133203,-0.12628218889538445,-0.015826405616537472,-0.4317317232654998,-0.024363996446612465,nan
1740522714.217226,-0.1464687020193671,-0.004016844239186803,-0.4315190737281223,-0.04598924011661408,nan
1740522714.2211316,-0.16507614988289634,0.005098692271321574,-0.431900605493953,-0.06697888285331498,nan
1740522714.2250373,-0.1819108966159225,0.011331491830329492,-0.4329451216872261,-0.08717028527281968,nan
1740522714.228943,-0.19679975024949065,0.014522225626609868,-0.4347064040322037,-0.10641194432996089,nan
1740522714.232849,-0.20959161223261738,0.014542494803913057,-0.4372229560277834,-0.12456478156264257,nan
1740522714.2367563,-0.22015888164816375,0.011296071293168545,-0.44051791996662154,-0.14150327912407132,nan
1740522714.240662,-0.22839860157480932,0.0047198219472857315,-0.4445991647590186,-0.15711645413984066,nan
1740522714.2445679,-0.23423333776407113,-0.005215691739230391,-0.44945953979973724,-0.1713086637260265,nan
1740522714.2484736,-0.2376117826039757,-0.018505942852671188,-0.4550772884736561,-0.18400023486190348,nan
1740522714.2523792,-0.23850908019591827,-0.03511249853091414,-0.46141661334956796,-0.19512791520707815,nan
1740522714.256285,-0.23692687124955264,-0.05496340777071741,-0.4684283836751529,-0.20464514286803398,nan
1740522714.2601907,-0.2328930593731468,-0.07795391247483155,-0.4760509744734824,-0.21252213503351983,nan
1740522714.2640965,-0.22646130317515215,-0.10394747352180346,-0.48421122536419475,-0.2187457972923604,nan
1740522714.2680023,-0.2177102413683033,-0.13277710061545145,-0.49282550620106735,-0.2233194573019005,nan
1740522714.2719078,-0.20674246075309452,-0.1642469717686395,-0.5018008757407316,-0.22626242827182208,nan
1740522714.2758136,-0.19368321952643258,-0.1981343255249682,-0.5110363188416333,-0.2276094094485943,nan
1740522714.2797194,-0.17867894078860586,-0.23419160644846268,-0.520424047143309,-0.22740973241339735,nan
1740522714.2836268,-0.16189549338379755,-0.27214884203953404,-0.5298508477968058,-0.22572646352515596,nan
1740522714.2875323,-0.14351627928453012,-0.3117162270876611,-0.539199464609341,-0.22263537423567537,nan
1740522714.291438,-0.12374014859866055,-0.3525868895673602,-0.5483499959295984,-0.21822379226255795,nan
1740522714.2953439,-0.10277916492142358,-0.3944398105414469,-0.55718129373245,-0.2125893477158627,nan
1740522714.2992496,-0.0808562451590613,-0.4369428691692918,-0.5655723486593491,-0.20583862922622378,nan
1740522714.3031552,-0.058202699101986374,-0.4797559828397395,-0.573403646227752,-0.19808576590687732,nan
1740522714.307061,-0.03505569491401304,-0.5225343116678282,-0.5805584800323609,-0.18945095159316266,nan
1740522714.3109667,-0.011655677322257352,-0.5649314961176604,-0.5869242085140758,-0.1800589282357386,nan
1740522714.3148725,0.011756234364905785,-0.6066028963440602,-0.5923934427590847,-0.17003744557487122,nan
1740522714.318778,0.034940841218996925,-0.6472088019831083,-0.5968651537990456,-0.15951571429185393,nan
1740522714.3226838,0.05766342565011977,-0.6864175815637509,-0.600245689001166,-0.1486228697204989,nan
1740522714.3265896,0.0796962518660144,-0.723908741453445,-0.6024496883504097,-0.13748646290939182,nan
1740522714.3304968,0.10082098008570498,-0.7593758652818734,-0.6034008927205765,-0.12623099535877672,nan
1740522714.3344026,0.12083096977151733,-0.7925294060964531,-0.6030328375912509,-0.11497651312064343,nan
1740522714.338308,0.1395334483995639,-0.8230993050778205,-0.6012894270777507,-0.10383727515481835,nan
1740522714.3422139,0.1567515237781327,-0.8508374124659143,-0.5981253845851097,-0.09292050988705326,nan
1740522714.3461196,0.17232601962959979,-0.8755196883987059,-0.5935065778582874,-0.08232527282837689,nan
1740522714.3500254,0.18611711605648243,-0.8969481636250471,-0.5874102176628707,-0.07214141690050195,nan
1740522714.353931,0.1980057785959231,-0.9149526424972048,-0.57982493077721,-0.062448685783651064,nan
1740522714.3578367,0.2078949618073736,-0.9293921332528132,-0.5707507093923231,-0.053315939175361454,nan
1740522714.3617425,0.21571057571249636,-0.9401559933338305,-0.56019874038453,-0.044800517337218605,nan
1740522714.3656483,0.22140220588954146,-0.9471647803341573,-0.5481911192329328,-0.036947750727570096,nan
1740522714.3695538,0.22494358059140285,-0.9503708020895475,-0.5347604545855653,-0.029790618888935014,nan
1740522714.3734596,0.22633278088087902,-0.9497583623941886,-0.5199493706212935,-0.023349561096463096,nan
1740522714.3773685,0.22559219243167244,-0.9453437018185322,-0.5038099153975385,-0.01763243959608315,nan
1740522714.3812742,0.2227682003024362,-0.9371746360830893,-0.48640288430587836,-0.012634654585561574,nan
1740522714.3851798,0.21793063062690773,-0.9253298973837912,-0.4677970685693048,-0.008339408436083256,nan
1740522714.3890855,0.21117194574932727,-0.9099181869374143,-0.44806843939837204,-0.004718115033514983,nan
1740522714.3929913,0.2026062018449656,-0.8910769497925077,-0.4272992789723558,-0.0017309485538993725,nan
1740522714.396897,0.1923677804757107,-0.8689708856054129,-0.40557726982087566,0.0006724755069125392,nan
1740522714.4008029,0.18060990781623298,-0.8437902115867693,-0.382994554448099,0.0025522956388373806,nan
1740522714.4047084,0.16750297742464237,-0.8157486961573248,-0.35964677716389803,0.003977485857408792,nan
1740522714.4086142,0.15323269440179832,-0.7850814839908049,-0.33563212006427334,0.005024834573689273,nan
1740522714.41252,0.13799806056601177,-0.7520427350457745,-0.3110503449385966,0.005777832961910431,nan
1740522714.4164257,0.12200922184764197,-0.7169031018799352,-0.2860018525770391,0.006325485928830084,nan
1740522714.4203312,0.10548520046560919,-0.6799470709835033,-0.2605867705127272,0.006761059580343899,nan
1740522714.4242399,0.08865153557220776,-0.6414701950500938,-0.23490407966603005,0.0071807797200771325,nan
1740522714.4281454,0.07173785693317772,-0.6017762440134377,-0.2090507896707038,0.007682496395411766,nan
1740522714.4320512,0.05497541683858797,-0.5611743033085889,-0.1831211718623882,0.008364329824320168,nan
1740522714.435957,0.03859460581121087,-0.5199758481619616,-0.15720605800956602,0.00932331318889593,nan
1740522714.4398627,0.022822477789623655,-0.47849182277363406,-0.1313922118768831,0.0106540477675342,nan
1740522714.4437683,0.007880310312967344,-0.43702975302840213,-0.10576177964312805,0.012447385698232083,nan
1740522714.447674,-0.006018775174596444,-0.3958909208627635,-0.08039182406435691,0.014789155322956011,nan
1740522714.4515798,-0.018672108444457304,-0.3553676276295974,-0.05535394609060785,0.01775894356157661,nan
1740522714.4554856,-0.029889657483000886,-0.31574057274980544,-0.030713996426703367,0.02142894910944753,nan
1740522714.459391,-0.039496084969464385,-0.27727637263233107,-0.006531878288757517,0.025862919452652317,nan
1740522714.463297,-0.04733265320195381,-0.2402252432947456,0.017138558636944263,0.031115183758117927,nan
1740522714.4672027,-0.05325895802154731,-0.20481886834257534,0.04024953426191444,0.03722979263253637,nan
1740522714.4711108,-0.057154474058169896,-0.17126847198529505,0.06275926663140828,0.04423977456588683,nan
1740522714.4750166,-0.058919895571015415,-0.1397631146010107,0.08463181654282811,0.05216651759495475,nan
1740522714.4789224,-0.058478259260444865,-0.1104682260327,0.10583685298167686,0.06101928335344046,nan
1740522714.482828,-0.055775837666135496,-0.08352438933032495,0.12634934516452329,0.07079485923254905,nan
1740522714.4867337,-0.050782794114864145,-0.05904638507034718,0.1461491879537523,0.08147735287476478,nan
1740522714.4906394,-0.04349359261672575,-0.03712250371341384,0.16522076829338397,0.09303813167964017,nan
1740522714.4945452,-0.03392715860621632,-0.017814130729229848,0.1835524810980636,0.10543590843029833,nan
1740522714.4984508,-0.02212678895909532,-0.0011556064523035843,0.20113620369892232,0.11861697256930562,nan
1740522714.5023565,-0.008159812261637811,0.012845640138732824,0.21796673850198112,0.13251556507941115,nan
1740522714.5062623,0.007882997159638305,0.024208687274743027,0.23404123394021545,0.14705439337461285,nan
1740522714.510168,0.025888245448172538,0.03297845213900264,0.24935859409377872,0.16214528109651297,nan
1740522714.5140736,0.04572097724102346,0.03922476737961081,0.26391888751025955,0.1776899462555308,nan
1740522714.5179818,0.06722595474180482,0.04304121379349551,0.277722765775788,0.19358089977150628,nan
1740522714.5218875,0.09022914485335207,0.04454372297916569,0.2907709022675084,0.20970245516786917,nan
1740522714.525793,0.11453939928973628,0.04386896600027888,0.3030634612592671,0.22593183897137983,nan
1740522714.5296988,0.13995031065178137,0.04117254617480399,0.3145996071576746,0.24214039027783904,nan
1740522714.5336046,0.16624222568915287,0.03662701598513466,0.32537706311909714,0.25819483697447504,nan
1740522714.5375104,0.19318439540293988,0.030419739774760854,0.33539172764513026,0.2739586352717958,nan
