timestamps,TP9,AF7,AF8,TP10,Right AUX
1740789325.2108786,-0.21213475766280251,-0.07003469158170743,-0.2963304701366469,-0.1604061531095596,nan
1740789325.2147844,-0.20846822028511308,-0.0638331823218297,-0.3020674214715639,-0.1649680288879703,nan
1740789325.2186904,-0.20284515792381388,-0.05921925464723843,-0.30555542092082993,-0.16748368831225918,nan
1740789325.2225962,-0.1953111424736318,-0.05614654815969412,-0.30676726291715745,-0.16795926625716875,nan
1740789325.226502,-0.1859320204736482,-0.05454717055375146,-0.3056990170432986,-0.16642257005269367,nan
1740789325.230408,-0.17479344646295134,-0.05433272225116321,-0.3023701963066263,-0.16292294594031992,nan
1740789325.2343137,-0.1620002091261795,-0.05539555582457295,-0.29682368947637067,-0.15753092155362203,nan
1740789325.2382195,-0.1476753554525423,-0.057610256094947764,-0.28912545712333826,-0.15033762655642485,nan
1740789325.2421253,-0.13195912023144651,-0.060835324393541626,-0.2793639933767404,-0.14145399585006005,nan
1740789325.2460313,-0.11500767024608512,-0.06491504825732602,-0.267649557775745,-0.13100976200728223,nan
1740789325.249937,-0.09699167448204293,-0.06968153580044308,-0.2541131839206502,-0.11915224578104736,nan
1740789325.2538428,-0.07809471352091826,-0.07495689219469334,-0.23890547389675165,-0.10604495564936431,nan
1740789325.2577524,-0.058511543019701136,-0.08055551411872948,-0.22219518963015372,-0.09186600937091564,nan
1740789325.2616584,-0.038446227766888066,-0.08628647671541914,-0.20416765441663923,-0.07680639241937756,nan
1740789325.2655642,-0.018110164239204904,-0.09195598654397782,-0.1850229798211937,-0.06106806991756565,nan
1740789325.26947,0.0022799891571567655,-0.09736987323971114,-0.1649741349567879,-0.044861970287344025,nan
1740789325.2733757,0.022504453903473616,-0.10233609210811324,-0.14424487679791864,-0.028405860250681748,nan
1740789325.2772818,0.0423425241113363,-0.106667209687567,-0.12306756165025669,-0.011922132046277166,nan
1740789325.2811875,0.06157478839288887,-0.11018284441869747,-0.10168085916711768,0.004364475248801675,nan
1740789325.2850933,0.07998535861004534,-0.11271203495821286,-0.08032739136319085,0.020229197593100663,nan
1740789325.2889993,0.09736408302684414,-0.11409550936763932,-0.05925131991452324,0.03544958776575292,nan
1740789325.292905,0.11350872138747839,-0.11418782938615117,-0.03869590564223956,0.04980785342402569,nan
1740789325.2968109,0.1282270596682588,-0.11285938525255011,-0.01890106444885949,0.06309316767766023,nan
1740789325.3007166,0.14133894270378686,-0.1099982180620332,-0.00010094410591930497,0.0751039285455831,nan
1740789325.3046257,0.15267820356269993,-0.10551164841371596,0.017478453822140208,0.0856499440207593,nan
1740789325.3085318,0.16209446944107064,-0.09932769210739482,0.03362158299001921,0.0945545200656247,nan
1740789325.3124375,0.1694548249441378,-0.0913962458625719,0.04812556888942765,0.10165642968888086,nan
1740789325.3163433,0.17464531492962804,-0.08169002843707196,0.060802310575760465,0.1068117423074838,nan
1740789325.3202493,0.17757227057661223,-0.0702052650922774,0.0714804460676156,0.10989549386596012,nan
1740789325.324155,0.1781634440087311,-0.05696210606093512,0.08000716126224221,0.11080317965724569,nan
1740789325.3280609,0.17636893862389716,-0.04200477249393902,0.08624982369508236,0.10945205345133244,nan
1740789325.3319669,0.17216192424704713,-0.025401426265653938,0.09009742414864062,0.10578221837465902,nan
1740789325.3358727,0.16553912830900241,-0.0072437629731019575,0.09146181096861448,0.09975749697670591,nan
1740789325.3397784,0.1565210964429906,0.012353669557588114,0.09027870395600332,0.09136607005184032,nan
1740789325.3436842,0.14515221815935542,0.033254421974845315,0.08650847685295625,0.08062087603330952,nan
1740789325.3475902,0.1315005155861723,0.05530135510319681,0.08013669970656287,0.06755976512064098,nan
1740789325.3514988,0.11565719562590591,0.07831810157116469,0.0711744347564811,0.05224540471874766,nan
1740789325.3554046,0.09773596825235246,0.10211076353519644,0.05965828192583057,0.03476493523281693,nan
1740789325.3593106,0.07787213603414607,0.1264698300399947,0.045650172476258015,0.015229377753438796,nan
1740789325.3632164,0.05622146229738507,0.15117229508393598,0.029236911892870546,-0.006227202343447334,nan
1740789325.3671222,0.03295882760678557,0.17598395517061052,0.010529475567856675,-0.029448769392203686,nan
1740789325.371028,0.008276686429276574,0.20066186304856876,-0.010337936671780313,-0.05425862012381837,nan
1740789325.374934,-0.017616662076474845,0.2249569124939431,-0.033209078721814576,-0.0804609037969504,nan
1740789325.3788397,-0.04449897324771539,0.2486165273950032,-0.057907058223712685,-0.10784234628445749,nan
1740789325.3827455,-0.07213610837885917,0.2713874270719365,-0.08423594538294349,-0.13617416250375142,nan
1740789325.3866515,-0.100284219111606,0.2930184387244949,-0.11198257538510185,-0.1652141395994851,nan
1740789325.3905573,-0.12869204395110298,0.3132633271569671,-0.14091852722846115,-0.1947088714703092,nan
1740789325.394463,-0.1571032948459636,0.3318836114937844,-0.1708022599721093,-0.22439612359679761,nan
1740789325.3983717,-0.18525911072315093,0.34865133847619073,-0.2013813857621975,-0.25400730569234475,nan
1740789325.4022775,-0.2129005540462241,0.36335178212407365,-0.23239505756222487,-0.2832700284783479,nan
1740789325.4061832,-0.23977112587692778,0.3757860400572008,-0.2635764482916436,-0.31191071989257535,nan
1740789325.4100893,-0.2656192745727524,0.3857734975934691,-0.2946552970833755,-0.3396572752865031,nan
1740789325.413995,-0.2902008731520093,0.3931541318718756,-0.3253604976158439,-0.3662417156623711,nan
1740789325.4179008,-0.313281640505615,0.39779062967516204,-0.3554227029672324,-0.39140282775021623,nan
1740789325.4218066,-0.3346394820312298,0.39957029433863184,-0.3845769211848852,-0.4148887597330791,nan
1740789325.4257126,-0.35406672590826016,0.39840671911195474,-0.4125650757644848,-0.4364595466964183,nan
1740789325.4296184,-0.37137223211663806,0.39424120657115425,-0.43913850549289685,-0.45588954040423396,nan
1740789325.4335241,-0.3863833524209043,0.3870439161373851,-0.4640603786236984,-0.4729697187858552,nan
1740789325.4374301,-0.3989477208842313,0.37681472442385366,-0.4871079971211773,-0.4875098515474245,nan
1740789325.441336,-0.40893485603273516,0.3635837859763813,-0.5080749677204661,-0.4993404995920686,nan
1740789325.445244,-0.4162375575444653,0.3474117849689939,-0.5267732177991196,-0.5083148274314212,nan
1740789325.4491498,-0.42077308227363464,0.32838987153375415,-0.5430348355274355,-0.5143102094849014,nan
1740789325.4530559,-0.422484086520886,0.3066392796130535,-0.5567137154473393,-0.5172296130764318,nan
1740789325.4569616,-0.42133932370469523,0.28231062649050837,-0.5676869925066607,-0.5170027430331107,nan
1740789325.4608674,-0.4173340889560054,0.25558289745064555,-0.575856249629274,-0.5135869350472164,nan
1740789325.4647734,-0.41049040462511543,0.22666212230427943,-0.5811484861119922,-0.5069677873603637,nan
1740789325.4686792,-0.4008569432327182,0.19577975376241025,-0.5835168364848985,-0.49715952284376275,nan
1740789325.472585,-0.3885086869910271,0.16319076081321057,-0.5829410319301422,-0.48420507615724073,nan
1740789325.476491,-0.3735463256406226,0.1291714533214887,-0.5794275989009935,-0.4681759033466189,nan
1740789325.4803967,-0.35609539696818265,0.09401705699595535,-0.5730097921931983,-0.4491715139583188,nan
1740789325.4843025,-0.33630517696339085,0.05803906062587964,-0.5637472623684989,-0.4273187284849148,nan
1740789325.4882083,-0.31434732911430513,0.02156236004612227,-0.5517254600894582,-0.4027706666789566,nan
1740789325.4921162,-0.2904143248035553,-0.015077774379393387,-0.5370547825689389,-0.3757054749578275,nan
1740789325.4960222,-0.2647176491279529,-0.0515388778863739,-0.5198694699402173,-0.3463248037428202,nan
1740789325.499928,-0.23748580869733435,-0.08747458837697655,-0.5003262618887779,-0.31485204810492307,nan
1740789325.5038338,-0.20896216005169413,-0.12253802824110885,-0.4786028273286665,-0.28153036750244914,nan
1740789325.5077398,-0.17940257924714179,-0.15638523755175118,-0.4548959822301422,-0.24662050266713834,nan
1740789325.5116456,-0.14907299488083442,-0.18867862438420882,-0.42941971288758635,-0.2103984098025035,nan
1740789325.5155513,-0.11824680833449044,-0.21909039747822617,-0.4024030239348784,-0.1731527341792397,nan
1740789325.519457,-0.08720222629886278,-0.24730594627767294,-0.37408763224873637,-0.13518214692740543,nan
1740789325.523363,-0.05621953168346836,-0.2730271335496813,-0.34472552950996604,-0.09679257031574569,nan
1740789325.527269,-0.025578319804918738,-0.29597546630481486,-0.31457643760075943,-0.05829431805887926,nan
1740789325.5311747,0.0044452727261603845,-0.3158951116098934,-0.28390518218834115,-0.019999178189420413,nan
1740789325.5350807,0.033581318742454555,-0.33255572509947007,-0.2529790107684271,0.01778253323690836,nan
1740789325.5389879,0.06156880322098442,-0.34575506154145097,-0.22206488210588574,0.054744918878277773,nan
1740789325.5428936,0.08815825057951616,-0.3553213386841809,-0.19142675440688575,0.09058941838441056,nan
1740789325.5467994,0.1131142497668344,-0.3611153277904934,-0.16132289968138802,0.1250276694206415,nan
1740789325.5507054,0.13621785118301521,-0.36303214672940504,-0.1320032716046795,0.15778428303560507,nan
1740789325.5546112,0.15726881056800712,-0.36100273422631995,-0.1037069537618741,0.18859950564363573,nan
1740789325.558517,0.1760876563543932,-0.3549949868425913,-0.07665971446287714,0.21723174084406746,nan
1740789325.562423,0.19251755858152475,-0.34501454343756277,-0.051071693352932546,0.24345990552043528,nan
1740789325.5663288,0.20642597929922626,-0.3311052052309165,-0.027135243823691788,0.2670855961427276,nan
1740789325.5702345,0.21770608643341915,-0.3133489830983116,-0.0050229537628525885,0.2879350429223527,nan
1740789325.5741405,0.22627791532455915,-0.29186576736518144,0.015114134519879831,0.30586083142687737,nan
1740789325.5780463,0.23208926456210377,-0.26681261907722625,0.033148086270658926,0.3207433734321443,nan
1740789325.581952,0.23511631530156726,-0.23838268548528374,0.04897540137078365,0.332492111152982,nan
1740789325.585859,0.23536396594087536,-0.20680374625007159,0.06251809201186695,0.3410464415284169,nan
1740789325.589765,0.23286587682403231,-0.17233640061147978,0.07372449891571199,0.34637634991922617,nan
1740789325.5936708,0.2276842225057194,-0.13527190944039263,0.08256983663587925,0.348482745379478,nan
1740789325.5975766,0.21990915202242153,-0.09592970966151078,0.08905646117472132,0.3473974925624791,nan
1740789325.6014826,0.2096579605457935,-0.05465462196713207,0.09321385592888425,0.3431831382875977,nan
1740789325.6053884,0.19707397871325202,-0.011813775999276566,0.0950983348105314,0.33593233379893644,nan
1740789325.6092942,0.18232518881030194,0.03220671977280431,0.09479246425291037,0.32576695676061435,nan
1740789325.6132,0.16560257979014686,0.07700533344272512,0.09240420866898891,0.31283694002684653,nan
1740789325.617106,0.1471182558303934,0.12216885774701523,0.08806580676215774,0.29731881716877123,nan
1740789325.6210117,0.1271033157165436,0.1672763160137315,0.08193238886006188,0.27941399760461555,nan
1740789325.6249175,0.10580552278095509,0.21190298923594295,0.07418034812846414,0.25934678693685986,nan
1740789325.6288235,0.08348678738877806,0.2556245259472902,0.06500548109449236,0.2373621707217347,nan
1740789325.6327329,0.060420486025296115,0.2980210953594776,0.05462091534119487,0.2137233823560485,nan
1740789325.6366389,0.036888642880196686,0.3386815433811285,0.04325484450310377,0.18870927803879056,nan
1740789325.6405447,0.013179001423536622,0.37720751068541075,0.031148092771792476,0.16261154382666282,nan
1740789325.6444504,-0.010417985192032679,0.4132174719382229,0.018551532989412013,0.13573176163201656,nan
1740789325.6483564,-0.033612215003351674,0.4463506556435158,0.005723384046920852,0.1083783625890854,nan
1740789325.6522622,-0.05611701870642725,0.4762708048076936,-0.007073585305497465,0.08086349752273254,nan
1740789325.656168,-0.07765223056738162,0.5026697397673531,-0.019574918000997032,0.05349985527849738,nan
1740789325.6600738,-0.09794721744360452,0.5252706860562304,-0.03151736646569448,0.0265974604015331,nan
1740789325.6639798,-0.11674383471853805,0.5438313320966399,-0.042641797044944973,0.00046048207582755573,nan
1740789325.6678855,-0.1337992783984317,0.5581465837728026,-0.052696071125354786,-0.024615913652342326,nan
1740789325.6717913,-0.1488888033731888,0.5680509855592576,-0.0614378730598342,-0.04834863654486371,nan
1740789325.6756973,-0.16180827890120192,0.5734207808147882,-0.06863745533151523,-0.07046963843117522,nan
1740789325.6796064,-0.1723765537322178,0.5741755870852335,-0.07408027202003586,-0.09072874258064327,nan
1740789325.6835124,-0.1804376049220431,0.5702796657585015,-0.07756947255632665,-0.10889630684722153,nan
1740789325.6874182,-0.18586244630477128,0.5617427691504537,-0.0789282289623848,-0.12476569267831163,nan
1740789325.691324,-0.1885507747558513,0.5486205520370546,-0.0780018712607127,-0.13815551379795085,nan
1740789325.69523,-0.18843233478384755,0.5310145387498569,-0.07465980749119683,-0.14891164036354906,nan
1740789325.6991358,-0.1854679846086778,0.5090716411804048,-0.06879720677575012,-0.1569089366380402,nan
1740789325.7030416,-0.17965044969589697,0.4829832273546641,-0.06033642610496983,-0.16205271269545168,nan
1740789325.7069476,-0.17100475269443355,0.4529837446002281,-0.04922816396584972,-0.16427987336520303,nan
1740789325.7108533,-0.15958831184154174,0.4193489056951031,-0.03545232656261745,-0.16355975049428562,nan
1740789325.714759,-0.14549070312451975,0.3823934507152474,-0.019018595179324475,-0.15989460764030175,nan
1740789325.718665,-0.1288330847934441,0.3424685015466625,3.331383362594313e-05,-0.1533198094737834,nan
1740789325.722571,-0.10976728617143602,0.29995853015506624,0.021633701924103833,-0.14390365143554557,nan
1740789325.7264795,-0.08847456607648316,0.2552779656711366,0.04568325640672286,-0.13174684853293883,nan
1740789325.7303855,-0.06516404951910543,0.2088674691124897,0.07205373291579555,-0.11698168553595156,nan
1740789325.7342913,-0.04007085464033028,0.1611899080868263,0.10058894823285107,-0.09977083421754224,nan
1740789325.738197,-0.013453925072059902,0.11272606706815619,0.131106076300948,-0.0803058466395814,nan
1740789325.7421029,0.014406413995073681,0.06397013177589041,0.16339723710444348,-0.0588053367834852,nan
1740789325.7460089,0.043211154794094195,0.015424988784013032,0.19723136503479988,-0.035512866030548616,nan
1740789325.7499146,0.07264553699072131,-0.03240261628356989,0.23235634041115819,-0.010694551079271333,nan
1740789325.7538204,0.10238218211874513,-0.07900701677972326,0.2685013650087927,0.015363584185321967,nan
1740789325.7577264,0.13208440349614267,-0.12388861266968634,0.30537955979796594,0.04235848861188881,nan
1740789325.7616322,0.16140966058757342,-0.1665588601728768,0.34269076063760123,0.06997316870288527,nan
1740789325.765538,0.19001312496924672,-0.20654521526367536,0.3801244854283427,0.09787994945247339,nan
1740789325.769444,0.21755132354202197,-0.24339598279394556,0.4173630442318657,0.12574387999048073,nan
1740789325.7733524,0.24368582344544176,-0.2766850233694076,0.4540847621293854,0.15322625117572578,nan
1740789325.7772582,0.2680869222639909,-0.30601627094151956,0.489967283141422,0.17998819084116333,nan
1740789325.7811642,0.2904373065988306,-0.3310280153625514,0.524690922379835,0.2056943012729519,nan
1740789325.78507,0.3104356419121259,-0.35139690588604544,0.557942032765631,0.23001630271944432,nan
1740789325.7889757,0.32780005674203627,-0.3668416337655064,0.5894163521332376,0.2526366462846529,nan
1740789325.7928815,0.34227148493635345,-0.37712625469440425,0.6188222963615907,0.2732520594713133,nan
1740789325.7967875,0.3536168304601189,-0.38206311481971494,0.6458841643292818,0.291576987905195,nan
1740789325.8006933,0.36163192059233784,-0.3815153474246662,0.6703452209867116,0.3073468973955145,nan
1740789325.804599,0.3661442149308884,-0.3753989110857414,0.6919706256708785,0.3203214014632721,nan
1740789325.808505,0.36701523956105303,-0.36368414413251154,0.7105501739531335,0.3302871807940473,nan
1740789325.8124108,0.3641427179969749,-0.3463968145413599,0.7259008227986319,0.3370606627345759,nan
1740789325.8163166,0.3574623730585988,-0.3236186489377855,0.737868970616924,0.3404904309405687,nan
1740789325.820225,0.3469493766781812,-0.29548732912601616,0.7463324658814786,0.3404593375806125,nan
1740789325.8241308,0.3326194277163818,-0.2621959494664675,0.7512023203745062,0.3368862930885748,nan
1740789325.8280365,0.314529441181686,-0.22399193343647364,0.7524241057517158,0.3297277113126541,nan
1740789325.8319426,0.29277783575951816,-0.18117541279169713,0.7499790149966505,0.3189785910083617,nan
1740789325.8358483,0.26750441023781923,-0.13409707784763253,0.7438845734204098,0.3046732179380388,nan
1740789325.839754,0.23888980323110198,-0.08315551247510147,0.7341949871321248,0.28688547534145775,nan
1740789325.8436599,0.20715453452052512,-0.028794032402801713,0.7210011203287932,0.26572875419912045,nan
1740789325.847566,0.17255763030756255,0.0285029497035193,0.7044300962984343,0.24135545848875112,nan
1740789325.8514717,0.13539483868662652,0.08821400420854507,0.6846445206651719,0.21395610450151853,nan
1740789325.8553774,0.0959964456401921,0.1497851768523873,0.6618413290946499,0.18375801720189272,nan
1740789325.8592834,0.05472470581097413,0.21263485657014952,0.6362502653883514,0.15102363054714588,nan
1740789325.8631892,0.011970906171968106,0.276158977949541,0.6081319995904682,0.11604840259232867,nan
1740789325.8671,-0.03184791554034055,0.33973651389608545,0.57777589937552,0.07915836005691662,nan
1740789325.8710058,-0.07629257217790456,0.40273521085745917,0.5454974715435513,0.04070729078338337,nan
1740789325.8749115,-0.12090561947334269,0.46451751614976594,0.5116354938875972,0.0010736061393576593,nan
1740789325.8788176,-0.16521550726142092,0.5244466445586914,0.47654886098125315,-0.039343101131576026,nan
1740789325.8827233,-0.20874095471136855,0.5818927294833702,0.4406131705297515,-0.08012577485403653,nan
1740789325.886629,-0.25099551203285575,0.6362390024721941,0.40421707980462535,-0.12084385738684557,nan
1740789325.890535,-0.29149226881575924,0.6868879440850906,0.36775846431030346,-0.16105746108614952,nan
1740789325.894441,-0.32974866720185136,0.7332673486188954,0.33164041318336807,-0.20032171228287182,nan
1740789325.8983467,-0.3652913764871551,0.7748362453595469,0.29626709787668,-0.23819122865298492,nan
1740789325.9022527,-0.39766118453550564,0.8110906196803939,0.2620395524086409,-0.2742246890628361,nan
1740789325.9061584,-0.4264178605622111,0.8415688784884955,0.22935140484293023,-0.3079894535381016,nan
1740789325.9100642,-0.4511449434333836,0.8658570062241218,0.19858460068958633,-0.33906618995075216,nan
1740789325.9139714,-0.4714544096297194,0.8835933598317139,0.17010515957095165,-0.36705346335725325,nan
1740789325.9178774,-0.4869911754475959,0.894473053827234,0.14425900676584394,-0.39157224366311083,nan
1740789325.9217832,-0.4974373888559816,0.898251889766916,0.12136792112595374,-0.4122702874400815,nan
1740789325.925689,-0.5025164676914745,0.8947497880505475,0.10172564034696466,-0.42882635028566257,nan
1740789325.929595,-0.5019968425487426,0.8838536840394912,0.08559416367414209,-0.44095418708852324,nan
1740789325.9335008,-0.49569536479873877,0.86551985490223,0.0732002908325353,-0.4484062989435108,nan
1740789325.9374065,-0.48348034262761597,0.8397756483811138,0.06473243430357148,-0.45097738723696845,nan
1740789325.9413126,-0.4652741708169635,0.80672058976267,0.06033774003444271,-0.44850747758482046,nan
1740789325.9452183,-0.44105552315890484,0.766526848686581,0.06011954927946272,-0.4408846788361629,nan
1740789325.949124,-0.410861079892639,0.7194390529987684,0.06413523155211592,-0.4280475452342955,nan
1740789325.9530299,-0.37478676633378166,0.665773442593302,0.07239441563473897,-0.4099870130321961,nan
1740789325.956936,-0.3329884829132497,0.6059163620453816,0.08485764227453746,-0.3867478863642874,nan
1740789325.9608428,-0.28568231111447245,0.5403220967613716,0.10143545861783329,-0.3584298509517742,nan
1740789325.9647486,-0.2331441842603819,0.4695100633088564,0.1219879706293837,-0.3251879982330459,nan
1740789325.9686546,-0.1757090167165698,0.3940613704863383,0.14632486574322673,-0.2872328467293401,nan
1740789325.9725604,-0.11376928980434539,0.31461477349505057,0.1742059138305491,-0.24482985184265824,nan
1740789325.9764662,-0.047773097515982514,0.23186204923144493,0.20534195028527033,-0.19829839979954517,nan
1740789325.980372,0.021778340048218544,0.14654282617605993,0.23939634065744186,-0.14801028606108318,nan
1740789325.984278,0.09433368278797039,0.05943890756224137,0.27598692184738416,-0.09438768317543361,nan
1740789325.9881837,0.16929497876676902,-0.02863186858224097,0.314688410449665,-0.03790060771286387,nan
1740789325.9920895,0.2460216522857102,-0.11682218436245251,0.3550352644459454,0.020936099447601244,nan
1740789325.9959955,0.3238349452077908,-0.20426215957698762,0.3965249801296938,0.0815662606580362,nan
1740789325.9999013,0.4020227805431844,-0.2900665758276315,0.4386218019438533,0.143396293611511,nan
1740789326.003807,0.47984501320000755,-0.37334234780941206,0.48076081886405847,0.20579956048999942,nan
1740789326.007717,0.5565390289617191,-0.45319617962597036,0.5223524171031103,0.2681211025416459,nan
1740789326.0116227,0.6313256492078384,-0.5287423417147729,0.5627870552839676,0.32968272463925724,nan
1740789326.0155284,0.7034152956832262,-0.5991105022563094,0.6014403248634993,0.38978839080613414,nan
1740789326.0194345,0.7720143667741627,-0.6634535458001373,0.637678255520507,0.4477298884375464,nan
1740789326.0233402,0.8363317742951235,-0.7209553112826497,0.6708628224795996,0.5027927160281042,nan
1740789326.027246,0.8955855877537282,-0.770838181645719,0.7003576103550629,0.5542621466659543,nan
1740789326.031152,0.9490097314642693,-0.8123704578956611,0.7255335860906976,0.6014294173999963,nan
1740789326.0350578,0.9958606787404681,-0.8448734516667158,0.7457749319641772,0.6435979928486895,nan
1740789326.0389636,1.0354240867295053,-0.8677282321656338,0.7604848884358901,0.6800898501175423,nan
1740789326.0428696,1.0670213152618675,-0.8803819657617016,0.7690915558668638,0.710251731242142,nan
1740789326.0467753,1.090015773390776,-0.8823537894324663,0.771053603818836,0.7334613089860076,nan
1740789326.050681,1.1038190380824253,-0.8732401627569208,0.7658658367886163,0.7491332119047721,nan
1740789326.0545905,1.1078966907910588,-0.8527196471377936,0.7530645658211481,0.7567248551434571,nan
1740789326.0584962,1.101773819403961,-0.8205570654008473,0.7322327364899566,0.7557420244607354,nan
1740789326.0624022,1.0850401352593066,-0.7766069998252827,0.7030047652244155,0.7457441624678961,nan
1740789326.066308,1.0573546576090307,-0.7208165919650842,0.6650710378911228,0.7263493080213193,nan
1740789326.0702138,1.01844992099968,-0.6532276132821272,0.6181820268882445,0.6972386421020046,nan
1740789326.0741196,0.9681356645532561,-0.5739777815805367,0.5621519857695966,0.6581605963367109,nan
1740789326.0780256,0.9063019660199246,-0.48330130445756236,0.49686218355856665,0.6089344835409265,nan
1740789326.0819314,0.8329217877145606,-0.3815286374160603,0.42226364441602277,0.5494536132692357,nan
1740789326.0858371,0.748052906005276,-0.2690854508623928,0.33837936216319753,0.47968785931500246,nan
1740789326.0897431,0.6518392008575123,-0.1464908068844793,0.24530596329898358,0.39968565037666853,nan
1740789326.093649,0.5445112870122736,-0.014354553410097361,0.14321479655721747,0.30957535966768035,nan
1740789326.0975547,0.4263864736496684,0.12662604997302682,0.032352431686578746,0.209566074053256,nan
1740789326.1014633,0.2978680448153758,0.2756704536546175,-0.0869594450349568,0.09994772831015027,nan
1740789326.1053693,0.15944385842221095,0.4319196597570359,-0.2143247460586664,-0.0189094047169368,nan
1740789326.109275,0.011684267235260065,0.5944417504066071,-0.3492743110147218,-0.14655587199018869,nan
1740789326.1131809,-0.14476062914063004,0.7622380629100208,-0.49126784561635806,-0.2824648447382781,nan
1740789326.117087,-0.30916438667558804,0.9342499665211274,-0.6396964631065469,-0.4260345626498623,nan
1740789326.1209927,-0.48072825364112687,1.1093661901366432,-0.793885815183859,-0.5765914055620847,nan
1740789326.1248984,-0.6585858161914191,1.2864306453171725,-0.9530997942620253,-0.7333935750800423,nan
1740789326.1288044,-0.8418082221516828,1.464250684537175,-1.1165447839492566,-0.8956353633471449,nan
1740789326.1327102,-1.029409947395436,1.6416057305648077,-1.2833744298225171,-1.0624519811247701,nan
1740789326.136616,-1.2203550644858892,1.8172562093965943,-1.4526948979613745,-1.2329249124770127,nan
1740789326.1405218,-1.4135639688556174,1.989952716254773,-1.6235705843369965,-1.4060877587354397,nan
1740789326.1444278,-1.6079205137418529,2.1584453418242604,-1.7950302340635078,-1.5809325300805401,nan
1740789326.1483362,-1.8022795014184783,2.321493084183713,-1.96607342574843,-1.7564163390596224,nan
1740789326.152242,-1.9954744750030808,2.4778732707882662,-2.1356773727605898,-1.9314684467013505,nan
1740789326.156148,-2.18632575229789,2.6263909144016893,-2.3028039901993056,-2.1049976086179836,nan
1740789326.1600537,-2.3736486407730557,2.7658879270590204,-2.466407173726117,-2.2758996656375645,nan
1740789326.1639595,-2.5562617709414743,2.895252116967726,-2.62544023423466,-2.4430653211061086,nan
1740789326.1678653,-2.7329954840241517,3.013425894720774,-2.778863430606668,-2.605388045066906,nan
1740789326.1717713,-2.902700208977543,3.1194146172880792,-2.92565154154976,-2.761772044078884,nan
1740789326.175677,-3.0642547636584254,3.212294500957199,-3.0648014167487716,-2.9111402344931467,nan
1740789326.1795828,-3.2165745151424985,3.291220037688373,-3.1953394472960013,-3.0524421565764297,nan
1740789326.1834888,-3.358619334989856,3.3554308532060095,-3.3163288956014556,-3.1846617669581194,nan
1740789326.1873946,-3.489401286559429,3.404257949536949,-3.4268770257224137,-3.3068250474849727,nan
1740789326.1913004,-3.60799198330618,3.4371292795885107,-3.5261419762883235,-3.418007369691714,nan
1740789326.1952083,-3.7135295593357225,3.453574606695803,-3.6133393199239214,-3.517340555728602,nan
1740789326.1991143,-3.8052251963231822,3.453229607812969,-3.6877482552777163,-3.604019578716899,nan
1740789326.20302,-3.8823691542041514,3.4358391851285064,-3.748717380428023,-3.6773088481137504,nan
1740789326.2069259,-3.9443362567893328,3.4012599572987625,-3.795669999543442,-3.736548028738579,nan
1740789326.2108319,-3.9905907876108673,3.349461908161622,-3.8281089181945367,-3.7811573456196106,nan
1740789326.2147377,-4.0206907558433365,3.2805291776575225,-3.84562068661981,-3.810642330732941,nan
1740789326.2186434,-4.034291497019499,3.194659986688649,-3.8478792545103513,-3.8245979719960315,nan
1740789326.2225494,-4.0311485784394865,3.092165694729671,-3.8346490054583935,-3.822712229507527,nan
1740789326.2264552,-4.0111199846100964,2.973468996104035,-3.805787144077945,-3.8047688889575215,nan
1740789326.230361,-3.9741675637029243,2.8391012678978993,-3.761245413909942,-3.7706497273264485,nan
1740789326.2342668,-3.9203577218395185,2.689699089438818,-3.7010711295276284,-3.7203359714030384,nan
1740789326.2381728,-3.849861357950249,2.525999960058558,-3.6254075117156503,-3.653909035237739,nan
1740789326.2420805,-3.7629530379618013,2.348837248430919,-3.534493320162719,-3.5715505283606443,nan
1740789326.2459862,-3.6600094130958043,2.159134413069637,-3.4286617837359388,-3.473541532384811,nan
1740789326.2498922,-3.5415068930582714,1.9578985395345556,-3.3083388340473965,-3.3602611494381804,nan
1740789326.253798,-3.4080185908156633,1.7462132454752193,-3.1740406536327,-3.232184331671627,nan
1740789326.2577038,-3.2602105614395454,1.5252310097920807,-3.0263705555893874,-3.0898790068278443,nan
1740789326.2616098,-3.098837363109228,1.2961649868727128,-2.866015216923456,-2.934002520478083,nan
1740789326.2655156,-2.9247369737439284,1.0602803710238766,-2.6937402930791077,-2.7652974209935817,nan
1740789326.2694213,-2.738825101847727,0.8188853798346728,-2.5103854461354524,-2.58458661857029,nan
1740789326.273327,-2.5420889349491613,0.5733219282407065,-2.316858823902,-2.392767954624808,nan
1740789326.2772331,-2.335580373462949,0.3249560674887177,-2.1141310315917616,-2.190808222584607,nan
1740789326.281139,-2.1204088018566623,0.07516826500520744,-1.9032286418589206,-1.9797366854668184,nan
1740789326.2850447,-1.897733452636768,-0.1746563976635444,-1.6852272927222645,-1.7606381396407909,nan
1740789326.288952,-1.6687554218460265,-0.4231380311582131,-1.4612444262242,-1.534645577766507,nan
1740789326.292858,-1.4347093974615632,-0.6689116713165785,-1.2324317235698898,-1.3029325070639566,nan
1740789326.2967637,-1.1968551642779337,-0.9106368621330625,-0.9999672949271652,-1.0667049817713072,nan
1740789326.3006697,-0.9564689505341949,-1.147007013345952,-0.7650476840248976,-0.8271934108697504,nan
1740789326.3045754,-0.7148346826849802,-1.3767584593925695,-0.5288797491487709,-0.5856442038721046,nan
1740789326.3084812,-0.4732352153139903,-1.598679149145313,-0.29267248308665267,-0.3433113186765209,nan
1740789326.3123872,-0.2329436032397399,-1.8116168991008386,-0.05762883501314619,-0.10144777616650516,nan
1740789326.316293,0.004785517631629202,-2.014487146511333,0.17506240277914203,0.13870279361123591,nan
1740789326.3201988,0.23872437518829595,-2.2062801432869246,0.40423458099452375,0.3759145092393738,nan
1740789326.3241045,0.46768026777984756,-2.3860675363232047,0.6287509911016609,0.6089874361471506,nan
1740789326.3280106,0.6905034708062905,-2.553008285174994,0.8475124151763581,0.836755563129987,nan
1740789326.3319163,0.9060947839515651,-2.706353873660318,1.0594643703481053,1.058094496977767,nan
1740789326.3358262,1.1134126628465937,-2.845452777987478,1.2636039929548764,1.2719288174342889,nan
1740789326.339732,1.3114798824593585,-2.969754160300203,1.4589865105350863,1.477239037593018,nan
1740789326.343638,1.4993896834415033,-3.07881076307619,1.6447312532320435,1.6730681181582154,nan
1740789326.3475437,1.6763113569784882,-3.1722809865357715,1.8200271600249132,1.858527487736801,nan
1740789326.3514495,1.8414952283562824,-3.249930138061446,1.9841377393980106,2.032802525442561,nan
1740789326.3553555,1.99427700443188,-3.31163084953629,2.136405448580994,2.195157466554984,nan
1740789326.3592613,2.13408145543502,-3.3573626654199256,2.276255460297342,2.3449396967417426,nan
1740789326.363167,2.2604254069896927,-3.3872108112351804,2.4031987910061288,2.4815834053856447,nan
1740789326.367073,2.3729200238797885,-3.401364158877894,2.516834769869236,2.604612573810727,nan
1740789326.3709788,2.471272372845911,-3.4001124117286694,2.6168528330779397,2.7136432796332617,nan
1740789326.3748846,2.555286257541004,-3.383842538882754,2.7030336336830407,2.8083853040254225,nan
1740789326.3787904,2.624862324641928,-3.353034493868702,2.7752494626444904,2.8886430343250895,nan
1740789326.3827,2.67999744596309,-3.3082562589469506,2.833463982402366,2.95431566010708,nan
1740789326.386606,2.720783387197568,-3.250158261417692,2.8777312798236667,3.005396666500778,nan
1740789326.3905118,2.747404779572863,-3.1794672132790733,2.908194250851816,3.0419726341493742,nan
1740789326.3944175,2.760136416205225,-3.0969794300209896,2.92508233453174,3.0642213607094457,nan
1740789326.3983235,2.7593399002230834,-3.003553688280351,2.928708619258058,3.0724093241407764,nan
1740789326.4022293,2.7454596767629686,-2.900103685488782,2.919466349053942,3.0668885131905075,nan
1740789326.406135,2.7190184856792796,-2.7875901674864085,2.897824862392224,3.0480926553905725,nan
1740789326.4100409,2.6806122762139446,-2.6670127923337335,2.8643250004794094,3.0165328775224225,nan
1740789326.4139469,2.630904628907983,-2.5394018002110217,2.8195740260010465,2.972792837820764,nan
1740789326.4178526,2.570620733672117,-2.4058095603398395,2.7642400970401266,2.917523373153308,nan
1740789326.4217584,2.500540976139363,-2.2673020662885817,2.6990463441987727,2.8514367079949428,nan
1740789326.4256644,2.421494187174319,-2.1249504508326877,2.624764601850989,2.7753002751839526,nan
1740789326.4295738,2.3343506126908253,-1.9798225907359308,2.542208846907775,2.6899302011803368,nan
1740789326.4334795,2.240014662715457,-1.8329748704122226,2.4522284004668475,2.59618451082149,nan
1740789326.4373856,2.139417499916589,-1.685444171433622,2.3557009492326357,2.494956108371588,nan
1740789326.4412913,2.0335095285897418,-1.5382401522906717,2.253525444617691,2.3871655929757885,nan
1740789326.445197,1.9232528453462834,-1.392337879711674,2.146614937967982,2.2737539674505185,nan
1740789326.4491029,1.809613712495277,-1.2486708692385609,2.0358894103896534,2.1556752996628052,nan
1740789326.453009,1.6935551143428842,-1.1081245886736282,1.9222686551963315,2.0338893955753146,nan
1740789326.4569147,1.5760294553701166,-0.9715304734924399,1.8066652700504395,1.9093545423643115,nan
1740789326.4608204,1.4579714575018938,-0.8396604984063274,1.689977814450322,1.7830203788640098,nan
1740789326.4647264,1.340291311466547,-0.7132223439990942,1.5730841863321303,1.6558209489660551,nan
1740789326.4686322,1.2238681345872189,-0.5928551918053977,1.4568352692304627,1.528667991524289,nan
1740789326.472538,1.1095437842708114,-0.47912617539409164,1.3420488986972512,1.4024445178033493,nan
1740789326.4764469,0.9981170729955627,-0.37252750902159004,1.2295041935408142,1.2779987245899638,nan
1740789326.4803526,0.8903384267773928,-0.2734743092825919,1.1199362939456363,1.1561382877856643,nan
1740789326.4842587,0.7869050249532877,-0.18230311896374854,1.0140315447012072,1.0376250776506144,nan
1740789326.4881644,0.6884564546949709,-0.0992711360559279,0.9124231576401527,0.923170332903934,nan
1740789326.4920702,0.5955709089981995,-0.02455614465854357,0.8156873829998881,0.8134303266431273,nan
1740789326.4959762,0.508761952024117,0.04174286162986765,0.7243402148177308,0.7090025525625017,nan
1740789326.499882,0.4284758706426331,0.09960437924276141,0.6388346506883373,0.6104224552683959,nan
1740789326.5037878,0.35508962588836623,0.149082438318663,0.5595585212972699,0.5181607236496495,nan
1740789326.5076935,0.28890941283242666,0.19030401730840701,0.4868329001391272,0.43262116130807043,nan
1740789326.5115995,0.23016983214371164,0.2234658605921199,0.4209110987772256,0.3541391430295356,nan
1740789326.5155053,0.1790336714068879,0.24883073613105494,0.3619782479487393,0.28298066122585763,nan
1740789326.519411,0.13559228912551466,0.2667231747531463,0.31015145980850684,0.2193419612446719,nan
1740789326.5233197,0.09986658931193254,0.27752473683075574,0.2654805616800113,0.16334975947292407,nan
1740789326.5272257,0.07180856969305908,0.2816688558202575,0.22794938688569785,0.11506203329166628,nan
1740789326.5311315,0.05130342188416836,0.27963531136567155,0.19747760360184358,0.07446936721734558,nan
1740789326.5350373,0.038172157439987156,0.2719443873970937,0.17392305826504556,0.041496835027347696,nan
1740789326.5389433,0.0321747295205681,0.25915077285823634,0.15708460588506154,0.016006393353245715,nan
1740789326.542849,0.033013616042431755,0.2418372643601019,0.14670539572713215,-0.002200241830401845,nan
1740789326.5467548,0.040337826654265406,0.2206083311687922,0.14247657724798704,-0.013378268157621106,nan
1740789326.5506606,0.053747292708977636,0.19608360348878517,0.1440413879325711,-0.01783605504056505,nan
1740789326.5545666,0.07279759662433287,0.16889134499803557,0.15099958180892942,-0.015931025927057363,nan
1740789326.5584724,0.09700499465365149,0.13966197003233008,0.16291215493904582,-0.008065206235476316,nan
1740789326.5623782,0.1258516851430428,0.10902166471280719,0.17930632211242234,0.005319519117810376,nan
1740789326.5662842,0.15879127284542377,0.0775861696767788,0.19968069732188598,0.02374639276757555,nan
1740789326.5701923,0.19525437880335997,0.045954779926953286,0.22351062938845503,0.04670896920189616,nan
1740789326.574098,0.23465434470742982,0.014704614681525318,0.2502536433313473,0.07367644793330448,nan
1740789326.578004,0.276392980485574,-0.015614792984844321,0.2793549377533654,0.10409910653160108,nan
1740789326.58191,0.31986630417846623,-0.04448654043934422,0.31025288863012146,0.1374137843260774,nan
1740789326.5858157,0.3644702238995475,-0.07143099137126024,0.34238451044900414,0.17304936783568475,nan
1740789326.5897214,0.40960611285487525,-0.09600996516242329,0.3751908266315954,0.210432229665437,nan
1740789326.5936272,0.4546862299928848,-0.11783044623299477,0.40812210257898374,0.24899157370576497,nan
1740789326.5975332,0.4991389408490762,-0.13654778469128068,0.4406428964866797,0.28816464097453454,nan
1740789326.601439,0.5424136955240091,-0.15186836467980452,0.4722368852650921,0.32740173233142034,nan
1740789326.6053448,0.5839857234598256,-0.16355172204492585,0.5024114254495426,0.366171006550461,nan
1740789326.6092508,0.6233604077330595,-0.1714120983142924,0.5307018118647147,0.4039630148349145,nan
1740789326.6131566,0.6600773049292271,-0.1753194233948042,0.5566751999931561,0.44029493577206485,nan
1740789326.6170645,0.6937137802748176,-0.17519972485280683,0.5799341614547618,0.4747144779250996,nan
1740789326.6209702,0.7238882315397661,-0.17103496705733345,0.6001198457002743,0.5068034207126558,nan
1740789326.6248763,0.7502628792518605,-0.16286232880630502,0.6169147249213217,0.5361807679005176,nan
1740789326.628782,0.7725461049455347,-0.1507729332658044,0.6300449032451787,0.5625054918886792,nan
1740789326.6326878,0.790494323462285,-0.13491004908647677,0.6392819754760735,0.58547885098385,nan
1740789326.6365938,0.803913379688646,-0.11546678637327501,0.6444444249271584,0.604846265964652,nan
1740789326.6404996,0.8126594645203322,-0.0926833157321769,0.645398554218666,0.6203987464358297,nan
1740789326.6444054,0.816639549237788,-0.06684364285978028,0.6420589472584167,0.6319738616900081,nan
1740789326.6483111,0.8158113418294605,-0.03827197504163704,0.6343884649311089,0.6394562550122594,nan
1740789326.6522171,0.8101827730658673,-0.007328719449083964,0.6223977812638453,0.642777704535696,nan
1740789326.656123,0.7998110242723202,0.025593843757932586,0.6061444709689867,0.6419167378480594,nan
1740789326.6600287,0.7848011127348623,0.060076167828893634,0.5857316632549562,0.6368978115233785,nan
1740789326.6639361,0.7653040544681077,0.0956762773968685,0.5613062806059738,0.62779007057433,nan
1740789326.667842,0.7415146276429968,0.1319347883438552,0.5330568848295578,0.6147057064566586,nan
1740789326.6717477,0.7136687632869751,0.1683800585965324,0.5012111560251384,0.597797935675765,nan
1740789326.6756535,0.6820405929014444,0.20453341810846137,0.4660330332096497,0.5772586242183859,nan
1740789326.6795595,0.6469391853669431,0.2399144259979128,0.4278195481208568,0.553315585932826,nan
1740789326.6834652,0.608705007903982,0.27404610301883453,0.3868973861835179,0.52622958558584,nan
1740789326.687371,0.5677061479083891,0.3064600882404625,0.34361921074764123,0.4962910796123631,nan
1740789326.691277,0.5243343341695852,0.3367016699883299,0.2983597884757062,0.4638167295282897,nan
1740789326.6951828,0.47900079729681927,0.3643346427414646,0.25151195515373914,0.4291457245821468,nan
1740789326.6990886,0.4321320101141803,0.38894594376826025,0.20348246222025276,0.3926359514678848,nan
1740789326.7029946,0.38416534933567664,0.4101500257940548,0.15468774494125254,0.35466004980059834,nan
1740789326.7069004,0.3355447199961493,0.42759292489985606,0.10554965340670314,0.315601392565799,nan
1740789326.7108102,0.2867161838949043,0.44095598612369663,0.056491187385243405,0.2758500308903745,nan
1740789326.714716,0.2381236327130249,0.4499592128400423,0.007932275554541408,0.23579864225241925,nan
1740789326.718622,0.19020454550200297,0.45436420989210213,-0.03971436126710466,0.1958385206541369,nan
1740789326.7225277,0.14338586892356095,0.45397669460761136,-0.0860472245147671,0.15635564633649415,nan
1740789326.7264335,0.09808005696441977,0.4486485541995768,-0.13067989312127423,0.11772687132913315,nan
1740789326.7303395,0.05468130487439004,0.4382794325964439,-0.17324468476215923,0.08031625552005867,nan
1740789326.7342453,0.013562009803300613,0.4228178344169823,-0.21339609048312144,0.044471586015445666,nan
1740789326.738151,-0.02493051193362239,0.4022617385584448,-0.2508139526063177,0.010521110362096978,nan
1740789326.742057,-0.06047702382469704,0.37665871865667394,-0.2852063585827236,-0.021229488252765417,nan
1740789326.7459629,-0.09278906023792333,0.34610557245783574,-0.31631222645683144,-0.05049984840136299,nan
1740789326.7498686,-0.12161128867469262,0.3107474668680355,-0.3439035608069189,-0.07703739788954972,nan
1740789326.7537744,-0.14672352562441407,0.27077661007456055,-0.36778736138715684,-0.10061951185398348,nan
1740789326.757684,-0.16794239191894805,0.22643046661748592,-0.38780717019382765,-0.12105534525036718,nan
1740789326.7615898,-0.18512259705004325,0.17798953559115419,-0.4038442462728037,-0.1381873268335624,nan
1740789326.7654958,-0.1981578455317666,0.12577471623182052,-0.41581836124443167,-0.15189230514376287,nan
1740789326.7694016,-0.20698136202881362,0.07014428896316979,-0.42368821221008046,-0.16208234047361023,nan
1740789326.7733073,-0.21156603559625464,0.011490543490820893,-0.42745145238674775,-0.1687051402659508,nan
1740789326.777213,-0.21192418695304005,-0.04976391127125786,-0.427144343457684,-0.1717441388476504,nan
1740789326.781119,-0.20810696620730743,-0.11317011782364043,-0.4228410371938841,-0.17121822580898266,nan
1740789326.785025,-0.2002033918344943,-0.17825698117961966,-0.41465249736061743,-0.16718113065872425,nan
1740789326.7889307,-0.18833904494877726,-0.24453567831104903,-0.4027250762430381,-0.15972047459160368,nan
1740789326.7928367,-0.17267443597572749,-0.31150422217918716,-0.38723876327534207,-0.148956503267842,nan
1740789326.7967424,-0.15340306370224824,-0.3786521353843824,-0.36840512621051336,-0.13504051739655848,nan
1740789326.8006482,-0.13074918932412405,-0.445465187705095,-0.3464649679962842,-0.11815302061009031,nan
1740789326.8045573,-0.10496535050940453,-0.5114301514781061,-0.32168572500368015,-0.09850160659116507,nan
1740789326.808463,-0.07632964262754642,-0.5760395288978674,-0.2943586344660894,-0.07631860964816851,nan
1740789326.812369,-0.045142796142502856,-0.6387962058798697,-0.2647957009106706,-0.05185854490661021,nan
1740789326.816275,-0.01172508071866235,-0.6992179881322552,-0.23332649298430747,-0.025395365981447933,nan
1740789326.8201807,0.02358693216991087,-0.7568419764993918,-0.20029480338067376,0.002780430598326942,nan
1740789326.8240867,0.060443715412019865,-0.811228740464451,-0.16605520555359132,0.03236482383460779,nan
1740789326.8279924,0.09848620789692392,-0.8619662509051242,-0.13096954154846863,0.06304337839698579,nan
1740789326.8318982,0.13734927802286098,-0.9086735357638469,-0.09540337559490808,0.09449441478620374,nan
1740789326.8358042,0.17666519552857818,-0.9510040251943942,-0.05972244807969643,0.1263922076843546,nan
1740789326.83971,0.21606707846554585,-0.988648555950406,-0.024289164163520192,0.15841018078862582,nan
1740789326.8436158,0.2551922828064781,-1.02133800825577,0.01054084937671166,0.19022406686871351,nan
1740789326.8475215,0.2936857031660276,-1.0488455521065532,0.044422086495702943,0.22151500253025702,nan
1740789326.8514304,0.33120295437935193,-1.0709884838623671,0.07702237213494262,0.2519725281975507,nan
1740789326.8553362,0.3674134052281568,-1.0876296380526898,0.1080259106924087,0.28129746513498366,nan
1740789326.859242,0.4020030374040458,-1.098678363510768,0.13713614487486178,0.3092046428927835,nan
1740789326.863148,0.43467710483526595,-1.1040910572130973,0.16407839921205145,0.33542545237040927,nan
1740789326.8670537,0.4651625707531013,-1.1038712535046904,0.1886022848515383,0.3597102017203101,nan
1740789326.8709595,0.4932103023142351,-1.0980692706876332,0.21048384479562912,0.3818302545435946,nan
1740789326.8748655,0.5185970051996643,-1.0867814212014626,0.22952742146199143,0.40157993223348,nan
1740789326.8787713,0.5411268833523859,-1.0701487957879685,0.24556723131899463,0.418778164876936,nan
1740789326.882677,0.560633011867041,-1.0483556360704824,0.25846863433682987,0.433269877803107,nan
1740789326.886583,0.5769784139763238,-1.0216273138504042,0.26812908907603733,0.44492710364137356,nan
1740789326.8904889,0.5900568360619523,-0.9902279390952511,0.2744787873756805,0.4536498125940637,nan
1740789326.8943946,0.599793217623001,-0.9544576220286626,0.27748096577323345,0.45936645651034164,nan
1740789326.898303,0.606143856132012,-0.9146494179017829,0.2771318939563008,0.462034225239809,nan
1740789326.902209,0.6090962696706456,-0.8711659858982922,0.27346054368202694,0.46163901661852297,nan
1740789326.9061148,0.6086687631332961,-0.8243959961760068,0.2665279446732827,0.4581951242681386,nan
1740789326.9100206,0.604909706591787,-0.7747503212538127,0.25642623698230177,0.45174465014351817,nan
1740789326.9139266,0.5978965371005981,-0.7226580497942807,0.24327743217413536,0.442356651418834,nan
1740789326.9178324,0.5877344977654105,-0.6685623622941657,0.22723189839746943,0.4301260338318789,nan
1740789326.9217381,0.5745551302747552,-0.6129163092650912,0.20846658695379308,0.4151722059871378,nan
1740789326.925644,0.5585145392839815,-0.5561785331570939,0.18718302032441442,0.39763751132819014,nan
1740789326.92955,0.5397914490232956,-0.49880897554415854,0.16360506374719505,0.3776854565089712,nan
1740789326.9334557,0.5185850742602073,-0.4412646109533147,0.13797650433219086,0.3554987567033033,nan
1740789326.9373615,0.4951128292666128,-0.3839952481808488,0.11055846335115205,0.3312772199769421,nan
1740789326.9412675,0.469607899709719,-0.32743943900840256,0.08162666871612692,0.30523549419270424,nan
1740789326.9451756,0.4423167033943992,-0.27202053291948536,0.05146861576603372,0.27760070101604883,nan
1740789326.9490817,0.41349626652537663,-0.21814291473807337,0.020380645298507732,0.24860998242723045,nan
1740789326.9529874,0.38341154262644894,-0.16618846008412294,-0.011335031687965322,0.2185079857210396,nan
1740789326.9568932,0.35233270144930523,-0.1165132411875112,-0.04337333284240589,0.18754431328303564,nan
1740789326.960799,0.3205324151273089,-0.06944451294700126,-0.0754292972600728,0.15597096347150802,nan
1740789326.964705,0.28828316848374674,-0.02527800619181039,-0.10720104294090226,0.12403978870942257,nan
1740789326.9686108,0.25585461979583113,0.015724448069672787,-0.13839266025090302,0.09199999640500374,nan
1740789326.9725165,0.22351103745402356,0.053336943014316,-0.16871701363962016,0.06009571758081703,nan
1740789326.9764225,0.19150883685236897,0.08737115214453915,-0.19789842504135502,0.028563667108946564,nan
1740789326.9803283,0.16009424051302423,0.11767760407155088,-0.2256752138134333,-0.00236908176367634,nan
1740789326.984234,0.12950108290274667,0.14414656661803021,-0.25180206972537716,-0.032487187346249606,nan
1740789326.98814,0.09994877965840822,0.16670853479346406,-0.27605223739012813,-0.06158897426893318,nan
1740789326.99204,0.07164047902205825,0.18533432110128792,-0.2982194926021951,-0.08948819527244696,nan
1740789326.9959457,0.04476141121461945,0.2000347505337732,-0.31811989329587476,-0.11601560418915363,nan
1740789326.9998517,0.019477449273246475,0.21085996646042515,-0.3355932902357531,-0.14102032639909037,nan
1740789327.0037575,-0.0040661074358098155,0.21789835738105434,-0.3505045850768902,-0.16437101527953546,nan
1740789327.0076632,-0.02574551821514607,0.22127511815954196,-0.36274472605728836,-0.18595678549655156,nan
1740789327.0115693,-0.04545934818946756,0.2211504628435554,-0.3722314342838435,-0.20568791638715495,nan
1740789327.015475,-0.06312897375160331,0.21771750947596352,-0.37890965631766715,-0.22349632112631335,nan
1740789327.0193808,-0.07869884494117224,0.21119986038418598,-0.38275174152790514,-0.23933577983888277,nan
1740789327.0232868,-0.09213650588241003,0.20184890426532356,-0.38375734543755335,-0.2531819372775131,nan
1740789327.0271926,-0.10343237685374446,0.18994086894125775,-0.3819530630029385,-0.26503206811862795,nan
1740789327.0310984,-0.11259930394299322,0.1757736559155586,-0.3773917984239274,-0.2749046153053998,nan
1740789327.0350041,-0.11967188453526707,0.15966348980244577,-0.37015188064864724,-0.28283850916540465,nan
1740789327.0389116,-0.12470557906359729,0.14194141730003548,-0.36033593618975196,-0.28889227722873295,nan
1740789327.0428174,-0.12777562150401559,0.12294969163171313,-0.3480695331855421,-0.29314295674804736,nan
1740789327.0467231,-0.1289757429979647,0.10303807927042398,-0.33349961279657486,-0.2956848238554233,nan
1740789327.0506291,-0.1284167247177333,0.0825601262841106,-0.3167927260065345,-0.2966279550630808,nan
1740789327.054535,-0.12622479763929403,0.061869421793250036,-0.2981330956767011,-0.29609663840955025,nan
1740789327.0584407,-0.12253990823752998,0.04131589581403047,-0.27772052527013896,-0.2942276529545741,nan
1740789327.0623465,-0.11751387025977349,0.02124218817720173,-0.25576817700073134,-0.29116843652222757,nan
1740789327.0662525,-0.1113084236551059,0.00198012427062382,-0.2325002432616519,-0.287075162571719,nan
1740789327.0701582,-0.10409322243197577,-0.01615266793563393,-0.2081495360387581,-0.2821107478307682,nan
1740789327.074064,-0.09604377368035019,-0.03285596674484187,-0.1829550196098687,-0.27644281285119937,nan
1740789327.07797,-0.08733935022443629,-0.04784996057012046,-0.15715931216704873,-0.2702416179369036,nan
1740789327.0818758,-0.07816089936777612,-0.060878018083750506,-0.13100618207423861,-0.26367799694920807,nan
1740789327.0857828,-0.06868896995667573,-0.07170919851355018,-0.10473806428815076,-0.25692131131525553,nan
1740789327.0896888,-0.05910167952487037,-0.08014047866793923,-0.07859362202988694,-0.2501374461546051,nan
1740789327.0935946,-0.04957274259909157,-0.08599867623519021,-0.05280537810460276,-0.24348686980388967,nan
1740789327.0975003,-0.04026958035080612,-0.08914205205251644,-0.027597439335366666,-0.23712277716707497,nan
1740789327.1014063,-0.03135153068481049,-0.08946157734509072,-0.0031833364163083157,-0.2311893362599064,nan
1740789327.105312,-0.022968176573978958,-0.08688185536033653,0.02023599988755666,-0.22582005606387393,nan
1740789327.109218,-0.015257808995787539,-0.08136169033467096,0.04247410684537332,-0.22113629237164298,nan
1740789327.1131237,-0.008346039217055817,-0.07289430029300793,0.0633606845847585,-0.21724590670838695,nan
1740789327.1170297,-0.002344573426494992,-0.06150717376046397,0.08274310197752037,-0.21424209166940633,nan
1740789327.1209354,0.0026498391506109046,-0.047261574025333423,0.10048770000094358,-0.21220237414272483,nan
1740789327.1248412,0.0065562754846513836,-0.03025169809741284,0.11648088118324265,-0.21118780590619607,nan
1740789327.1287472,0.009310318190252334,-0.010603500921836368,0.13062997603560278,-0.2112423490231982,nan
1740789327.1326597,0.010864540156128796,0.011526801297704519,0.14286387974255504,-0.21239246133105813,nan
1740789327.1365654,0.011188791449777922,0.03595453167312141,0.1531334548028362,-0.21464688514446678,nan
1740789327.1404715,0.01027028772986296,0.0624686371555603,0.16141169775946787,-0.21799664010499206,nan
1740789327.1443772,0.00811350152682354,0.09083403431901488,0.16769367060556953,-0.22241521892020835,nan
1740789327.148283,0.004739859846352755,0.12079419121212032,0.1719961998766272,-0.2278589825746286,nan
1740789327.1521888,0.00018725358934718094,0.15207391784699037,0.17435734881600554,-0.23426774948180926,nan
1740789327.1560948,-0.005490633754922603,0.18438233593852119,0.1748356703047004,-0.2415655710043048,nan
1740789327.1600006,-0.012225168818361254,0.21741599685428328,0.17350925045557397,-0.24966168381655168,nan
1740789327.1639063,-0.01993377138932017,0.25086211539888054,0.17047455486480223,-0.25845162774487923,nan
1740789327.1678123,-0.028521065075605714,0.2844018860493775,0.16584509146834742,-0.26781851600739165,nan
1740789327.1717181,-0.037880161424055196,0.3177138475886264,0.15974990574985254,-0.2776344432114753,nan
1740789327.175624,-0.04789406201448661,0.35047726175626803,0.15233192567102477,-0.28776201506381316,nan
1740789327.1795332,-0.05843716190939744,0.3823754715545174,0.1437461751308264,-0.2980559825206887,nan
1740789327.1834393,-0.06937683688979271,0.41309920520605714,0.13415787599193796,-0.3083649620672134,nan
1740789327.187345,-0.0805750961503975,0.4423497924593128,0.12374045973070365,-0.31853322297262865,nan
1740789327.1912508,-0.09189028157098447,0.4698422609637584,0.11267351056083769,-0.32840252173303996,nan
1740789327.1951566,-0.1031787943291219,0.4953082817831631,0.10114066244461135,-0.33781396348854503,nan
1740789327.1990626,-0.11429682947550268,0.5184989347630717,0.08932747273373316,-0.34660986999215815,nan
1740789327.2029684,-0.1251020991564569,0.5391872664027646,0.07741929527328058,-0.3546356337146237,nan
1740789327.2068741,-0.13545552543718078,0.5571706150810425,0.06559917565649077,-0.361741537891079,nan
1740789327.2107801,-0.14522288414955095,0.5722726809265324,0.05404579093832542,-0.3677845227495358,nan
1740789327.214686,-0.1542763818539099,0.5843453202814766,0.0429314555069233,-0.3726298788018815,nan
1740789327.2185917,-0.16249614885673097,0.5932700475560071,0.03242021398145967,-0.37615284891809536,nan
1740789327.2224977,-0.16977163225550937,0.5989592302784703,0.022666040962293105,-0.37824012193429196,nan
1740789327.2264063,-0.1760028741766524,0.6013569662860029,0.013811166216363802,-0.3787912017534098,nan
1740789327.230312,-0.1811016617180798,0.6004396352365187,0.00598454245116203,-0.3777196372708705,nan
1740789327.2342181,-0.18499253659058842,0.5962161199259075,-0.0006995287700073614,-0.37495409998136564,nan
1740789327.238124,-0.1876136540543986,0.5887276962294672,-0.006142599173206815,-0.37043929778065965,nan
1740789327.2420297,-0.1889174824521556,0.5780475938211057,-0.010263092070765489,-0.3641367152504041,nan
1740789327.2459357,-0.18887133642837117,0.564280233124354,-0.012997126905718654,-0.3560251725853792,nan
1740789327.2498415,-0.1874577387785948,0.5475601471830598,-0.014299142238040288,-0.34610119727162986,nan
1740789327.2537472,-0.184674607769551,0.5280506002748273,-0.014142311537282709,-0.33437920463013804,nan
1740789327.257653,-0.1805352686936999,0.5059419180958293,-0.012518748365742589,-0.3208914853827561,nan
1740789327.261559,-0.17506829034782484,0.4814495471922482,-0.009439499781961453,-0.30568800045384364,nan
1740789327.2654648,-0.16831714903481307,0.4548118639733115,-0.004934329042896137,-0.28883598527090487,nan
1740789327.2693706,-0.16033972456059487,0.42628775608800534,0.0009487090887250203,-0.270419367849088,nan
1740789327.273279,-0.15120763451467234,0.3961540011582543,0.008143894940437517,-0.25053800691675526,nan
1740789327.2771847,-0.14100541486360876,0.36470246981458737,0.016568664818831843,-0.22930675824194519,nan
1740789327.2810907,-0.12982955653426395,0.3322371816573905,0.026124616548556804,-0.20685437913282653,nan
1740789327.2849965,-0.11778740920019282,0.29907124415198816,0.03669868809519762,-0.18332228279030396,nan
1740789327.2889023,-0.10499596489472648,0.26552370554628696,0.04816449590933379,-0.1588631557705062,nan
1740789327.2928083,-0.09158053534321259,0.2319163536656483,0.060383817978597716,-0.1336394532523942,nan
1740789327.296714,-0.0776733380217721,0.19857049288456435,0.07320820508626136,-0.10782178808677342,nan
1740789327.3006198,-0.06341200689947449,0.16580373169520793,0.08648070246391709,-0.08158723071430461,nan
1740789327.3045259,-0.048938044595391916,0.13392681308879592,0.10003766290508631,-0.055117537970444296,nan
1740789327.3084316,-0.034395233273972724,0.10324051944012387,0.11371063148721534,-0.028597329535232627,nan
1740789327.3123374,-0.019928022005856985,0.07403268274493531,0.12732828134042973,-0.002212231328060758,nan
1740789327.3162432,-0.005679908532794148,0.04657532991317292,0.1407183794094378,0.023852994513467417,nan
1740789327.3201513,0.008208166606856512,0.021121991381357976,0.15370976088461089,0.04941631329878214,nan
1740789327.324057,0.021599395811243077,-0.0020948004106274747,0.16613429093180865,0.07430025539684224,nan
1740789327.327963,0.034362632592713285,-0.022865798111002273,0.17782879252792133,0.09833370838038837,nan
1740789327.331869,0.04637385533951975,-0.041007089765814624,0.18863691960797277,0.12135364477117173,nan
1740789327.3357747,0.05751755053492007,-0.05636189243093814,0.19841095534553638,0.1432067671382117,nan
1740789327.3396804,0.06768800021313662,-0.06880207179582117,0.2070135162140311,0.1637510531746218,nan
1740789327.3435864,0.07679045950006796,-0.0782293733188333,0.2143191435036368,0.18285718443366417,nan
1740789327.3474922,0.08474221130550197,-0.08457635330067684,0.22021576518568578,0.20040984363008868,nan
1740789327.351398,0.09147348658986652,-0.0878070013558217,0.22460601241080275,0.21630886679573458,nan
1740789327.355304,0.09692824010747202,-0.08791704885143908,0.22740837648394568,0.23047023810433895,nan
1740789327.3592098,0.10106477311381032,-0.08493396103765344,0.22855819386236526,0.24282691683337979,nan
1740789327.3631155,0.10385619619995559,-0.07891661376049706,0.2280084485538045,0.2533294876936329,nan
1740789327.3670235,0.10529072716422838,-0.06995465879783376,0.22573038323241432,0.26194662761114823,nan
1740789327.3709292,0.1053718206316948,-0.05816758495764345,0.2217139124191611,0.26866538397268575,nan
1740789327.374835,0.10411812796632455,-0.043703485096180265,0.21596783317037466,0.27349126132385515,nan
1740789327.378741,0.10156328786932414,-0.026737542121078435,0.2085198308610423,0.2764481155189636,nan
1740789327.3826468,0.09775554990066035,-0.007470249812486696,0.19941627981618898,0.27757785634193244,nan
1740789327.3865526,0.0927572349793441,0.01387461310343558,0.1887218407116729,0.2769399616274741,nan
1740789327.3904586,0.08664403869260066,0.03705223478529182,0.1765188588127132,0.27461080789045583,nan
1740789327.3943644,0.07950418495551291,0.061799224974979194,0.1629065692220477,0.2706828243980653,nan
1740789327.3982701,0.07143743919316321,0.0878362475713918,0.14800011734827884,0.2652634794744286,nan
1740789327.402176,0.06255399174928229,0.11487080438669925,0.13192940475747045,0.2584741095911333,nan
1740789327.406082,0.05297322364275402,0.14260014196488124,0.11483777241741465,0.2504486034515594,nan
1740789327.4099877,0.04282236808099449,0.17071425220024627,0.09688053506507088,0.24133195480469277,nan
1740789327.413895,0.0322350822835075,0.19889893664820832,0.07822338200574766,0.23127869910940976,nan
1740789327.417801,0.02134994515773584,0.22683890387905878,0.05904066107147037,0.22045125039856064,nan
1740789327.4217067,0.010308897192044019,0.25422086899265156,0.039513563710862884,0.20901815575078864,nan
1740789327.4256124,-0.0007443604213640309,0.2807366244890149,0.01982823024114341,0.1971522856558532,nan
1740789327.4295182,-0.011665989954657967,0.30608605207548695,0.00017379515336602807,0.1850289792470286,nan
1740789327.4334242,-0.02231364684538534,0.32998004568011613,-0.0192596069839062,0.17282416386474062,nan
1740789327.43733,-0.03254809708249242,0.3521433169261073,-0.03828285403659541,0.16071246870371836,nan
1740789327.4412358,-0.0422348045310406,0.37231705559230516,-0.05670984602404408,0.1488653523784917,nan
1740789327.4451418,-0.05124547074087734,0.3902614191264356,-0.07435949083359569,0.13744926411798702,nan
1740789327.4490476,-0.05945951026319095,0.4057578270750057,-0.09105764493729422,0.12662385797048079,nan
1740789327.4529533,-0.06676544515989558,0.41861103832743735,-0.10663898855318633,0.11654027886830921,nan
1740789327.4568594,-0.07306220322721098,0.42865099132125795,-0.12094881534346898,0.10733953867308849,nan
1740789327.4607692,-0.0782603054581728,0.43573438979665996,-0.13384471759876032,0.09915099940381228,nan
1740789327.464675,-0.08228292942856945,0.43974601929750445,-0.14519814891332886,0.09209097975167044,nan
1740789327.4685807,-0.0850668365950453,0.44059978236508535,-0.154895847599443,0.08626149971767087,nan
1740789327.4724867,-0.08656315292920469,0.43823944323272096,-0.16284110550751235,0.08174917678530559,nan
1740789327.4763925,-0.08673799386256215,0.43263907577438426,-0.16895486849785044,0.07862428547493928,nan
1740789327.4802983,-0.08557292616794214,0.4238032114591831,-0.1731766565336397,0.07693999043545742,nan
1740789327.4842043,-0.08306526113619696,0.41176668708531894,-0.17546529321544532,0.07673176142919923,nan
1740789327.48811,-0.07922817520468205,0.3965941950815662,-0.17579943653644123,0.07801697667695086,nan
1740789327.4920158,-0.07409065603713151,0.3783795421410788,-0.1741779046844763,0.08079471906993206,nan
1740789327.4959216,-0.0676972739238137,0.3572446248614066,-0.170619792831123,0.08504576774575373,nan
1740789327.4998276,-0.06010778024682809,0.33333813387697847,-0.16516437900756092,0.090732785485604,nan
1740789327.5037334,-0.05139653661793723,0.3068340006576796,-0.15787081935005112,0.09780070034183731,nan
1740789327.507643,-0.04165178012630188,0.2779296036829112,-0.14881763518195767,0.10617727786944049,nan
1740789327.5115488,-0.03097473191094409,0.24684375305926592,-0.13810199656187225,0.11577387833304231,nan
1740789327.5154548,-0.019478557979547496,0.2138144748084897,-0.12583880904668754,0.1264863913134579,nan
1740789327.5193605,-0.007287192812505702,0.17909661798924242,-0.11215961247218761,0.13819633826494915,nan
1740789327.5232663,0.005465962197671795,0.14295930951250238,-0.0972113025211752,0.15077213179542745,nan
1740789327.5271723,0.01863945203308347,0.10568328294950825,-0.08115468770968526,0.1640704787757199,nan
1740789327.531078,0.032085278373659196,0.06755810879920299,-0.06416289615652696,0.17793791284781024,nan
1740789327.5349839,0.04565049116732802,0.028879354567878646,-0.04641964809203613,0.19221244051209466,nan
1740789327.53889,0.05917884472050128,-0.01005429639096026,-0.02811741149223149,0.2067252837445728,nan
1740789327.5427957,0.07251250081862305,-0.04894393802908712,-0.009455459479429265,0.22130270103974184,nan
1740789327.5467014,0.08549376080471977,-0.08749331749961968,0.009362150803174048,0.23576786790490384,nan
1740789327.5506072,0.09796680815064407,-0.12541166484403227,0.028128657268769227,0.24994279715617942,nan
1740789327.5545166,0.10977944285577027,-0.16241644810728378,0.04663670868411451,0.2636502788930459,nan
1740789327.5584226,0.12078478900396508,-0.19823602639505278,0.06468049551299214,0.2767158197621494,nan
1740789327.5623283,0.13084295700250467,-0.23261217454135322,0.08205787391166298,0.2889695610656964,nan
1740789327.566234,0.13982264241480727,-0.2653024544740224,0.09857246098495899,0.3002481554260146,nan
1740789327.5701401,0.14760264387919453,-0.2960824100349086,0.11403567963884013,0.3103965820848923,nan
1740789327.574046,0.15407328337281204,-0.32474756391314247,0.1282687318144922,0.3192698814907277,nan
1740789327.5779517,0.15913771302624735,-0.35111519746414227,0.14110447955663938,0.3267347906031829,nan
1740789327.5818577,0.16271309381084975,-0.3750258964915115,0.15238921424794,0.33267126131624325,nan
1740789327.5857635,0.16473163269653449,-0.39634484854028457,0.16198429542406212,0.3369738455572667,nan
1740789327.5896692,0.16514146629998203,-0.41496287986194486,0.16976764185927423,0.33955293194994596,nan
1740789327.593575,0.16390738059774326,-0.43079722293784367,0.17563505906808663,0.3403358204204724,nan
1740789327.597481,0.16101135794975824,-0.4437920082594552,0.17950138898972479,0.33926762276314915,nan
1740789327.6013896,0.1564529444497422,-0.4539184769327932,0.18130146939341013,0.3363119789484907,nan
1740789327.6052954,0.15024943247134626,-0.4611749135704823,0.1809908924454695,0.331451580835137,nan
1740789327.6092014,0.1424358551943998,-0.4655863018289274,0.17854655389554536,0.32468849691828033,nan
1740789327.6131072,0.13306479185404227,-0.4672037078098836,0.17396698644812766,0.3160442937914023,nan
1740789327.617013,0.12220598443714407,-0.46610339934636785,0.16727247306633375,0.3055599520944955,nan
1740789327.620919,0.10994576853449475,-0.462385711903448,0.15850493818514957,0.29329557684910124,nan
1740789327.6248248,0.09638632302348597,-0.4561736744174602,0.14772761706896329,0.27932990421679793,nan
1740789327.6287305,0.08164474518362144,-0.4476114108459567,0.1350245058100135,0.2637596088412748,nan
1740789327.6326363,0.06585195971646264,-0.4368623354804701,0.12049959670784585,0.2466984180231652,nan
1740789327.6365423,0.049151471932441966,-0.42410716216141925,0.10427590597174256,0.22827604100960158,nan
1740789327.640448,0.03169797706098716,-0.4095417494083309,0.08649430282645071,0.2086369236363081,nan
1740789327.6443539,0.013655839219147786,-0.3933748051195763,0.06731215115411888,0.18793884041830966,nan
1740789327.6482623,-0.004802544979074043,-0.37582547588771753,0.04690177675149421,0.16635133792693751,nan
1740789327.652168,-0.023498481891028097,-0.35712084710498215,0.025448775100900895,0.1440540448971988,nan
1740789327.656074,-0.042248797971773444,-0.33749338088716196,0.0031501762277428937,0.12123486596413503,nan
1740789327.6599798,-0.06086772017511638,-0.3171783194146383,-0.019787515271207114,0.09808807721369903,nan
1740789327.6638856,-0.07916880046704501,-0.29641108157077894,-0.0431503856112959,0.07481234283945644,nan
1740789327.6677916,-0.09696686470417235,-0.2754246807478571,-0.06671926205701283,0.05160867310884423,nan
1740789327.6716974,-0.11407996574558417,-0.2544471913892324,-0.0902719265179363,0.02867834455176091,nan
1740789327.6756032,-0.13033132048793142,-0.23369929124720673,-0.11358537028703222,0.006220803781911386,nan
1740789327.6795092,-0.14555121054385003,-0.21339190546485132,-0.13643806720519097,-0.01556842335843589,nan
1740789327.683415,-0.1595788265233267,-0.19372397744648745,-0.1586122422643392,-0.03649979558052632,nan
1740789327.6873207,-0.1722640363252422,-0.17488039007727663,-0.17989611262135888,-0.056391771271806446,nan
1740789327.6912265,-0.1834690584984835,-0.15703005920219004,-0.20008607818753715,-0.0750727537585365,nan
1740789327.6951349,-0.19307002258295625,-0.1403242193957354,-0.21898883938187125,-0.09238294611204534,nan
1740789327.6990407,-0.20095839938309049,-0.12489491996562954,-0.23642342028804156,-0.10817609572060563,nan
1740789327.7029464,-0.20704228535013108,-0.11085374685795504,-0.25222307632793234,-0.12232110987338915,nan
1740789327.7068522,-0.21124752664324056,-0.09829078369176299,-0.2662370666515158,-0.13470352482443473,nan
1740789327.7107582,-0.21351866998972333,-0.08727382257301011,-0.27833227273303013,-0.14522681221112327,nan
1740789327.714664,-0.21381972915660988,-0.07784783264785662,-0.28839464614464516,-0.15381350828022475,nan
