timestamps,TP9,AF7,AF8,TP10,Right AUX
1740789302.3368323,0.25513934108987496,-0.1548803000392341,-0.2638947913129209,0.19134159970759262,nan
1740789302.340738,0.23438789974779672,-0.16809826181118884,-0.25755365562820287,0.1812311126327877,nan
1740789302.3446438,0.21085519894325472,-0.1769757009620375,-0.2511517188160032,0.16941981100371412,nan
1740789302.3485498,0.18470206390923197,-0.18172801417655884,-0.24461572907098086,0.15601897359966965,nan
1740789302.3524556,0.156113558791602,-0.1826110475754596,-0.23786495779930195,0.14115458502404155,nan
1740789302.3563614,0.12529737939561322,-0.17991797121606626,-0.2308126092731949,0.12496604826145453,nan
1740789302.3602672,0.09248203090445167,-0.17397580969973375,-0.2233673220438618,0.10760476172228871,nan
1740789302.3641732,0.05791480821323245,-0.16514166486276347,-0.21543474452472836,0.08923257541947398,nan
1740789302.368079,0.02185959844700793,-0.1537986693697547,-0.20691916625401058,0.07002014218481774,nan
1740789302.3719847,-0.015405473039140458,-0.14035171248342396,-0.19772518563987657,0.05014518093141391,nan
1740789302.3758907,-0.05359053036317038,-0.12522298133030874,-0.1877593944910657,0.029790669893553088,nan
1740789302.3797965,-0.09239654441867545,-0.10884736259839504,-0.17693205934682366,0.009142988516035894,nan
1740789302.3837059,-0.1315180146249112,-0.09166775077605248,-0.16515877954613448,-0.011609972786860438,nan
1740789302.3876116,-0.17064570917443805,-0.07413030976127799,-0.15236210211918202,-0.03228071543234527,nan
1740789302.3915174,-0.20946943728925171,-0.056679734930440144,-0.13847307394298503,-0.052684028311406596,nan
1740789302.3954234,-0.24768082672065103,-0.039754562554801386,-0.12343271217545239,-0.07263885660965136,nan
1740789302.3993292,-0.28497607971847294,-0.023782572794534988,-0.10719337476239461,-0.09197012440325264,nan
1740789302.403235,-0.3210586809518099,-0.00917633139089994,-0.08972001379317196,-0.11051049208736329,nan
1740789302.407141,-0.3556420313828781,0.003671086370018678,-0.07099129565304495,-0.12810203035196208,nan
1740789302.4110467,-0.38845198287299126,0.014390147818174607,-0.05100057327261366,-0.1445977932682656,nan
1740789302.4149525,-0.41922924932660127,0.022638651952618445,-0.029756697293475808,-0.1598632740790806,nan
1740789302.4188583,-0.44773167144549203,0.02810521890356456,-0.007284654639375556,-0.1737777284884863,nan
1740789302.4227643,-0.47373631365759294,0.030512446419450112,0.016373975213314018,-0.18623535160805643,nan
1740789302.42667,-0.49704137348836913,0.02961970341297543,0.041160754050980235,-0.1971462962245864,nan
1740789302.4305792,-0.5174678855399414,0.025225534302589243,0.06700031459172433,-0.2064375216928462,nan
1740789302.434485,-0.5348612043149298,0.017169651836086142,0.09380048968188748,-0.21405346450954216,nan
1740789302.4383907,-0.5490922523473951,0.005334500241344559,0.12145264254605867,-0.21995652347357872,nan
1740789302.4422967,-0.5600585224597584,-0.010353625125325784,0.1498321974360213,-0.224127354264052,nan
1740789302.4462025,-0.5676848254283918,-0.029923911013191827,0.17879936783401765,-0.22656497025143468,nan
1740789302.4501083,-0.571923776886807,-0.053360817243754965,0.2082000771888431,-0.2272866483787715,nan
1740789302.454014,-0.5727560198983735,-0.0806043256951875,0.23786706502249608,-0.22632764098764854,nan
1740789302.45792,-0.5701901822639885,-0.11155064303413327,0.2676211691629688,-0.22374069649718523,nan
1740789302.4618258,-0.5642625702676249,-0.14605334842324014,0.2972727728574204,-0.21959539385235943,nan
1740789302.4657316,-0.5550366031775424,-0.18392497303021782,0.32662340362080033,-0.21397729761975343,nan
1740789302.4696374,-0.542601995386967,-0.22493899390337402,0.3554674688984584,-0.2069869425039841,nan
1740789302.4735434,-0.5270736955692266,-0.2688322207013009,0.3835941119867158,-0.19873865786680384,nan
1740789302.477452,-0.5085905946138589,-0.31530754991039417,0.41078917018072814,-0.18935924453434214,nan
1740789302.4813578,-0.4873140163777625,-0.36403705759093374,0.4368372158207094,-0.1789865177581053,nan
1740789302.4852636,-0.4634260074065177,-0.4146653983953937,0.46152365980035703,-0.16776773163571046,nan
1740789302.4891694,-0.43712744373410845,-0.46681347563358067,0.4846368961980316,-0.15585790158238302,nan
1740789302.4930754,-0.4086359746348957,-0.5200823445468656,0.5059704660026779,-0.1434180425603575,nan
1740789302.4969811,-0.37818382476216467,-0.5740573087232925,0.525325217441312,-0.13061334170845915,nan
1740789302.500887,-0.34601547744721767,-0.6283121677582904,0.5425114401796525,-0.11761128475787759,nan
1740789302.5047927,-0.31238526303856157,-0.6824135728592424,0.5573509506661868,-0.10457975616442905,nan
1740789302.5086987,-0.2775548770210839,-0.7359254461197641,0.5696791061245438,-0.09168513322587502,nan
1740789302.5126045,-0.2417908532619317,-0.7884134186599379,0.5793467251687257,-0.079090394581107,nan
1740789302.5165102,-0.20536201807697144,-0.8394492427466073,0.5862218937176331,-0.06695326340407731,nan
1740789302.5204163,-0.1685369508960506,-0.8886151333732774,0.5901916358139259,-0.055424405309319226,nan
1740789302.5243244,-0.13158147712615095,-0.935507995587834,0.5911634300998081,-0.04464570048015945,nan
1740789302.5282304,-0.09475621837093133,-0.9797434950996325,0.589066554058895,-0.0347486088195511,nan
1740789302.5321362,-0.058314224467859846,-1.020959931362473,0.5838532396865084,-0.025852646013543035,nan
1740789302.536042,-0.022498710857480477,-1.0588218743995066,0.5754996259864015,-0.018063987297338876,nan
1740789302.5399477,0.012459076386907186,-1.0930235290891537,0.5640064955937057,-0.01147421443416894,nan
1740789302.5438538,0.04634184695422629,-1.1232917934427016,0.5493997848737288,-0.006159219970539934,nan
1740789302.5477595,0.07894808482641323,-1.1493889805461404,0.5317308590245349,-0.0021782812317471386,nan
1740789302.5516653,0.11009368147790821,-1.1711151772791684,0.5110765459968333,0.00042668521493775704,nan
1740789302.5555713,0.13961336827549284,-1.1883102166288073,0.4875389254151863,0.001631679758251596,nan
1740789302.559477,0.16736193476524833,-1.2008552443463425,0.46124487111675666,0.0014309796881148804,nan
1740789302.5633829,0.19321522182256493,-1.2086738648151318,0.43234534839333827,-0.00016270198752163525,nan
1740789302.5672886,0.21707088104081884,-1.2117328552619129,0.40101446950483066,-0.003118261630605314,nan
1740789302.5711968,0.23884889421973385,-1.2100424418129427,0.36744831350241813,-0.007386454603868721,nan
1740789302.5751026,0.2584918493598427,-1.2036561353250905,0.33186351883262977,-0.012900347927196031,nan
1740789302.5790083,0.2759649721486315,-1.1926701293664876,0.294495659564193,-0.01957597229115533,nan
1740789302.5829144,0.2912559145101774,-1.1772222671373629,0.2555974183638717,-0.02731316763549463,nan
1740789302.5868201,0.3043743043565782,-1.157490588465083,0.21543657152155413,-0.03599661442554773,nan
1740789302.590726,0.31535106319964534,-1.1336914722349287,0.1742938033659023,-0.04549704075526069,nan
1740789302.5946317,0.3242375007290614,-1.106077393687597,0.13246036929845728,-0.05567259349294915,nan
1740789302.5985377,0.3311041978129289,-1.0749343198853316,0.09023562838581621,-0.06637035988512106,nan
1740789302.6024435,0.3360396916040366,-1.0405787702823135,0.04792446796796428,-0.07742802436385611,nan
1740789302.6063492,0.3391489785168317,-1.003354572695274,0.005834644049081959,-0.08867564378222201,nan
1740789302.6102552,0.3405518527543474,-0.9636293480238582,-0.03572593767947615,-0.09993752294646197,nan
1740789302.614161,0.3403810997909977,-0.9217907597864614,-0.07645197448865214,-0.11103417113812661,nan
1740789302.6180687,0.33878056573804605,-0.8782425668891549,-0.11604352664051681,-0.12178431933695645,nan
1740789302.6219745,0.33590312481757273,-0.833400520009412,-0.15420875816164242,-0.13200697707737488,nan
1740789302.6258802,0.33190856823396414,-0.7876881435330054,-0.1906666316460036,-0.14152350730717278,nan
1740789302.6297863,0.3269614385479854,-0.7415324461162461,-0.22514953055658316,-0.15015969727321676,nan
1740789302.633692,0.32122883421828646,-0.6953596036452142,-0.2574057829437766,-0.15774780334080465,nan
1740789302.6375978,0.31487820927253674,-0.6495906586218637,-0.2872020612100835,-0.16412854776310046,nan
1740789302.6415036,0.30807519310159687,-0.6046372798212779,-0.3143256335193697,-0.1691530457551205,nan
1740789302.6454096,0.30098145513433683,-0.5608976254365812,-0.33858644366780555,-0.17268464179105558,nan
1740789302.6493154,0.29375263864980605,-0.5187523518644542,-0.3598189976922222,-0.17460063482981913,nan
1740789302.6532211,0.28653638722204766,-0.47856080879530866,-0.3778840371776496,-0.17479387317497783,nan
1740789302.657127,0.2794704862782103,-0.4406574593727274,-0.3926699811242897,-0.17317420088280985,nan
1740789302.661033,0.27268114099283236,-0.40534856189576646,-0.40409412032805986,-0.16966973903502736,nan
1740789302.664943,0.2662814102526161,-0.3729091468778976,-0.412103550498961,-0.16422798677765357,nan
1740789302.6688488,0.2603698147217263,-0.34358032027418345,-0.41667583276689996,-0.15681672877968061,nan
1740789302.6727545,0.25502913513481706,-0.31756692037381296,-0.41781937278241144,-0.14742473766759073,nan
1740789302.6766605,0.25032541486299,-0.2950355522613253,-0.4155735122858833,-0.13606226202619315,nan
1740789302.6805663,0.24630717855787987,-0.2761130199126061,-0.4100083297678903,-0.1227612927026752,nan
1740789302.684472,0.2430048763042288,-0.2608851719495046,-0.40122414964865444,-0.10757560238808879,nan
1740789302.6883779,0.2404305602258819,-0.24939617286995336,-0.3893507622392506,-0.0905805557565443,nan
1740789302.6922839,0.2385777979200418,-0.24164820724102162,-0.37454635958334187,-0.07187268979412813,nan
1740789302.6961896,0.2374218244664253,-0.23760161993369172,-0.35699619508794983,-0.05156906632330925,nan
1740789302.7000954,0.23691993209914453,-0.23717549103449456,-0.33691097760729516,-0.02980640110046585,nan
1740789302.7040012,0.23701209396755757,-0.2402486396352044,-0.3145250133175032,-0.006739976209809359,nan
1740789302.7079072,0.23762181577598865,-0.24666104632196545,-0.2900941112850046,0.01745765522744753,nan
1740789302.711817,0.23865720650902986,-0.25621567990371774,-0.2638932710618363,0.04259816078817985,nan
1740789302.7157228,0.24001225694657974,-0.2686807097796945,-0.23621417291169164,0.06847910356150796,nan
1740789302.7196288,0.24156831227760095,-0.2837920813888683,-0.20736249335809237,0.09488578467138549,nan
1740789302.7235346,0.24319572285968896,-0.30125642845060197,-0.1776550706284379,0.12159323627207592,nan
1740789302.7274404,0.24475565506743402,-0.3207542922332239,-0.14741694622491455,0.14836834607652902,nan
1740789302.7313464,0.24610204224932705,-0.3419436149111228,-0.1169783102673762,0.17497209295213526,nan
1740789302.7352521,0.2470836540920189,-0.3644634712236775,-0.08667137940845111,0.2011618717886922,nan
1740789302.739158,0.2475462611913843,-0.3879380001600158,-0.056827237004105545,0.22669388472438806,nan
1740789302.7430637,0.2473348703692978,-0.41198049628794925,-0.027772665822863158,0.2513255749203575,nan
1740789302.7469697,0.24629600526821255,-0.4361976186452842,0.0001729961142150435,0.2748180784135757,nan
1740789302.7508755,0.2442800060147445,-0.4601936738349347,0.026700945958141105,0.2969386691600575,nan
1740789302.7547812,0.24114332127829297,-0.4835749291255123,0.051515922402710995,0.3174631722116794,nan
1740789302.7586908,0.23675076586803512,-0.5059539109656938,0.07433909826735643,0.3361783200541203,nan
1740789302.7625966,0.23097771711556334,-0.526953644378519,0.0949108304375369,0.3528840274715594,nan
1740789302.7665024,0.2237122236819316,-0.5462117892112676,0.11299323947601907,0.367395560894569,nan
1740789302.7704084,0.2148570011052618,-0.5633846301735984,0.1283725926658257,0.3795455790271397,nan
1740789302.7743142,0.20433128936337508,-0.578150878992573,0.14086146596044144,0.3891860226305657,nan
1740789302.77822,0.19207254895753112,-0.5902152488350649,0.15030066228455893,0.39618983265712454,nan
1740789302.782126,0.17803797351766668,-0.5993117633786347,0.1565608658318765,0.40045247746376,nan
1740789302.7860317,0.1622057986731659,-0.6052067655297015,0.15954401442562033,0.4018932715817513,nan
1740789302.7899375,0.14457638891014654,-0.60770159376764,0.15918437462064372,0.4004564704568167,nan
1740789302.7938433,0.12517308632808313,-0.6066348974061176,0.15544930700922877,0.3961121276874376,nan
1740789302.7977493,0.10404280759426134,-0.6018845656762463,0.14833971212019903,0.3888567035576179,nan
1740789302.801655,0.08125637795130429,-0.5933692494144845,0.13789015034538443,0.378713416062486,nan
1740789302.8055642,0.05690859383572136,-0.5810494582434984,0.12416863246004443,0.3657323281381015,nan
1740789302.80947,0.03111800848752486,-0.5649282204256452,0.10727608049476618,0.34999016740636696,nan
1740789302.8133757,0.004026437844462694,-0.5450512970040654,0.08734546193502211,0.33158987740680407,nan
1740789302.8172817,-0.02420181300999928,-0.5215069463812112,0.06454060343997126,0.31065990198311344,nan
1740789302.8211875,-0.05338099956816193,-0.4944252400739107,0.039054693452737294,0.28735320719713026,nan
1740789302.8250933,-0.08330525750326738,-0.46397693498175324,0.011108486189346688,0.26184604782926363,nan
1740789302.828999,-0.11375018289312841,-0.43037191206563846,-0.01905177748825504,0.23433648816565977,nan
1740789302.832905,-0.1444746608780753,-0.39385719580972167,-0.05115671391812224,0.205042689341478,nan
1740789302.8368108,-0.17522292774122908,-0.3547145731875919,-0.08491638407045421,0.17420097798057513,nan
1740789302.8407166,-0.2057268486922621,-0.31325783502813825,-0.120023100881148,0.1420637132190431,nan
1740789302.8446226,-0.2357083910789066,-0.26982966663578045,-0.15615443045968744,0.10889697139901772,nan
1740789302.8485284,-0.2648822703713412,-0.22479821822291213,-0.19297635903635318,0.07497806974669921,nan
1740789302.8524368,-0.29295874408922057,-0.17855338912152513,-0.23014659566241122,0.04059295218295085,nan
1740789302.8563428,-0.3196465268940777,-0.1315028628206359,-0.267317979102259,0.006033462036162074,nan
1740789302.8602486,-0.34465579837326316,-0.0840679325942321,-0.30414195607599936,-0.028405472182759198,nan
1740789302.8641543,-0.36770127361561444,-0.036679159812170826,-0.3402720970393855,-0.06242871064027977,nan
1740789302.86806,-0.38850530554099816,0.010228091060981348,-0.37536761503746685,-0.09574380748960336,nan
1740789302.8719661,-0.4068009871106226,0.05621819529778179,-0.40909685284749725,-0.1280639188334547,nan
1740789302.875872,-0.4223352210242974,0.10085984206541222,-0.44114070364157787,-0.15911068421405827,nan
1740789302.8797777,-0.4348717243136077,0.14373059284518502,-0.47119593075274846,-0.18861705246022156,nan
1740789302.8836837,-0.4441939353717465,0.18442137696435426,-0.49897835281918324,-0.21633002296697923,nan
1740789302.8875895,-0.4501077914242054,0.22254087748008736,-0.5242258616059458,-0.24201327401860329,nan
1740789302.8914952,-0.4524443452386182,0.25771976151890513,-0.5467012411553132,-0.26544965058836056,nan
1740789302.895401,-0.4510621909928503,0.2896147105057619,-0.5661947585847077,-0.28644348515283274,nan
1740789302.8993094,-0.4458496706604088,0.3179122075041627,-0.5825264988223126,-0.3048227264367666,nan
1740789302.9032152,-0.4367268340208029,0.34233204111659327,-0.5955484178280948,-0.32044085264530875,nan
1740789302.907121,-0.42364712744588423,0.3626304880430316,-0.6051460913728473,-0.3331785476305679,nan
1740789302.9110267,-0.4065987889344294,0.3786031394399657,-0.6112401392180319,-0.3429451205625233,nan
1740789302.9149327,-0.3856059294467105,0.390087339634897,-0.6137873075299337,-0.3496796520117994,nan
1740789302.9188385,-0.36072928340582416,0.3969642094994582,-0.6127811955462162,-0.3533518518829405,nan
1740789302.9227443,-0.332066614258208,0.3991602308325817,-0.6082526158622882,-0.35396261733859524,nan
1740789302.92665,-0.2997527641945568,0.396648372414637,-0.6002695811882772,-0.3515442817026794,nan
1740789302.930556,-0.26395934049481834,0.3894487429228231,-0.5889369140124889,-0.34616054829770226,nan
1740789302.9344618,-0.2248940344458364,0.3776287606032771,-0.5743954792605193,-0.33790610623018436,nan
1740789302.9383676,-0.18279957235465255,0.36130283443062405,-0.5568210437261739,-0.32690592825943954,nan
1740789302.9422734,-0.1379523018104947,0.34063155640362947,-0.5364227697359871,-0.31331425403915886,nan
1740789302.9461813,-0.09066041999911098,0.3158204095778787,-0.5134413541580695,-0.2973132651776709,nan
1740789302.9500873,-0.04126185450889956,0.28711800137395344,-0.4881468274429331,-0.27911146169079265,nan
1740789302.953993,0.009878189346514792,0.254813836573419,-0.46083603085401587,-0.25894175249002627,nan
1740789302.9578989,0.06236999716555632,0.2192356491762601,-0.4318297933746016,-0.23705927552801592,nan
1740789302.9618046,0.11580240915439853,0.18074631689445164,-0.40146983293266036,-0.21373896608275442,nan
1740789302.9657106,0.1697461547575214,0.13974038645053308,-0.37011540953407857,-0.1892728943730736,nan
1740789302.9696164,0.22375743106624538,0.09664024199269157,-0.3381397606077418,-0.16396739623249498,nan
1740789302.9735222,0.2773816950355198,0.05189195278636812,-0.30592635131496565,-0.13814002290026223,nan
1740789302.977428,0.33015763697681483,0.005960839857028118,-0.2738649747350167,-0.11211633809250732,nan
1740789302.981334,0.38162130051072135,-0.04067319559740929,-0.24234773868473822,-0.0862265923703743,nan
1740789302.9852397,0.4313103121822097,-0.08752053646616396,-0.211764977443032,-0.06080230640489459,nan
1740789302.9891455,0.4787681822872709,-0.13408685879276314,-0.18250112781273262,-0.036172796032369905,nan
1740789302.9930532,0.5235486371515915,-0.17987823593836957,-0.15493060974883244,-0.012661672983420235,nan
1740789302.9969592,0.5652199421569274,-0.22440628676320126,-0.12941375220215937,0.009416644159081895,nan
1740789303.000865,0.6033691742422266,-0.267193315878221,-0.10629280486386364,0.029760373873093014,nan
1740789303.0047708,0.6376064024244484,-0.30777739365825185,-0.08588807614449744,0.04808373557053976,nan
1740789303.0086765,0.6675687350947392,-0.3457173238622961,-0.06849423698169688,0.06412019884636587,nan
1740789303.0125825,0.692924193452006,-0.3805974473790132,-0.054376828945771366,0.07762558418436953,nan
1740789303.0164883,0.713375371436842,-0.412032231802,-0.043769013609856376,0.08838098220114855,nan
1740789303.020394,0.7286628439195898,-0.4396705982325121,-0.03686859828117679,0.09619545983948366,nan
1740789303.0242999,0.7385682866684266,-0.4631999388935097,-0.033835370966559544,0.10090852357277404,nan
1740789303.0282059,0.7429172737646687,-0.4823497818004476,-0.03478877488608691,0.10239231164058248,nan
1740789303.0321116,0.7415817206269942,-0.49689506184822635,-0.039805949974584545,0.10055348958645274,nan
1740789303.0360174,0.7344819436348374,-0.5066589612131096,-0.04892016564537611,0.0953348258947879,nan
1740789303.0399275,0.7215883104809953,-0.5115152859015258,-0.062119665661346975,0.08671642730262279,nan
1740789303.0438333,0.7029224588087044,-0.5113903495690342,-0.07934694229438398,0.0747166163709538,nan
1740789303.0477393,0.6785580643702975,-0.5062643403430634,-0.10049845308772577,0.05939243711287876,nan
1740789303.051645,0.6486211438515348,-0.49617215126987996,-0.12542478950088715,0.04083977786385527,nan
1740789303.0555508,0.6132898816038255,-0.48120366012390914,-0.1539313025495943,0.01919310411282997,nan
1740789303.0594566,0.5727939737798509,-0.4615034496182644,-0.18577918629126197,-0.005375202340065139,nan
1740789303.0633626,0.5274134877385505,-0.437269964488817,-0.22068701568866625,-0.0326558978062993,nan
1740789303.0672684,0.47747723903377165,-0.40875410743884594,-0.25833273105032306,-0.06240432084595353,nan
1740789303.0711741,0.4233606927865855,-0.37625728147438314,-0.2983560569358078,-0.09434221846843571,nan
1740789303.07508,0.3654834007230736,-0.3401288916784803,-0.34036133916802813,-0.12815994298658726,nan
1740789303.078986,0.3043059895957586,-0.3007633249121901,-0.3839207794524391,-0.16351900441421927,nan
1740789303.0828917,0.24032672105609812,-0.25859643123808684,-0.42857804310460623,-0.2000549596929804,nan
1740789303.0868013,0.17407764726643118,-0.2141015359864863,-0.473852211570886,-0.23738061656062126,nan
1740789303.0907073,0.10612039059209799,-0.16778501627433554,-0.5192420478292911,-0.27508952656324354,nan
1740789303.094613,0.037041579558771374,-0.12018148039338562,-0.5642305394142305,-0.31275973860164363,nan
1740789303.0985188,-0.0325520231411974,-0.07184859276117113,-0.6082896807529782,-0.3499577815177236,nan
1740789303.1024246,-0.10203866149231931,-0.023361591032044996,-0.6508854537645092,-0.38624284160046096,nan
1740789303.1063306,-0.17078695374595954,0.024692454544251514,-0.6914829632808347,-0.4211710985494674,nan
1740789303.1102364,-0.23816144199689696,0.07172058638887518,-0.729551681832675,-0.4543001814025919,nan
1740789303.1141422,-0.30352827670414007,0.11713005379986088,-0.7645707567172277,-0.48519370423464203,nan
1740789303.118048,-0.3662609872301242,0.16033449836586258,-0.7960343310546798,-0.5134258400864874,nan
1740789303.121954,-0.42574628800919706,0.20076017134315186,-0.8234568297570458,-0.538585890603956,nan
1740789303.1258597,-0.48138986893123503,0.23785212279156467,-0.8463781609891798,-0.5602828082670863,nan
1740789303.1297655,-0.5326221179533176,0.27108030187145604,-0.864368783804777,-0.5781496278821979,nan
1740789303.1336749,-0.5789037238415072,0.2999455078843755,-0.877034593193249,-0.5918477641980752,nan
1740789303.1375809,-0.6197311073018769,0.32398513239786497,-0.8840215747757557,-0.6010711330959146,nan
1740789303.1414866,-0.6546416295865086,0.3427786341267602,-0.8850201828357034,-0.605550054789512,nan
1740789303.1453924,-0.6832185289536742,0.35595269014155656,-0.8797693972516892,-0.6050548988527837,nan
1740789303.1492982,-0.7050955371148652,0.36318596942508796,-0.8680604172063826,-0.5993994326576609,nan
1740789303.1532042,-0.7199611300036176,0.3642134777832481,-0.8497399522562794,-0.5884438369448056,nan
1740789303.15711,-0.7275623698368133,0.358830426609584,-0.8247130744440142,-0.57209735474684,nan
1740789303.1610157,-0.7277082984890259,0.34689558197843096,-0.7929455985927053,-0.5503205427200207,nan
1740789303.1649218,-0.720272845641093,0.3283340549630992,-0.7544659617128042,-0.5231270970932985,nan
1740789303.1688275,-0.7051972189685373,0.3031394989063334,-0.7093665765452771,-0.4905852298881926,nan
1740789303.1727333,-0.6824917477730345,0.2713756845677279,-0.6578046386265356,-0.4528185747707456,nan
1740789303.176639,-0.6522371558971628,0.23317742959096624,-0.6000023708539406,-0.4100066058371857,nan
1740789303.1805482,-0.6145852444622455,0.1887508645235812,-0.5362466943167505,-0.3623845567745688,nan
1740789303.184454,-0.5697589698918952,0.13837302363124848,-0.4668883190951925,-0.31024283214139237,nan
1740789303.1883597,-0.5180519077879308,0.08239075492304934,-0.3923402537770891,-0.2539259069437545,nan
1740789303.1922657,-0.4598270984671511,0.021218950087278785,-0.3130757375533109,-0.19383071520159698,nan
1740789303.1961715,-0.3955152753014274,-0.04466189862836607,-0.22962560388520395,-0.13040453276714706,nan
1740789303.2000773,-0.32561248238342105,-0.11470880123165544,-0.14257508984374218,-0.0641423642333581,nan
1740789303.203983,-0.2506770934185403,-0.18832001287473443,-0.05256011025592005,0.00441615168688747,nan
1740789303.207889,-0.17132624907291807,-0.26483939106043825,0.03973697928643362,0.07469029946092368,nan
1740789303.2117949,-0.08823173523969627,-0.3435613354564579,0.13359210174114908,0.1460622835111541,nan
1740789303.2157006,-0.0021153297746127854,-0.42373627289389004,0.2282446268841537,0.21788163705960137,nan
1740789303.2196064,0.08625634984918729,-0.5045766447064371,0.32290295085334614,0.28947001163017905,nan
1740789303.2235124,0.17607746085298262,-0.5852633484920111,0.4167504452661635,0.3601263120204636,nan
1740789303.2274208,0.2665089699301537,-0.664952581699039,0.5089517305095773,0.4291321380452269,nan
1740789303.2313268,0.3566850629207649,-0.7427830302012606,0.5986592244605778,0.4957574911446471,nan
1740789303.2352326,0.4457198801027149,-0.8178833412693554,0.685019914945625,0.5592667010723676,nan
1740789303.2391384,0.5327145244999094,-0.8893798171132637,0.7671823017179805,0.6189245253609111,nan
1740789303.2430444,0.6167642877130279,-0.9564042624888361,0.8443034516478233,0.6740023721299523,nan
1740789303.2469501,0.696966035336581,-1.0181019177649266,0.9155561092032108,0.7237845950790047,nan
1740789303.250856,0.7724256920618576,-1.0736394073553754,0.980135803168113,0.7675748082090467,nan
1740789303.2547617,0.8422657650998123,-1.1222126325523274,1.0372678899103083,0.8047021669627595,nan
1740789303.2586677,0.9056328436074748,-1.1630545375651082,1.086214473386409,0.8345275620718863,nan
1740789303.2625735,0.9617050113780571,-1.1954426779788256,1.126281142458274,0.8564496724601641,nan
1740789303.2664793,1.0096991101661472,-1.2187065218994984,1.1568234669951891,0.8699108240749901,nan
1740789303.270385,1.0488777916679934,-1.2322344157425043,1.1772531956452723,0.8744026025097353,nan
1740789303.2742934,1.0785562973610396,-1.2354801489372453,1.1870441000689407,0.8694711687268545,nan
1740789303.2781992,1.0981089071199384,-1.2279690547461894,1.185737412824136,0.8547222290908707,nan
1740789303.282105,1.1069749997570235,-1.2093035879082203,1.1729468089598218,0.8298256132571538,nan
1740789303.286011,1.1046646713677064,-1.1791683238864086,1.1483628846896587,0.7945194162204656,nan
1740789303.2899168,1.0907638605751373,-1.1373343290955809,1.1117570902560099,0.7486136639859761,nan
1740789303.2938225,1.0649389334390527,-1.08366285656712,1.0629850782263304,0.6919934658606842,nan
1740789303.2977283,1.0269406848921372,-1.0181083270344355,1.0019894329563244,0.6246216202472622,nan
1740789303.3016343,0.9766077180607591,-0.94072056134528,0.9288017517710085,0.5465406450243964,nan
1740789303.30554,0.9138691676792745,-0.8516462363757039,0.8435440535164215,0.45787420808388374,nan
1740789303.3094459,0.8387467389785146,-0.7511295431805051,0.7464294954794842,0.3588279383285175,nan
1740789303.3133516,0.7513560388769508,-0.6395120329093718,0.6377623852168952,0.24968960237714147,nan
1740789303.3172576,0.651907181982182,-0.5172316429869305,0.5179374795299606,0.13082863733330174,nan
1740789303.3211658,0.5407046597731741,-0.38482090313707956,0.38743856862299375,0.0026950352088515343,nan
1740789303.3250716,0.41814646733095256,-0.24290432796465594,0.2468363493395592,-0.13418242009032955,nan
1740789303.3289773,0.28472248806641065,-0.09219500992708418,0.09678559723378513,-0.2791985569576272,nan
1740789303.3328831,0.14101214300694068,0.06650956642833189,-0.06197834694660158,-0.4316748498571257,nan
1740789303.3367891,-0.012318682703406098,0.23233246118272885,-0.22864375506273704,-0.5908630657857518,nan
1740789303.340695,-0.1745214174148075,0.40432293223970606,-0.402327326785951,-0.7559495013530746,nan
1740789303.3446007,-0.3447692601214278,0.5814627640767579,-0.582079609917957,-0.9260597833658963,nan
1740789303.3485065,-0.5221622868560489,0.7626732250184456,-0.7668909883934993,-1.1002642009546622,nan
1740789303.3524125,-0.7057331705381972,0.9468226002553644,-0.9556981956545131,-1.2775835326606773,nan
1740789303.3563182,-0.8944534732592797,1.1327342425221776,-1.1473913065345496,-1.4569953275578527,nan
1740789303.360224,-1.0872404650810146,1.319195077515909,-1.340821156606165,-1.6374405954486673,nan
1740789303.3641298,-1.282964418877076,1.504964496826936,-1.5348071341588778,-1.817830857487172,nan
1740789303.3680375,-1.480456326602475,1.6887835674102796,-1.728145286624933,-1.9970555052754404,nan
1740789303.3719432,-1.678515978667372,1.869384483478942,-1.9196166803842334,-2.1739894135837528,nan
1740789303.375849,-1.875920344854847,2.045500184184699,-2.107995950484592,-2.347500749385762,nan
1740789303.3797548,-2.0714321924847314,2.2158740585891605,-2.292059974930841,-2.5164589179008607,nan
1740789303.3836608,-2.2638088753125825,2.379269658238246,-2.4705966068438583,-2.6797425848160086,nan
1740789303.3875666,-2.4518112249848936,2.5344803371491045,-2.6424133969814823,-2.8362477128335786,nan
1740789303.3914723,-2.634212475764103,2.6803387392069125,-2.8063462388559977,-2.9848955501711716,nan
1740789303.3953784,-2.809807152701016,2.8157260538504523,-2.96126786898127,-3.124640508630477,nan
1740789303.3992841,-2.9774198534738234,2.9395809624943947,-3.1060961556358317,-3.2544778693573106,nan
1740789303.40319,-3.1359138547330154,3.0509082003811243,-3.2398021109305057,-3.373451255431889,nan
1740789303.4070957,-3.2841994749862833,3.1487866614578857,-3.361417562910314,-3.480659811950581,nan
1740789303.4110017,-3.4212421278180427,3.2323769774126014,-3.470042426885451,-3.575265036276971,nan
1740789303.4149115,-3.5460700015507522,3.3009285061442672,-3.5648515181555145,-3.6564972036359102,nan
1740789303.4188175,-3.657781304301171,3.353785669656798,-3.6451008517413497,-3.723661336180075,nan
1740789303.4227233,-3.755551016741,3.3903935866086345,-3.710133378641794,-3.776142667051102,nan
1740789303.426629,-3.8386370987103042,3.4103029504794127,-3.7593841124565746,-3.8134115547595524,nan
1740789303.4305348,-3.906386100122061,3.4131741104807123,-3.792384604926176,-3.8350278073891744,nan
1740789303.4344409,-3.958238131301355,3.3987803188870154,-3.8087667339960274,-3.840644380657306,nan
1740789303.4383466,-3.9937311529839024,3.3670101153390743,-3.8082657733740435,-3.8300104186976753,nan
1740789303.4422524,-4.0125045516132145,3.317868825815375,-3.7907227181731766,-3.8029736115348776,nan
1740789303.4461584,-4.014301971278266,3.2514791613161953,-3.756085847067528,-3.7594818485492,nan
1740789303.4500642,-3.9989733795761975,3.1680809087950754,-3.7044115073933708,-3.699584152742375,nan
1740789303.45397,-3.966476350817233,3.068029714439122,-3.635864115745279,-3.6234308862635016,nan
1740789303.4578757,-3.9168765562599526,2.9517949669763848,-3.5507153728015255,-3.5312732233928457,nan
1740789303.4617856,-3.850347457421587,2.819956796209604,-3.4493426973107524,-3.423461892962007,nan
1740789303.4656916,-3.7671692048962346,2.673202209375183,-3.332226890331885,-3.300445197963534,nan
1740789303.4695973,-3.6677267514802323,2.5123203951395867,-3.199949046890308,-3.162766325823638,nan
1740789303.473503,-3.5525071946944538,2.338197232009647,-3.053186738144986,-3.0110599684302284,nan
1740789303.4774091,-3.4220963699551796,2.151809044587463,-2.8927094929041326,-2.846048276478283,nan
1740789303.481315,-3.277174721626346,1.9542156573866971,-2.719373612833752,-2.6685361779697763,nan
1740789303.4852207,-3.1185124849364017,1.7465528017901482,-2.5341163609282646,-2.47940609574203,nan
1740789303.4891264,-2.9469642172140293,1.5300239371175002,-2.337949567712199,-2.2796121036543013,nan
1740789303.4930325,-2.7634627220431445,1.3058915516400291,-2.131952704176433,-2.0701735654979747,nan
1740789303.4969382,-2.56901241471563,1.0754680136836203,-1.9172654745843218,-1.8521683047739756,nan
1740789303.500844,-2.364682181730512,0.8401060466653221,-1.6950799859785104,-1.6267253571678881,nan
1740789303.5047498,-2.1515977910144595,0.601188904979863,-1.4666325544483367,-1.3950173608182554,nan
1740789303.5086594,-1.9309339129882428,0.36012033006475136,-1.2331952109543662,-1.1582526422894903,nan
1740789303.5125654,-1.7039058155489293,0.11831436770520791,-0.9960669717290046,-0.9176670585045887,nan
1740789303.5164711,-1.4717607984541996,-0.12281487132119313,-0.7565649399628405,-0.6745156567452655,nan
1740789303.520377,-1.2357694344640984,-0.3618634248240329,-0.5160153066325833,-0.43006421617303087,nan
1740789303.524283,-0.9972166859022346,-0.5974475849357632,-0.2757443189197657,-0.1855807351536145,nan
1740789303.5281887,-0.7573929660333045,-0.828213815004159,-0.037069284706463555,0.0576730710274265,nan
1740789303.5320945,-0.5175852148121275,-1.052848398400527,0.1987103188839145,0.2984501976899292,nan
1740789303.5360003,-0.27906805814154323,-1.2700867424346578,0.4303215660000852,0.5355266398996538,nan
1740789303.5399063,-0.043095118787644236,-1.4787222636506923,0.656526566336133,0.7677094808566861,nan
1740789303.543812,0.1891094544488137,-1.677614784484206,0.8761306499999172,0.9938447189265546,nan
1740789303.5477178,0.41635917480138107,-1.86569837555646,1.087990192446129,1.2128247749596501,nan
1740789303.5516236,0.6375130609654588,-2.0419885827280293,1.291020022058157,1.4235956242639836,nan
1740789303.5555246,0.8514830771261984,-2.205588983387396,1.4842003565304165,1.6251635007607073,nan
1740789303.5594304,1.0572411144257927,-2.355697022262572,1.666583218191801,1.8166011244336053,nan
1740789303.5633364,1.2538254627476797,-2.491609083263446,1.8372982827864135,1.9970534071520547,nan
1740789303.5672421,1.4403467261387652,-2.6127247604338573,1.9955581209517372,2.1657425962674437,nan
1740789303.571148,1.6159931400000307,-2.7185502979568743,2.1406627966660543,2.3219728200187175,nan
1740789303.5750537,1.7800352533082229,-2.8087011762536394,2.27200379223279,2.4651340036937763,nan
1740789303.5789597,1.9318299445417235,-2.882903828482354,2.3890672348843207,2.594705130638073,nan
1740789303.5828655,2.070823745624512,-2.940996479115556,2.491436405774352,2.710256827535978,nan
1740789303.5867712,2.1965554540245193,-2.9829291036857377,2.578793517938151,2.8114532588691867,nan
1740789303.590677,2.3086580190956543,-3.0087625161764477,2.650920755684329,2.8980533210330077,nan
1740789303.594583,2.4068596947851693,-3.018666597833686,2.707700573791128,2.969911132219037,nan
1740789303.5984888,2.4909844568876145,-3.012917688316813,2.7491152607645604,3.0269758198037446,nan
1740789303.6023974,2.560951689061591,-2.9918951670373373,2.775245776226375,3.069290612570079,nan
1740789303.6063032,2.616775147784128,-2.956077259187661,2.7862698781882207,3.0969912505862722,nan
1740789303.610209,2.658561222249305,-2.9060361072829184,2.782459561487965,3.110303730927191,nan
1740789303.6141148,2.6865065108732624,-2.842432154973075,2.764177833969256,3.109541412604208,nan
1740789303.6180208,2.700894741499575,-2.766007895379115,2.7318748620333375,3.095101509027191,nan
1740789303.6219265,2.7020930675616586,-2.677581041219762,2.686083521941851,3.067461001015992,nan
1740789303.6258323,2.6905477773097366,-2.578037178481964,2.6274143976630895,3.0271720077710196,nan
1740789303.6297383,2.6667794577090937,-2.468321969312088,2.5565502700970457,2.9748566572671833,nan
1740789303.633644,2.631377658727185,-2.3494329731336934,2.474240146155181,2.911201501220862,nan
1740789303.6375499,2.584995107416991,-2.222411157705163,2.381292879381333,2.836951523066182,nan
1740789303.6414557,2.5283415244434484,-2.0883321738959424,2.278570436556669,2.7529037902395914,nan
1740789303.6453617,2.4621770984639837,-1.948297469368423,2.166980867014133,2.6599008044885655,nan
1740789303.6492698,2.387305676042513,-1.8034253170948111,2.0474710331808925,2.558823605873748,nan
1740789303.6531756,2.3045677265325213,-1.6548418347118075,1.9210191621592765,2.450584687610082,nan
1740789303.6570814,2.214833142597306,-1.5036720701233652,1.7886272789409545,2.336120779882095,nan
1740789303.6609874,2.1189939377374625,-1.3510312275126417,1.6513135821227354,2.21638556126624,nan
1740789303.6648932,2.0179569023648134,-1.1980161060331438,1.5101048227575773,2.0923423563980394,nan
1740789303.668799,1.9126362796008303,-1.045696820936846,1.366028746237235,1.9649568780370814,nan
1740789303.672705,1.8039465210933807,-0.8951088737897535,1.2201066558740261,1.835190070716085,nan
1740789303.6766107,1.6927951817500364,-0.7472456347545104,1.0733461551433268,1.7039911117230204,nan
1740789303.6805165,1.5800760103954654,-0.6030512957214422,0.9267341233841397,1.5722906232731768,nan
1740789303.6844223,1.4666622909950555,-0.4634143483848582,0.7812299771552056,1.440994147400589,nan
1740789303.6883283,1.3534004862714513,-0.32916163623563155,0.6377592664347115,1.3109759323586023,nan
1740789303.692234,1.241104232303513,-0.20105302392284816,0.49720765146225715,1.1830730761939396,nan
1740789303.6961422,1.1305487290702743,-0.07977672157888961,0.3604153022849869,1.0580800696773913,nan
1740789303.700048,1.022465567920977,0.03405470444136216,0.2281717590210362,0.9367437769696182,nan
1740789303.7039537,0.9175380326542993,0.13990760932815233,0.1012112865304668,0.8197588883079623,nan
1740789303.7078595,0.8163969063161558,0.2373298175528863,-0.0197912473734414,0.707763874656964,nan
1740789303.7117655,0.7196168110187243,0.3259524286834496,-0.13422394578975674,0.6013374697110451,nan
1740789303.7156713,0.6277131030883493,0.4054908760868816,-0.24154088918946204,0.5009956999134941,nan
1740789303.719577,0.5411393407125471,0.475745240011503,-0.3412645599920696,0.4071894783037206,nan
1740789303.7234828,0.4602853360235552,0.5365998231510348,-0.43298767584989173,0.3203027730677642,nan
1740789303.7273889,0.3854757982750254,0.5880220032706048,-0.5163744273151487,0.24065135668873577,nan
1740789303.7312946,0.31696956948722266,0.6300603837609091,-0.5911611206224661,0.16848213661774658,nan
1740789303.7352004,0.2549594487014702,0.6628422690263939,-0.6571562313058122,0.10397306345511612,nan
1740789303.7391064,0.19957259584313525,0.6865704973530108,-0.7142398792418952,0.04723360778872822,nan
1740789303.743014,0.15087150118924592,0.7015196692905837,-0.7623627404303244,-0.001694207877301861,nan
1740789303.7469199,0.10885550161558324,0.7080318145777732,-0.8015444153448589,-0.042834240215096596,nan
1740789303.7508256,0.07346282020041409,0.70651154519109,-0.831871277982578,-0.07627414163539986,nan
1740789303.7547314,0.044573101427156266,0.6974207461753452,-0.8534938337636792,-0.10216278886276482,nan
1740789303.7586374,0.022010410192958744,0.6812728594773484,-0.8666236181617204,-0.12070725388370937,nan
1740789303.7625432,0.005546659127855461,0.6586268190290776,-0.8715296713430446,-0.13216935113765235,nan
1740789303.766449,-0.005094574609669885,0.6300806977871503,-0.8685346271388625,-0.13686179799449058,nan
1740789303.770355,-0.010233884843585393,0.5962651293141668,-0.858010457341243,-0.13514402837657472,nan
1740789303.7742608,-0.01023156851597228,0.5578365677715448,-0.8403739145860772,-0.1274177018151543,nan
1740789303.7781665,-0.005482900868951899,0.5154704508758151,-0.8160817189464863,-0.11412195226452468,nan
1740789303.7820723,0.0035867982497190722,0.4698543304494215,-0.7856255347976395,-0.0957284226169876,nan
1740789303.7859783,0.016527257682066556,0.421681034677119,-0.7495267855209621,-0.0727361320581676,nan
1740789303.7898853,0.03286845784764578,0.3716419250696684,-0.7083313541884426,-0.045666224168870555,nan
1740789303.793791,0.05212589294822298,0.32042030945292094,-0.6626042185065849,-0.015056644014003464,nan
1740789303.797697,0.07380584241190798,0.26868507006285014,-0.612924068008528,0.018543207637404947,nan
1740789303.8016028,0.0974106021553299,0.21708456306110413,-0.5598779507700676,0.05457779533912504,nan
1740789303.8055086,0.12244362734626354,0.16624084252138882,-0.504055995802373,0.09249069855823575,nan
1740789303.8094144,0.14841453988600686,0.11674425820910878,-0.4460462557564396,0.13172974448832706,nan
1740789303.8133204,0.17484395578240602,0.06914847232395396,-0.3864297126804665,0.17175198047454973,nan
1740789303.8172262,0.20126808992859105,0.023965935840028964,-0.32577548732321515,0.21202844453782138,nan
1740789303.821132,0.2272430985136696,-0.018336139793511824,-0.2646362898990049,0.25204869492894194,nan
1740789303.8250377,0.25234912234101337,-0.057339284987873336,-0.20354414735081608,0.291325062406597,nan
1740789303.8289437,0.276193997685876,-0.09267672317898727,-0.1430064389971136,0.3293965919878805,nan
1740789303.8328495,0.2984166049524268,-0.12403575119396969,-0.08350226905771961,0.36583264423539935,nan
1740789303.836759,0.3186898292546713,-0.1511595349026519,-0.02547920095822068,0.40023612968854294,nan
1740789303.840665,0.3367231111075026,-0.17384831202134665,0.030649625453244046,0.43224635378349574,nan
1740789303.8445709,0.35226456963364877,-0.19195999973913658,0.08450797654192771,0.46154145350117926,nan
1740789303.8484766,0.36510268502827503,-0.20541021060362025,0.1357585941349092,0.4878404109974099,nan
1740789303.8523827,0.3750675314338599,-0.21417168577868081,0.1841048421941671,0.5109046335673377,nan
1740789303.8562884,0.38203155582141823,-0.21827316031807034,0.22929192579854626,0.5305390934384991,nan
1740789303.8601942,0.38590990290814436,-0.21779768043379785,0.2711076813728597,0.5465930250352486,nan
1740789303.8641,0.38666029052439344,-0.21288039782799306,0.3093829411009876,0.558960181473997,nan
1740789303.868006,0.38428244413375723,-0.20370587095442952,0.34399147836683663,0.5675786560961894,nan
1740789303.8719118,0.37881710336915886,-0.1905049075374723,0.374849544847392,0.572430278788022,nan
1740789303.8758175,0.37034461743730507,-0.17355098676175715,0.40191501350236214,0.5735396006373853,nan
1740789303.8797233,0.35898315002724585,-0.15315630321911392,0.4251861451335173,0.5709724841061142,nan
1740789303.8836327,0.3448865179023569,-0.1296674779279706,0.4446999993943581,0.5648343193176761,nan
1740789303.8875384,0.3282416906271768,-0.1034609844971265,0.4605305140901914,0.5552678902477513,nan
1740789303.8914444,0.30926598185280557,-0.07493834076738211,0.4727862792956113,0.5424509175307425,nan
1740789303.8953502,0.2882039652312616,-0.04452111801306598,0.48160803520930967,0.5265933072349557,nan
1740789303.899256,0.2653241503281949,-0.012645821008040941,0.48716592474642506,0.5079341372916566,nan
1740789303.903162,0.24091545583578416,0.0202413070505344,0.48965653362100325,0.48673841527008765,nan
1740789303.9070678,0.21528351893841682,0.05368950061521707,0.4892997520833034,0.46329364285678204,nan
1740789303.9109735,0.18874688084137853,0.08724865509423155,0.48633549354006567,0.43790622371126253,nan
1740789303.9148793,0.16163308922976669,0.12047442453445611,0.4810203059948099,0.41089775232309167,nan
1740789303.9187853,0.1342747587773714,0.1529331822467718,0.4736239125980935,0.38260122208221153,nan
1740789303.922691,0.1070056307736246,0.18420679485627442,0.4644257175955239,0.3533571909940757,nan
1740789303.9265969,0.08015667248480848,0.21389716265030376,0.4537113136093006,0.32350994332516775,nan
1740789303.930506,0.054052256021472476,0.24163048193449352,0.441769025494916,0.2934036849583246,nan
1740789303.934412,0.029006455258818196,0.2670611883598328,0.42888652498981633,0.2633788093795848,nan
1740789303.9383178,0.005319497765843017,0.2898755438174335,0.41534754902942356,0.23376827002078207,nan
1740789303.9422235,-0.016725593239329598,0.30979483347385156,0.4014287529651249,0.2048940931597834,nan
1740789303.9461293,-0.03686613415459212,0.3265781437969853,0.38739672799840774,0.1770640637508853,nan
1740789303.9500353,-0.05486266329133133,0.3400246969567294,0.3735052099675033,0.15056861444198025,nan
1740789303.953941,-0.07050154285510903,0.34997572172910685,0.35999250421213624,0.12567794565570417,nan
1740789303.9578469,-0.0835972563434718,0.35631584593956894,0.3470791486247283,0.1026394019941987,nan
1740789303.961753,-0.0939943803900223,0.35897400050080575,0.33496583420076403,0.08167512739860236,nan
1740789303.9656587,-0.10156921355755048,0.3579238301826052,0.32383159945653345,0.06298001848407284,nan
1740789303.9695644,-0.10623104820000658,0.3531836113451969,0.31383231201971545,0.046719992309387545,nan
1740789303.9734702,-0.10792307523700384,0.3448156819227087,0.3050994475488091,0.03303058155875491,nan
1740789303.9773788,-0.10662291547836325,0.332925393909904,0.29773917293305124,0.022015866744744563,nan
1740789303.9812846,-0.10234277496236684,0.3176596034345037,0.2918317374974271,0.013747751618340534,nan
1740789303.9851906,-0.09512922559239276,0.2992047181420733,0.28743117271959134,0.008265584528130804,nan
1740789303.9890964,-0.08506261613507901,0.27778432603541425,0.28456529778860246,0.005576125038847875,nan
1740789303.9930022,-0.07225612234264434,0.2536564340532161,0.2832360252300658,0.0056538517324170295,nan
1740789303.996908,-0.05685444854676415,0.22711034850349882,0.2834199578184792,0.008441603804437519,nan
1740789304.000814,-0.03903219650729389,0.19846323294977658,0.28506926512365866,0.013851545866567002,nan
1740789304.0047197,-0.018991920553518664,0.16805638224899896,0.2881128253210883,0.021766442300223367,nan
1740789304.0086255,0.0030381089020909326,0.1362512541312014,0.29245761536092946,0.03204122460749956,nan
1740789304.0125313,0.02680640859582258,0.10342530196674339,0.2979903302603148,0.04450483249743057,nan
1740789304.0164373,0.05204102497304455,0.06996765416760753,0.30457921017922573,0.0589623069539509,nan
1740789304.020343,0.07845248641347916,0.036274686998746086,0.3120760520801128,0.0751971112779893,nan
1740789304.0242512,0.10573693352146535,0.002745538422856228,0.3203183811711088,0.09297365409955084,nan
1740789304.028157,0.13357939427125762,-0.03022238903900786,0.3291317560055059,0.11203998663320136,nan
1740789304.032063,0.1616571695277444,-0.06223788857923442,0.3383321800660428,0.13213064501611932,nan
1740789304.0359688,0.18964329354394255,-0.092920325273039,0.3477285919090125,0.1529696074329181,nan
1740789304.0398746,0.21721003347511847,-0.12190388200539663,0.3571254054846085,0.1742733349040509,nan
1740789304.0437803,0.24403239174876665,-0.14884163057529315,0.3663250720875666,0.19575386409984555,nan
1740789304.0476863,0.2697915752896906,-0.17340938540416737,0.3751306355246654,0.21712192034223093,nan
1740789304.051592,0.2941783961164837,-0.1953092997080116,0.38334825250840776,0.2380900190700802,nan
1740789304.055498,0.31689656869255484,-0.2142731668245598,0.3907896509920827,0.25837552446781165,nan
1740789304.0594037,0.3376658706210056,-0.23006539258839828,0.3972745001402001,0.27770363468359177,nan
1740789304.0633097,0.3562251348043677,-0.24248560818411186,0.40263266686748045,0.2958102640833559,nan
1740789304.0672154,0.3723350430305322,-0.25137089674411506,0.406706335363914,0.3124447942874044,nan
1740789304.0711236,0.38578069307542695,-0.25659761105391043,0.40935196773546795,0.3273726673024156,nan
1740789304.0750294,0.39637391380857384,-0.2580827640411944,0.41044208581027664,0.3403777958757611,nan
1740789304.0789351,0.40395530542456903,-0.2557849782123937,0.4098668562670306,0.35126476824117137,nan
1740789304.082841,0.4083959847746502,-0.2497049848151927,0.4075354635127069,0.35986082667321967,nan
1740789304.086747,0.40959901880860083,-0.23988566820162865,0.40337725714612754,0.36601760169909525,nan
1740789304.0906527,0.4075005323275547,-0.22641165559589166,0.39734266336631013,0.3696125864043993,nan
1740789304.0945585,0.40207047956055225,-0.20940845718633963,0.38940385229349517,0.37055033798865705,nan
1740789304.0984643,0.3933130724788708,-0.18904116611512647,0.3795551558387637,0.3687633965482453,nan
1740789304.1023703,0.3812668622182265,-0.16551273248441656,0.36781323345758576,0.36421291396102,nan
1740789304.106276,0.3660044734556829,-0.13906182989005977,0.3542169858256411,0.3568889886891967,nan
1740789304.1101818,0.34763199505128356,-0.10996033718788921,0.33882721915427894,0.34681070527579794,nan
1740789304.1140876,0.3262880336798752,-0.07851046215273981,0.32172606549078664,0.3340258802561884,nan
1740789304.1179955,0.3021424405131531,-0.04504153736652629,0.30301616689887834,0.31861051911107197,nan
1740789304.1219013,0.27539472423304895,-0.009906522032885608,0.2828196338620237,0.30066799172278075,nan
1740789304.125807,0.24627216673414354,0.026521753571364208,0.2612767905721745,0.2803279365354768,nan
1740789304.1297128,0.21502766077516702,0.06385456166298402,0.23854472193644113,0.2577449062359179,nan
1740789304.1336188,0.18193729154012317,0.10169142696157746,0.21479563913316868,0.2330967702400956,nan
1740789304.1375246,0.14729768654249556,0.1396244097606483,0.19021508235760543,0.20658289156919085,nan
1740789304.1414304,0.11142316052801338,0.17724247731807077,0.16499998099867833,0.1784220978048184,nan
1740789304.1453362,0.07464268398185145,0.2141359179183445,0.13935659286752153,0.14885046770904203,nan
1740789304.1492422,0.03729670550694073,0.24990075151862717,0.11349834524273306,0.11811895676244435,nan
1740789304.153148,-0.0002661403039024092,0.28414309091910916,0.08764360139673597,0.08649088629869534,nan
1740789304.1570537,-0.037692406839997986,0.31648340789481966,0.062013376914642905,0.054239322084627645,nan
1740789304.1609595,-0.07462725791327988,0.3465606596851558,0.03682903050665116,0.02164436910114613,nan
1740789304.1648667,-0.11071790490916646,0.3740362326492128,0.012309954144972962,-0.011009590084552401,nan
1740789304.1687725,-0.1456170248411048,0.398597661744844,-0.011328712773037727,-0.043436685605210634,nan
1740789304.1726785,-0.17898612578621398,0.4199620867584327,-0.03387832091956686,-0.07535235140503008,nan
1740789304.1765842,-0.21049882679229295,0.43787940887760135,-0.05513887650929402,-0.10647608953603667,nan
1740789304.18049,-0.23984402028064408,0.45213511423359026,-0.07492111195025028,-0.13653418046326538,nan
1740789304.184396,-0.26672888621425406,0.4625527344132017,-0.09304843998360858,-0.16526231293227947,nan
1740789304.1883018,-0.29088172884343594,0.4689959176181442,-0.109358770954313,-0.19240810793809482,nan
1740789304.1922076,-0.3120546086647095,0.47137008809534786,-0.123706174389823,-0.21773351256455928,nan
1740789304.1961133,-0.3300257443146027,0.46962367563583796,-0.13596236778729479,-0.24101704092376103,nan
1740789304.2000194,-0.34460166144657217,0.4637489013001973,-0.14601801740140147,-0.26205584110007707,nan
1740789304.2039251,-0.3556190681827562,0.45378211003194274,-0.1537838378654507,-0.2806675688748615,nan
1740789304.207831,-0.3629464394669234,0.43980364542116185,-0.1591914796457213,-0.29669205105579327,nan
1740789304.2117407,-0.3664852955432564,0.421937266533591,-0.16219419560013237,-0.3099927234379851,nan
1740789304.2156465,-0.3661711628184675,0.40034911137847123,-0.16276728026355153,-0.3204578307592424,nan
1740789304.2195523,-0.36197420850196177,0.37524621620536774,-0.1609082778888514,-0.32800137845546434,nan
1740789304.223458,-0.3538995436291358,0.34687460434974354,-0.15663695771009992,-0.3325638285490784,nan
1740789304.227364,-0.3419871923248225,0.3155169627440317,-0.1499950573370212,-0.334112534588115,nan
1740789304.2312698,-0.3263117284251462,0.2814899284313992,-0.1410457976128256,-0.33264191317007136,nan
1740789304.2351756,-0.3069815838148787,0.24514101142124223,-0.12987317464610473,-0.3281733522070545,nan
1740789304.2390816,-0.2841380360219268,0.2068451839685192,-0.11658103703733373,-0.320754858690711,nan
1740789304.2429874,-0.25795388570999317,0.16700116980601037,-0.10129195853832948,-0.3104604512717329,nan
1740789304.2468932,-0.22863183769464535,0.12602746997492606,-0.08414591848648173,-0.29738930545414904,nan
1740789304.250799,-0.19640260194815706,0.08435816465361508,-0.06529880432340587,-0.281664661595038,nan
1740789304.254705,-0.16152273372735168,0.04243853274891872,-0.04492075232053409,-0.26343250817283814,nan
1740789304.2586143,-0.12427223443074056,0.0007205329659409332,-0.02319434427384525,-0.24286005492021187,nan
1740789304.26252,-0.08495193704305598,-0.04034180840995615,-0.000312679380517097,-0.2201340123903674,nan
1740789304.2664258,-0.04388070203552358,-0.0802970567158902,0.023522658242556917,-0.19545869632025728,nan
1740789304.2703319,-0.0013924513402668764,-0.11870102818653978,0.04810371490650927,-0.1690539767537446,nan
1740789304.2742376,0.04216693050919928,-0.1551214022461434,0.07321834326588028,-0.14115309327783424,nan
1740789304.2781434,0.08644279779575612,-0.1891422400874664,0.09865241592879985,-0.11200035889328153,nan
1740789304.2820492,0.13107501643568722,-0.22036836359887796,0.12419205355253678,-0.08184877597698237,nan
1740789304.2859552,0.17570127646039208,-0.24842954995028307,0.1496258441185814,-0.050957588489916675,nan
1740789304.289861,0.2199604121651032,-0.2729844988450404,0.17474703022555566,-0.019589795035601584,nan
1740789304.2937667,0.26349569797755157,-0.2937245315718452,0.1993556416203935,0.011990352422695458,nan
1740789304.2976725,0.30595808846214295,-0.31037698352761917,0.2232605508039436,0.043519839422904834,nan
1740789304.3015785,0.34700937154527334,-0.3227082548052335,0.2462814303892976,0.074739344971524,nan
1740789304.3054876,0.3863252050170076,-0.33052648672001517,0.26825059195042444,0.1053956386788597,nan
1740789304.3093934,0.4235980076229495,-0.3336838357548388,0.2890146873636527,0.1352438958915777,nan
1740789304.3132994,0.45853967759426933,-0.33207832030001666,0.30843625510167255,0.16404990864568197,nan
1740789304.3172052,0.49088411325745207,-0.3256552197133425,0.32639509557356955,0.19159217147104735,nan
1740789304.321111,0.5203895123998026,-0.31440800958707604,0.3427894613978251,0.21766382248743496,nan
1740789304.3250167,0.5468404293211978,-0.2983788216398491,0.357537050429427,0.24207442182628586,nan
1740789304.3289227,0.5700495709541485,-0.27765842130821694,0.37057579141722935,0.2646515511752878,nan
1740789304.3328285,0.5898593160579892,-0.2523857008493116,0.38186441432208246,0.2852422201551241,nan
1740789304.3367343,0.6061429442626651,-0.22274669053651333,0.3913827995579799,0.3037140672798304,nan
1740789304.3406403,0.6188055646252919,-0.18897309528746828,0.39913210270441696,0.3199563454025762,nan
1740789304.344546,0.627784736339722,-0.15134036876155044,0.4051346535551269,0.33388068378524743,nan
1740789304.3484519,0.6330507772760717,-0.11016534155589042,0.4094336306925129,0.3454216212299711,nan
1740789304.3523605,0.6346067590935962,-0.06580342457025071,0.4120925150849062,0.3545369070502969,nan
1740789304.3562663,0.6324881907360971,-0.01864541285764547,0.41319432847171955,0.36120756901542467,nan
1740789304.360172,0.6267623951541953,0.030886080712163082,0.41284066450675155,0.36543774974887533,nan
1740789304.364078,0.6175275870734646,0.08234052891491528,0.41115052274999075,0.36725431537993497,nan
1740789304.3679838,0.6049116625126582,0.13524369427705954,0.4082589576119748,0.366706242508858,nan
1740789304.3718896,0.5890707135239828,0.18910209426662616,0.40431555624182425,0.36386379173292865,nan
1740789304.3757954,0.5701872842508818,0.24340768531527857,0.3994827610916828,0.35881747806847697,nan
1740789304.3797014,0.5484683868526337,0.2976427211242942,0.3939340544689411,0.3516768505734345,nan
1740789304.3836071,0.5241432981059951,0.35128473884183703,0.38785202378782996,0.3425690953069237,nan
1740789304.387513,0.49746115954034975,0.403811625279791,0.3814263274397361,0.331637477439101,nan
1740789304.3914187,0.4686884057751556,0.45470671438029436,0.3748515822051422,0.31903963982996886,nan
1740789304.3953247,0.438106047289945,0.5034638666550305,0.36832519391967516,0.3049457767161603,nan
1740789304.3992329,0.406006835153204,0.5495924813098835,0.36204515367474294,0.2895367022673523,nan
1740789304.4031386,0.372692336255455,0.5926223922347562,0.3562078221743332,0.27300183468900086,nan
1740789304.4070446,0.3384699483247307,0.632108599979478,0.35100572498077925,0.2555371172473774,nan
1740789304.4109504,0.3036498844432206,0.667635793243519,0.34662538126286874,0.23734289807066516,nan
1740789304.4148562,0.2685421569290063,0.6988226152669597,0.3432451883113411,0.2186217908325872,nan
1740789304.418762,0.23345359029602492,0.7253256328055825,0.3410333835134154,0.19957653845139472,nan
1740789304.422668,0.19868489256148725,0.7468429680826592,0.34014610468584305,0.18040790173812335,nan
1740789304.4265738,0.16452781343829162,0.7631175572085912,0.34072556866335774,0.16131259450707736,nan
1740789304.4304795,0.1312624169388516,0.773940002017723,0.3428983868369147,0.14248128602400656,nan
1740789304.4343853,0.09915449463731536,0.7791509860566603,0.3467740349462176,0.12409669082117968,nan
1740789304.4382913,0.0684531443029665,0.7786432295343719,0.3524434928680754,0.10633176486314216,nan
1740789304.442197,0.03938853684481718,0.7723629623724168,0.35997806842223495,0.08934802581413309,nan
1740789304.4461052,0.012169892514558737,0.7603108990325527,0.3694284173570692,0.07329401375153019,nan
1740789304.450011,-0.013016314877453564,0.7425427035054276,0.3808237696979102,0.058303907104366594,nan
1740789304.4539168,-0.0360079093480682,0.7191689376730164,0.39417137056101087,0.044496306888853795,nan
1740789304.4578226,-0.056668305866442954,0.6903544911626953,0.409456141377289,0.03197320048195137,nan
1740789304.4617286,-0.07488753400569272,0.6563174957453739,0.4266405652540084,0.0208191142386975,nan
1740789304.4656343,-0.09058298365885792,0.6173277322465505,0.44566479795179037,0.011100462239444865,nan
1740789304.46954,-0.10369986718040307,0.5737045427903122,0.46644700369159686,0.0028650963704708573,nan
1740789304.473446,-0.1142113951824556,0.5258142659355678,0.4888839127543399,-0.0038579391829484237,nan
1740789304.477352,-0.12211866609899448,0.4740672168455373,0.5128515956172026,-0.009058448095979941,nan
1740789304.4812577,-0.1274502725023037,0.41891423901161723,0.5382064462079263,-0.01274491792296305,nan
1740789304.4851635,-0.13026162998587498,0.3608428581890087,0.5647863647727491,-0.014944155299938389,nan
1740789304.4890692,-0.13063403718836472,0.3003730730538723,0.5924121288664289,-0.01570072572744647,nan
1740789304.4929776,-0.12867347819705555,0.23805282062328856,0.6208889391034043,-0.015076205335502304,nan
1740789304.4968834,-0.12450918111029385,0.1744531576554299,0.6500081245764372,-0.013148253951157728,nan
1740789304.5007892,-0.11829194893152975,0.11016320203759947,0.6795489912701042,-0.010009520601473447,nan
1740789304.5046952,-0.11019228118975367,0.045784880546881,0.7092807953868308,-0.005766394272994717,nan
1740789304.508601,-0.10039830671034947,-0.01807246869114414,0.7389648222767542,-0.0005376142960890815,nan
1740789304.5125067,-0.08911354977734237,-0.08079758923468527,0.7683565506314364,0.005547243886383854,nan
1740789304.5164127,-0.07655455351504308,-0.14178284402270142,0.7972078807753424,0.012349390585276194,nan
1740789304.5203185,-0.06294838565908359,-0.20042974637493002,0.8252694052760494,0.019722533345758807,nan
1740789304.5242243,-0.04853005297121093,-0.25615443288393247,0.8522926996999779,0.027514659173700596,nan
1740789304.52813,-0.033539851368809194,-0.3083930272252519,0.8780326111686476,0.03556986799046114,nan
1740789304.532036,-0.01822067938160184,-0.3566068448320473,0.902249522422397,0.04373023735545555,nan
1740789304.5359418,-0.0028153428098265337,-0.4002873897753354,0.9247115693730281,0.05183769826151989,nan
1740789304.5398488,0.012436121561624332,-0.4389610970476285,0.9451967906209836,0.059735901784633304,nan
1740789304.5437548,0.027299075638830807,-0.47219377574875004,0.963495188120785,0.06727205655609349,nan
1740789304.5476606,0.041546836107043024,-0.49959471139659495,0.9794106790931757,0.0742987174193775,nan
1740789304.5515664,0.054963130801455054,-0.5208203887067885,0.9927629203940042,0.0806755062305965,nan
1740789304.5554721,0.06734443033885995,-0.5355777996743115,1.0033889878467905,0.0862707465540413,nan
1740789304.5593781,0.07850213134590771,-0.543627305614161,1.0111448945147488,0.09096299498378672,nan
1740789304.563284,0.08826456921216444,-0.5447850259408995,1.0159069335135311,0.09464245297810372,nan
1740789304.5671897,0.0964788401069774,-0.5389247308495292,1.0175728327316373,0.09721224441292206,nan
1740789304.5710957,0.10301241400973336,-0.5259792196609278,1.016062710712942,0.09858954552973731,nan
1740789304.5750015,0.10775452269270859,-0.5059411713706318,1.011319824946193,0.0987065555565353,nan
1740789304.5789073,0.11061730894199812,-0.4788634588446495,1.0033111058790247,0.09751129800050669,nan
1740789304.582813,0.11153672578109743,-0.4448589230938626,0.9920274721082873,0.09496824443057307,nan
1740789304.5867229,0.11047317704835896,-0.40409960908203046,0.9774839243723873,0.09105875446687078,nan
1740789304.5906286,0.10741189334761568,-0.35681546953388305,0.9597194181630989,0.08578132765357968,nan
1740789304.5945344,0.10236304011377752,-0.3032925481616869,0.9387965169616588,0.07915166489044878,nan
1740789304.5984404,0.09536155728467842,-0.2438706585741075,0.9148008302649399,0.0712025391162802,nan
1740789304.6023462,0.08646673281930936,-0.17894057982420244,0.8878402426803681,0.06198347695365829,nan
1740789304.606252,0.07576151502313005,-0.10894079404945695,0.858043942411721,0.05156025501749948,nan
1740789304.610158,0.06335157130617322,-0.03435379591342115,0.8255612594116921,0.040014216539986075,nan
1740789304.6140637,0.049364103582529156,0.04429799246466557,0.790560325321504,0.02744141585122718,nan
1740789304.6179695,0.03394643299460938,0.1264566637464869,0.7532265690345487,0.013951600058980029,nan
1740789304.6218753,0.017264368987876408,0.21153358412421974,0.7137610632930804,-0.0003329610261969869,nan
1740789304.6257813,-0.0004996200520878511,0.2989144250056507,0.6723787391386378,-0.015278784089622285,nan
1740789304.629687,-0.01914841537957003,0.3879644215438773,0.6293064862745255,-0.030742606554325102,nan
1740789304.6335967,-0.03847241465415434,0.47803380984167176,0.584781158449919,-0.04657293048499738,nan
1740789304.6375024,-0.05825183426417729,0.5684633930353098,0.5390475038300884,-0.06261165963494168,nan
1740789304.6414082,-0.07825912321627448,0.6585901853065796,0.49235604096744223,-0.07869581215300173,nan
1740789304.6453142,-0.09826146347888849,0.7477530821951466,0.44496090142768985,-0.09465929068702868,nan
1740789304.64922,-0.1180233308028789,0.8352985053927878,0.3971176603503363,-0.11033469103156304,nan
1740789304.6531258,-0.13730908944127795,0.9205859704974926,0.34908117623130547,-0.12555513007561228,nan
1740789304.6570315,-0.15588559385857417,1.002993526985999,0.30110346100816576,-0.1401560736156251,nan
1740789304.6609375,-0.1735247704605428,1.0819230209201065,0.25343160110786767,-0.15397714461056913,nan
1740789304.6648433,-0.19000615258897857,1.1568051326227833,0.20630574948792602,-0.16686389267008395,nan
1740789304.668749,-0.20511934250908448,1.2271041437278927,0.15995720787155918,-0.1786695059804865,nan
1740789304.6726549,-0.21866637486574608,1.292322390601341,0.11460661735433185,-0.1892564474824691,nan
1740789304.6765609,-0.23046395709046524,1.3520043641264448,0.07046227435542747,-0.19849799791207723,nan
1740789304.68047,-0.24034556349320188,1.405740419213661,0.027718587513341063,-0.20627968929465407,nan
1740789304.6843758,-0.24816336125968916,1.453170061101908,-0.013445310401713257,-0.21250061362938855,nan
1740789304.6882818,-0.2537899482800987,1.4939847795301728,-0.05286678315234504,-0.21707459280821506,nan
1740789304.6921875,-0.2571198846415921,1.5279304061353207,-0.09040073365578437,-0.21993119726300753,nan
1740789304.6960933,-0.2580710017063307,1.5548089749341443,-0.12592045983233377,-0.22101660241470547,nan
1740789304.699999,-0.2565854749465076,1.5744800704315909,-0.15931831692137227,-0.2202942736902788,nan
1740789304.703905,-0.2526306490964804,1.586861652718144,-0.19050618153961696,-0.21774547266118263,nan
1740789304.7078109,-0.24619960668483157,1.5919303538313323,-0.21941571483108885,-0.21336957872126686,nan
1740789304.7117167,-0.2373114736012091,1.5897212446127,-0.2459984241526617,-0.20718422264401667,nan
1740789304.7156224,-0.22601145800784223,1.58032707624491,-0.2702255248313775,-0.19922523031838513,nan
1740789304.7195284,-0.2123706215972736,1.5638970055569945,-0.2920876055984536,-0.18954637693926657,nan
1740789304.7234342,-0.1964853848988722,1.5406348179925229,-0.31159410332859233,-0.1782189539023685,nan
1740789304.7273457,-0.17847677102023712,1.5107966668000015,-0.3287725946711415,-0.16533115260347578,nan
1740789304.7312517,-0.1584893948487013,1.474688351483109,-0.3436679140315954,-0.15098727124886205,nan
1740789304.7351575,-0.13669020730642434,1.4326621627979264,-0.3563411091286394,-0.1353067526270578,nan
1740789304.7390633,-0.11326700672439445,1.3851133255652839,-0.36686824699537784,-0.1184230625535392,nan
1740789304.742969,-0.08842673175132963,1.3324760742410535,-0.3753390847965106,-0.1004824203607672,nan
1740789304.746875,-0.06239355241958303,1.2752193995214487,-0.38185562118087496,-0.08164239434952585,nan
1740789304.7507808,-0.035406778029625725,1.2138425072227472,-0.38653054506688794,-0.06207037652749484,nan
1740789304.7546866,-0.007718602367359993,1.1488700332381094,-0.38948559975529184,-0.04194195222318293,nan
1740789304.7585924,0.02040829158418377,1.0808470605143339,-0.3908498810687475,-0.021439181264493436,nan
1740789304.7624984,0.04870324385150874,1.010333985689194,-0.3907580888234265,-0.0007488083401264382,nan
1740789304.7664042,0.07689022181859917,0.9379012842698737,-0.38934875133734703,0.01993957909105709,nan
1740789304.77031,0.10469049099668551,0.8641242240043676,-0.3867624428702453,0.04043542642013113,nan
1740789304.7742183,0.13182532581103346,0.7895775763938231,-0.3831400138680113,0.060549101753230174,nan
1740789304.7781243,0.1580187335779809,0.7148303761132935,-0.3786208536520675,0.0800937805743908,nan
1740789304.78203,0.18300016469138738,0.6404407774535422,-0.3733412047525727,0.09888730579706023,nan
1740789304.7859359,0.2065071821524505,0.5669510557752777,-0.36743254743928633,0.11675400403384056,nan
1740789304.7898417,0.22828806395967655,0.494882800390723,-0.36102007216170423,0.13352643935108183,nan
1740789304.7937477,0.24810431252226275,0.4247323432724728,-0.35422125658004144,0.1490470864055683,nan
1740789304.7976534,0.26573304616417137,0.3569664655559884,-0.3471445626612219,0.16316990567871445,nan
1740789304.8015592,0.2809692489381009,0.29201842097462305,-0.3398882679424176,0.17576180452074128,nan
1740789304.8054652,0.2936278563572765,0.23028431217245596,-0.3325394435428204,0.18670396888336202,nan
1740789304.809371,0.3035456562640905,0.17211985231236115,-0.3251730898486839,0.19589305194235448,nan
1740789304.8132768,0.3105829858723304,0.11783754056902708,-0.31785143902424967,0.2032422072778376,nan
1740789304.8171825,0.3146252080254697,0.06770427600697324,-0.31062343163095973,0.20868195587469707,nan
1740789304.8210907,0.31558395188752714,0.021939430031650747,-0.3035243726887249,0.2121608779125394,nan
1740789304.8249965,0.3133981056031755,-0.019286606890132365,-0.29657577050677636,0.21364612211579326,nan
1740789304.8289025,0.30803455090735515,-0.05585339317254303,-0.2897853595686118,0.2131237273121631,nan
1740789304.8328083,0.2994886322066968,-0.08769091236737353,-0.2831473066976656,0.21059875278178355,nan
1740789304.836714,0.2877843552707341,-0.11477955615184375,-0.27664259767890786,0.20609521595073155,nan
1740789304.8406198,0.2729743133335187,-0.13714961722886043,-0.2702395994888088,0.19965583797029718,nan
