timestamps,TP9,AF7,AF8,TP10,Right AUX
1740792976.9119146,-0.34247967762284437,0.0026023010822963056,-0.3176255909899529,0.9405067619939222,nan
1740792976.9158204,0.13104559800993026,0.3134722556925542,0.535939487644716,0.43158345494797795,nan
1740792976.9197264,0.4046262196134926,0.3930367489364719,1.1863368077938583,-0.39697542158751564,nan
1740792976.9236321,0.12577787652062278,0.18623447459777115,1.2203821637509609,-0.9489773645183669,nan
1740792976.927538,-0.39296682915977993,-0.19096489273821354,0.6699554126958144,-0.8756758370641361,nan
1740792976.931444,-0.47889960347581145,-0.5061345772730755,-0.11235957815057306,-0.2945089162074226,nan
1740792976.9353497,0.1313616122210658,-0.5149223233167722,-0.7703912910646277,0.3656984727899399,nan
1740792976.9392557,0.8976184956209895,-0.11339449001727904,-1.1031452483343314,0.6834494138122627,nan
1740792976.9431615,0.9532147739221183,0.5194076782361755,-1.0216980246901703,0.49898061318032677,nan
1740792976.9470673,0.023769182137252032,0.9450110090186896,-0.5212393590285913,0.004628980601052716,nan
1740792976.9509733,-1.175675649551296,0.7555087943848886,0.23124768544783564,-0.3718023123105525,nan
1740792976.954879,-1.5510154356397554,-0.03895576223700004,0.8651376427427491,-0.2862034381610918,nan
1740792976.9587884,-0.6878857207608498,-0.9061298290618669,1.0052892913143077,0.18680068914645537,nan
1740792976.9626942,0.7142939096056958,-1.1755384208007353,0.5800439712398178,0.5456432235250219,nan
1740792976.9666,1.4985872877428328,-0.6260098941216745,-0.08442253904934832,0.3171202014904972,nan
1740792976.970506,1.1373520347003487,0.29259873020631283,-0.520232543220066,-0.4021707305849003,nan
1740792976.9744117,0.1459552070821948,0.8631172934115119,-0.4931013502446637,-0.9328702055430756,nan
1740792976.9783177,-0.5519598057268524,0.7486233637136999,-0.14756705146651508,-0.6679077438856093,nan
1740792976.9822235,-0.571572358227561,0.23171204018064348,0.17469917634910329,0.2422735006556266,nan
1740792976.9861293,-0.3118706476439495,-0.1686794938302744,0.22902506940391962,0.9643853418142098,nan
1740792976.9900353,-0.32130581258884383,-0.24217609739288806,0.01784238947710208,0.8211325151275878,nan
1740792976.993941,-0.589551101412125,-0.191829121170225,-0.26307198462910614,0.005479286543371811,nan
1740792976.997847,-0.5899831318085932,-0.24860764761576418,-0.3782488787484275,-0.638862165332267,nan
1740792977.0017529,0.02308018379941106,-0.32615114149641644,-0.203037631236466,-0.5385374599390479,nan
1740792977.005662,0.9174720495580514,-0.15929615295609587,0.18127708766489756,0.02931067754052559,nan
1740792977.0095677,1.3708651739379076,0.267042876178784,0.5078017329762224,0.3401631046875965,nan
1740792977.0134737,0.995710610772928,0.5814662303061922,0.5044106642864271,0.09461430726133954,nan
1740792977.0173795,0.08263527809654601,0.41103162812086946,0.1392250251693632,-0.28375480391902297,nan
1740792977.0212853,-0.7543192390392197,-0.15151690997345418,-0.30381198030897155,-0.24062426757928887,nan
1740792977.0251913,-1.1405611075010835,-0.5832939714570626,-0.4563239576980979,0.19642005234804444,nan
1740792977.029097,-1.0868973662866506,-0.4731295269934538,-0.2196718343974338,0.4678701776828333,nan
1740792977.033003,-0.7112260281370244,0.03994711969940571,0.13099218021878423,0.20473753181431784,nan
1740792977.0369089,-0.04780057115215863,0.43474319508960085,0.23632756791356935,-0.2988294467658638,nan
1740792977.0408146,0.7783243410056998,0.37884851487635374,0.03681422217876893,-0.4492664109644404,nan
1740792977.0447206,1.3497295443595658,0.041862966489135296,-0.1827354031689616,-0.0839928478491406,nan
1740792977.0486264,1.1848198606992886,-0.17601316008210136,-0.14435124772195262,0.34409609429422217,nan
1740792977.0525367,0.2691581105166135,-0.12616728659281634,0.09011422777682246,0.336313013408411,nan
1740792977.0564425,-0.7571188460715326,-0.01762494968113042,0.20651659904827488,-0.05785957203142811,nan
1740792977.0603485,-1.1120587286459729,-0.06736841116480217,0.04263990504357432,-0.34767562644070654,nan
1740792977.0642543,-0.616456395759928,-0.18618468377513844,-0.19091790192632843,-0.22998489246348228,nan
1740792977.06816,0.14503622486202958,-0.11476124726006984,-0.1614000144317809,0.073227694135734,nan
1740792977.072066,0.4478865424136561,0.18024885012615302,0.15664974711611476,0.1635113636382406,nan
1740792977.0759718,0.15466431678813525,0.3916721023054139,0.4064893118603805,0.002574437409641474,nan
1740792977.0798779,-0.24181865076733558,0.22562760007391425,0.2495713691544833,-0.07265056379077957,nan
1740792977.0837836,-0.24642166530396883,-0.20267527373857305,-0.21837999105520084,0.14695158589082008,nan
1740792977.0876894,0.10086527929645879,-0.44680046817808855,-0.5370408972282944,0.4106134376955669,nan
1740792977.0915954,0.36590836025766554,-0.22880441358812484,-0.3769501751547663,0.30491720697388397,nan
1740792977.0955012,0.28897078989952724,0.22318413483982233,0.09974939540770333,-0.19297478120900058,nan
1740792977.0994112,0.059035148412134544,0.41619500227819256,0.41996648530710506,-0.6253206273962859,nan
1740792977.103317,0.0005435698779470458,0.14822604760430136,0.3074302768180851,-0.5627747252277508,nan
1740792977.107223,0.1233518657033445,-0.2646311661790279,-0.05330059685503524,-0.09123852197814158,nan
1740792977.1111288,0.12038673529730376,-0.35344380603330816,-0.2622566311374958,0.31122452679343215,nan
1740792977.1150346,-0.2008564352074079,-0.029567934023769598,-0.14417274663203372,0.33270358602255096,nan
1740792977.1189406,-0.6152113943814508,0.32549471189286766,0.11050443106523349,0.1317380579618232,nan
1740792977.1228464,-0.6931187601832817,0.3033175385304089,0.21126129593833534,0.05765517736046716,nan
1740792977.1267524,-0.27519591530239274,-0.07265465741438218,0.08994770596922472,0.19193633618205203,nan
1740792977.1306581,0.34924836277622495,-0.3861691314547058,-0.0773288301600729,0.288771707577983,nan
1740792977.1345642,0.7393962041812651,-0.2976243035717073,-0.11614478133861554,0.1347967620932249,nan
1740792977.13847,0.7049303302799155,0.09467343243026378,-0.04400430218754344,-0.17719974644965647,nan
1740792977.1423757,0.3839846164708277,0.3840975734801716,-0.002426291484497936,-0.39489181456641187,nan
1740792977.1462855,0.005291053428414458,0.29770207164079654,-0.05713097556063047,-0.4236426877291431,nan
1740792977.1501915,-0.3154145728147202,-0.04344719685606322,-0.12078468209890299,-0.36877628664365486,nan
1740792977.1540973,-0.5394701859086201,-0.2932819645161567,-0.07042949628674945,-0.28507623038445234,nan
1740792977.1580033,-0.5886409896541154,-0.2485015644120238,0.0987188166908164,-0.047315894140173335,nan
1740792977.161909,-0.38293156957686353,-0.013949562714757292,0.25516279754092697,0.4204863070655734,nan
1740792977.1658149,0.007782688067570992,0.16274990978917928,0.25110887694227446,0.867554131031043,nan
1740792977.169721,0.34646457372573775,0.15659920695445567,0.05293831833361323,0.8500035187278681,nan
1740792977.1736267,0.4306485299648367,0.04524808722523151,-0.22250429347981107,0.2254444600639091,nan
1740792977.1775327,0.2886216495862163,-0.03139982456606932,-0.3776442917090425,-0.5724080870257362,nan
1740792977.1814384,0.12335873101715444,-0.0327708434440392,-0.26556366268102055,-0.8864043292033447,nan
1740792977.1853442,0.06820968903787421,-0.02532108395728313,0.08451394824679312,-0.4940494609500847,nan
1740792977.1892502,0.05583248579708826,-0.06518904950702183,0.43959332147082875,0.1552482655258095,nan
1740792977.1931612,-0.04812127108464838,-0.11553776326525643,0.5023087631694997,0.4082194629257884,nan
1740792977.197067,-0.23646830317031378,-0.09130658883336586,0.1577411236906226,0.07706456457686492,nan
1740792977.200973,-0.3538538002247962,0.032399602376638914,-0.3793083785546444,-0.40824640271615426,nan
1740792977.2048788,-0.2931292332874844,0.1763673811575102,-0.6957989505071265,-0.49031645439421806,nan
1740792977.2087846,-0.1260239530787742,0.22517070725340793,-0.5211294869267868,-0.050850641898236695,nan
1740792977.2126906,0.007914481861686952,0.1333654739335714,0.028440284000216386,0.5299816943906746,nan
1740792977.2165964,0.09848559818682756,-0.03656807397111568,0.5468118278481571,0.7993539327825675,nan
1740792977.2205024,0.2641340311213076,-0.17448352725133576,0.6887934715223544,0.6314586042976652,nan
1740792977.2244081,0.5271070658850738,-0.21334533395919472,0.43246166632169586,0.22450863364597504,nan
1740792977.228314,0.6598830380029919,-0.1628480428303361,0.020939528779780135,-0.18253665734963653,nan
1740792977.23222,0.3595483518504199,-0.06836612998307208,-0.3011728260478793,-0.5003801005396101,nan
1740792977.2361257,-0.379813806656759,0.041914893577221175,-0.4552044073661326,-0.7266558955327046,nan
1740792977.2400353,-1.1105682112327993,0.1563538800492375,-0.467972708509802,-0.8013712074383509,nan
1740792977.243941,-1.2316022597876661,0.2373616613480732,-0.3416523722220977,-0.6041698895151695,nan
1740792977.247847,-0.5175611443348878,0.2131183522246972,-0.05973913333941477,-0.09911387769999704,nan
1740792977.2517529,0.6171071364606311,0.045446852551382734,0.2946773809497255,0.5492909051991027,nan
1740792977.2556589,1.3942861127247224,-0.1890722972238476,0.5164811316177444,1.0256791282447668,nan
1740792977.2595646,1.2732782744917532,-0.3170114230762324,0.44505846133864596,1.0529689635279764,nan
1740792977.2634704,0.36950838729451935,-0.20952042196704554,0.14524162550475056,0.5862842206728877,nan
1740792977.2673764,-0.6543857530004218,0.07557764101689145,-0.13294206213492296,-0.12483173011511439,nan
1740792977.2712822,-1.1190699454024913,0.3100359655072712,-0.20243928710446127,-0.6725439469402763,nan
1740792977.2751882,-0.8318345890125051,0.2858970584717835,-0.12175033151155683,-0.7677845412997519,nan
1740792977.279094,-0.15932695795478566,0.010461041836029548,-0.09821801022219813,-0.4624561503640881,nan
1740792977.2829998,0.35174103341403545,-0.28888798892889567,-0.22176314560081253,-0.10313735355688008,nan
1740792977.286909,0.4397693469825943,-0.36409068479368367,-0.34128858075697804,-0.009890396527598018,nan
1740792977.290815,0.2627307285248398,-0.16172487724753382,-0.23275148108450172,-0.16444244646314873,nan
1740792977.294721,0.12436269064213873,0.14616985571682872,0.12946734766343837,-0.2376131068417168,nan
1740792977.298627,0.1216009604309435,0.32914566593097366,0.5044328199944481,0.04185300549385582,nan
1740792977.3025327,0.09986265905541751,0.29079536734174577,0.5978466128908058,0.5594008644427148,nan
1740792977.3064384,-0.06608349805507448,0.11382659391093596,0.33181648979821216,0.8958330753216569,nan
1740792977.3103445,-0.24207486118190533,-0.05276416054128615,-0.09638028535967963,0.7423092102826041,nan
1740792977.3142502,-0.17972250971338077,-0.13142186565780523,-0.39943577457361923,0.19735055835716708,nan
1740792977.3181562,0.11458247602866485,-0.15214138752814596,-0.4294250776774881,-0.3646156459336855,nan
1740792977.322062,0.27709816385809377,-0.17858733669530968,-0.2518261021982646,-0.6673854178898033,nan
1740792977.3259678,-0.023667237496828943,-0.2150234819517632,-0.04405224312921762,-0.7131231830486604,nan
1740792977.3298738,-0.6034672097549347,-0.18728987970608,0.05767383694246865,-0.6190640808839065,nan
1740792977.333783,-0.8113927440996621,-0.01846572696101064,0.04327273285903799,-0.399716131298721,nan
1740792977.337689,-0.19590751661990488,0.26376317432824714,0.010453637296550402,-0.006348939112637698,nan
1740792977.3415947,0.8899468577698876,0.49167619361276393,0.07179775157434118,0.4642733776906975,nan
1740792977.3455005,1.4850115168740787,0.4590616750477687,0.2454714827757704,0.7431630943842339,nan
1740792977.3494065,0.9350313818229038,0.10828469080392568,0.4080046043149524,0.6487637830187986,nan
1740792977.3533123,-0.3965398626335831,-0.36151521931101144,0.3712750620946152,0.31055570387682013,nan
1740792977.3572183,-1.4120437970989501,-0.607884275082197,0.05259109204634053,0.03115141175026398,nan
1740792977.361124,-1.313190680883786,-0.4297707616077247,-0.40562761110857765,-0.07064221139117739,nan
1740792977.3650298,-0.32786198638870145,0.029390560940310877,-0.704643110148374,-0.17117170234149712,nan
1740792977.3689358,0.6001023979588758,0.38619378954980493,-0.619312613412177,-0.43786409068142207,nan
1740792977.3728416,0.7785852896634904,0.36578299606448766,-0.18890533539747678,-0.7055265624939921,nan
1740792977.3767476,0.35448323315850744,0.057708987317713976,0.31265156864977695,-0.6058963433923089,nan
1740792977.3806565,-0.024380998465944104,-0.19253229275635214,0.597119557513853,-0.0491043322495111,nan
1740792977.3845625,0.014109169859520893,-0.15040456345301403,0.5621694444157532,0.5539864862693051,nan
1740792977.3884683,0.23703434952038624,0.07613568251952996,0.3058245358882378,0.6810440980737598,nan
1740792977.3923743,0.20215181918340316,0.19047836478621788,-0.004741236326854467,0.2862178703391588,nan
1740792977.39628,-0.17522421534882013,0.06131819361104622,-0.2465103877598856,-0.1337997095422715,nan
1740792977.4001858,-0.5434941700825686,-0.13722836015621637,-0.35395498628986066,-0.11894607379925856,nan
1740792977.4040918,-0.5414840125026362,-0.15716995447993942,-0.2991487135903085,0.20933923875953456,nan
1740792977.4079976,-0.18339554307939895,0.009258794192620438,-0.11792723089982557,0.31068544490027644,nan
1740792977.4119036,0.20943227141693127,0.12265838139041722,0.0611612092691442,-0.08475185619279897,nan
1740792977.4158094,0.3716867799483553,0.008997415862911641,0.08793482361379888,-0.6027097547769161,nan
1740792977.4197154,0.3082125859673623,-0.19830731553158948,-0.05512901820940307,-0.6424215665435641,nan
1740792977.4236212,0.1806409663125877,-0.20384966646526884,-0.18699085969234303,-0.0947836097606021,nan
1740792977.4275312,0.08762007190101663,0.07510614172799372,-0.08030668466520334,0.505052309779666,nan
1740792977.4314373,0.00741634918607903,0.3643989765208615,0.27963682671006074,0.5743946605102404,nan
1740792977.435343,-0.09820263160287197,0.3225072805631601,0.6091240561442238,0.11481092532037379,nan
1740792977.4392488,-0.20392082271301246,-0.05516117373691468,0.5554978391701675,-0.3491494235854289,nan
1740792977.4431548,-0.2520318190146573,-0.39561632709637806,0.05070616663219051,-0.39431831084699254,nan
1740792977.4470606,-0.2119704069919833,-0.34049155279502447,-0.569329692836263,-0.10971019470474355,nan
1740792977.4509666,-0.08833176311190416,0.06206890031769827,-0.8300343008827156,0.1428823896333795,nan
1740792977.4548724,0.08854101573691928,0.40398958941014435,-0.5338336543013468,0.2169651239833798,nan
1740792977.4587781,0.24538720925806495,0.34567392486398224,0.06845465723693134,0.26429740147937875,nan
1740792977.4626842,0.27699158670037555,-0.046374513500533815,0.5096502183179729,0.37067057782846496,nan
1740792977.46659,0.14264780981918973,-0.3975991417591669,0.511998076229679,0.325767845887784,nan
1740792977.470496,-0.044542474314763054,-0.41307342797329355,0.18738126355727056,-0.09382278151798723,nan
1740792977.474406,-0.09809315370380316,-0.12861596899914254,-0.12487461365354909,-0.6956068696112359,nan
1740792977.4783118,0.020061561292927285,0.19219245461937137,-0.18896970170053962,-0.9331458889623463,nan
1740792977.4822176,0.10613408683611039,0.3350143532811833,-0.048670896782299564,-0.4882579578383417,nan
1740792977.4861236,-0.06492530987297365,0.2801837120750758,0.08463076335220089,0.3112426533115755,nan
1740792977.4900293,-0.41484690008703906,0.13185554397200341,0.07370399882006709,0.78997224666349,nan
1740792977.4939353,-0.5567726808520697,-0.013639740998058567,-0.030047112323331838,0.6309666011012455,nan
1740792977.4978411,-0.2055191236181673,-0.1139293443903377,-0.0897940709992142,0.1662527158281648,nan
1740792977.501747,0.43732403821476373,-0.1589083602150961,-0.057707680112520254,-0.07543606885922256,nan
1740792977.505653,0.8189953797787887,-0.1622282817437941,-0.016033851603007316,0.008316198310890434,nan
1740792977.5095587,0.602176186346738,-0.16208898081875725,-0.049319757762201016,0.05539371223210276,nan
1740792977.5134647,0.024064412871208404,-0.17712961123446125,-0.11435089030533885,-0.21042774306996037,nan
1740792977.5173705,-0.386548927462615,-0.14909687288482867,-0.08036826647772692,-0.5692956899562185,nan
1740792977.5212803,-0.402561192415126,0.019247866313877985,0.09247373148759293,-0.5631558463204495,nan
1740792977.5251863,-0.2818268958384135,0.32070500590583156,0.2543293815419622,-0.08850526472327162,nan
1740792977.529092,-0.32999725591067164,0.5605743701009249,0.20106476617016444,0.43357293267912655,nan
1740792977.532998,-0.429601677249997,0.4906514555715037,-0.07349810226166466,0.5307402768429742,nan
1740792977.5369039,-0.18294070638537177,0.07009917554334294,-0.30368547742756136,0.21142132689635912,nan
1740792977.5408096,0.47994983619689063,-0.4339099370951432,-0.1967857447070761,-0.09055935552801697,nan
1740792977.5447156,1.0320444466926462,-0.6584064405613805,0.22371427935729324,-0.06554152552850505,nan
1740792977.5486214,0.8572697419929558,-0.4735946053243381,0.562787908610486,0.12041617676264295,nan
1740792977.5525274,-0.010255802713603882,-0.08248787295643102,0.41004261192202296,0.0888001960721975,nan
1740792977.5564332,-0.826217062022906,0.20684958597644595,-0.21990871618850497,-0.23120533198790688,nan
1740792977.560339,-0.8944842149745186,0.27272732955641665,-0.8321561338550134,-0.484197767786262,nan
1740792977.564245,-0.2889243349282685,0.22484714581497572,-0.8835516264545508,-0.31210823185874015,nan
1740792977.5681546,0.2940661061003204,0.20333652211157235,-0.29218152804665415,0.20326134974541588,nan
1740792977.5720606,0.34819574268316095,0.20727969485885434,0.4854625747068594,0.6026691397259211,nan
1740792977.5759664,0.05343181087550413,0.1433696759379797,0.8804601020287673,0.5251582060215978,nan
1740792977.5798724,-0.08751678661616417,-0.015403538483665595,0.7018732530165737,0.04949935314618849,nan
1740792977.5837781,0.06729025509670669,-0.1873573809779619,0.22008537740823414,-0.43317951556468387,nan
1740792977.587684,0.18724770604572058,-0.28897181782325193,-0.17225848414486467,-0.601947668408858,nan
1740792977.59159,0.019094203082947445,-0.31477620837194414,-0.31582562694770633,-0.4201275823726015,nan
1740792977.5954957,-0.19960868616295976,-0.280216971749994,-0.3121545000113748,-0.050315487634678316,nan
1740792977.5994017,-0.06414446102278734,-0.1451001968747949,-0.2934261979349051,0.31788838548870657,nan
1740792977.6033075,0.3606342578972149,0.1244178723606744,-0.2615235725473239,0.5332735333679437,nan
1740792977.6072133,0.49840114130788,0.4211288388100659,-0.15713731392779823,0.4897598158641084,nan
1740792977.6111193,-0.024446581616301182,0.5174646086259955,0.0014117024938705086,0.19171022936303617,nan
1740792977.6150286,-0.7892314614294734,0.29496841025663634,0.12529891378316765,-0.18131711649573912,nan
1740792977.6189346,-0.9492664986442667,-0.07778374429242478,0.1803956052169569,-0.3705112025904443,nan
1740792977.6228404,-0.20936450614832172,-0.2848280607158436,0.22409605712925718,-0.2720447371692307,nan
1740792977.6267464,0.7527266116263686,-0.2066665338647093,0.28571269103970537,-0.055718330321694855,nan
1740792977.6306522,0.9919266165094269,-0.05551976058406504,0.2746120096840442,0.009222155636410021,nan
1740792977.634558,0.33989190785633183,-0.10142714346319776,0.08965796803139538,-0.14401506015377166,nan
1740792977.638464,-0.43804283891303086,-0.3032565062576065,-0.18788688107808083,-0.2961388449369079,nan
1740792977.6423697,-0.5469084618213489,-0.3241262747277169,-0.309276710078253,-0.18611847513242577,nan
1740792977.6462758,-0.038331772751434415,0.03942948066777855,-0.14039365214920635,0.18937410951339415,nan
1740792977.6501815,0.35770932359592134,0.5292955523308189,0.11305585283542878,0.5568175558126065,nan
1740792977.6540873,0.1681628247003963,0.6474879267942059,0.07704558260084755,0.6337995285698159,nan
1740792977.6579933,-0.2970278580120798,0.22152097271534388,-0.3383873619904262,0.3774266691083932,nan
1740792977.6619027,-0.4223770263253023,-0.35204035242696635,-0.7269749624467233,-0.029576269611437146,nan
1740792977.6658084,-0.08627094681033827,-0.5139814114342612,-0.5443820540990155,-0.37680387440557006,nan
1740792977.6697145,0.24653151897359873,-0.15729553340063024,0.27887113282376574,-0.5613952026644083,nan
1740792977.6736202,0.19576351438365977,0.26413879334634954,1.1471485474613627,-0.5633009856300227,nan
1740792977.677526,-0.03615270036046359,0.26666973764072577,1.3098417508043623,-0.38210628400994345,nan
1740792977.681432,-0.0026879008322577133,-0.1128289268113056,0.5853891362760492,-0.0557457547306725,nan
1740792977.6853378,0.29699911193391626,-0.38739509218720675,-0.45473529400595986,0.29110794604661755,nan
1740792977.6892438,0.35560073857604396,-0.21050397008794514,-1.0365693461974246,0.49074703111475604,nan
1740792977.6931496,-0.13303297377383855,0.221471697155015,-0.886478929823278,0.4587513482954277,nan
1740792977.6970553,-0.7258343981711917,0.41649594121559164,-0.372344865128173,0.26138592366946983,nan
1740792977.7009614,-0.6541203792073762,0.1650840682174687,-0.009973107325851006,0.04386778054346544,nan
1740792977.7048671,0.20531299347160337,-0.23671633963604494,0.06639350649754569,-0.09314375776432976,nan
1740792977.7087765,1.022778056510068,-0.34936436640903,0.10845646277483109,-0.1387167711666091,nan
1740792977.7126822,0.8621307674333931,-0.07761501663540767,0.3212431442352588,-0.13116324774938468,nan
1740792977.7165883,-0.23433081395561112,0.2715565998286235,0.5622871428095139,-0.120038824509831,nan
1740792977.720494,-1.2011705879060353,0.3647579448677365,0.5239799171657915,-0.15877247150158863,nan
1740792977.7243998,-1.0551044959646285,0.17173222123499404,0.14398850647486824,-0.2671017863660244,nan
1740792977.7283058,0.06792301716711878,-0.09253992848758358,-0.2731615990837414,-0.3582896052000279,nan
1740792977.7322116,1.080114368983476,-0.24983970261125207,-0.3752205552317391,-0.2526636045344213,nan
1740792977.7361176,1.0814093085995264,-0.2903420376305442,-0.14631563232650052,0.14252886863952383,nan
1740792977.7400234,0.20374058972294148,-0.2618097354676517,0.08719093969453312,0.6404426782787206,nan
1740792977.7439291,-0.6673687531049031,-0.15334714246694778,0.026906598699539184,0.8418650002827867,nan
1740792977.7478352,-0.8379844741241742,0.04890484016618035,-0.27423978842947666,0.49550290384214746,nan
1740792977.751741,-0.3567586749162486,0.258459228900361,-0.48271041464024644,-0.1952023520153268,nan
1740792977.75565,0.25602739730729746,0.3401972132032679,-0.34549337765078797,-0.6972974301006128,nan
1740792977.759556,0.5831434807282981,0.2689480405582186,0.061281454640601675,-0.6403697230184241,nan
1740792977.7634618,0.531307533973739,0.15639182635992474,0.4376134982207837,-0.17049194204117799,nan
1740792977.7673676,0.1719841989376609,0.08309734240801829,0.5627136569272817,0.22498828672903443,nan
1740792977.7712736,-0.3746024170873098,-0.0254957351487963,0.4594697891687269,0.23041317813243256,nan
1740792977.7751794,-0.8504140015580054,-0.26894582204793915,0.28330448078885456,-0.0165442788353431,nan
1740792977.7790854,-0.8639992628889043,-0.5419805284678321,0.11253568231564975,-0.1602296723521441,nan
1740792977.7829912,-0.21139705989305146,-0.5563405979830593,-0.1057870691997464,-0.058686816954444616,nan
1740792977.786897,0.7833049920778624,-0.1679200024644192,-0.4126687428154773,0.10655361582958686,nan
1740792977.790803,1.3982767791462383,0.37731110568119614,-0.6917395338418736,0.12758476075703906,nan
1740792977.7947087,1.1156184928160755,0.6367773090277503,-0.7172565692364316,0.0536391914649848,nan
1740792977.7986147,0.10386810655851277,0.4324425234295814,-0.3695974781944764,0.09217251809627053,nan
1740792977.8025248,-0.9315250026967641,0.036255629107107105,0.2033871500517667,0.2774882968306177,nan
1740792977.8064306,-1.3591384357291652,-0.15943417437480395,0.6624044401705638,0.3650678344292401,nan
1740792977.8103366,-1.0587524336793273,-0.08942878884824122,0.7402567178740422,0.11593225209718952,nan
1740792977.8142424,-0.33290516216135696,-0.028537555642885428,0.4519219339998654,-0.3744547323142962,nan
1740792977.8181481,0.44332286336024174,-0.17053166655077853,0.05564249083231263,-0.7201390726581921,nan
1740792977.8220541,0.9969894402131322,-0.33892631743322904,-0.18992400364817613,-0.6274546596567984,nan
1740792977.82596,1.1132141209794453,-0.22583642369042817,-0.23174873311636096,-0.18037323717987802,nan
1740792977.829866,0.6667816566780662,0.1510684842735417,-0.2005632916583458,0.2742406238849262,nan
1740792977.8337717,-0.17330918688568955,0.4015990630887135,-0.2147130292096993,0.4725662643160772,nan
1740792977.8376775,-0.8790268660996409,0.23392203536276926,-0.2426494731985724,0.4205036706432068,nan
1740792977.8415835,-0.9165868477048359,-0.1524367847907573,-0.17388292956717746,0.2808325731105452,nan
1740792977.8454893,-0.26752618824056074,-0.2915596759915181,0.004576319445363548,0.17011160141344833,nan
1740792977.8493993,0.4719778909714407,-0.04120804727847062,0.15813315409251966,0.0970138824790641,nan
1740792977.853305,0.6264194256590935,0.22655726625480968,0.15750883192870221,0.02726890688783147,nan
1740792977.857211,0.10401329618168335,0.11762454726692935,0.049500532655518126,-0.07261432946181526,nan
1740792977.861117,-0.5188267279757786,-0.22706093419671938,0.016329885341025696,-0.2389389752843962,nan
1740792977.865023,-0.5939899517718263,-0.2692580661511964,0.14563767594333796,-0.46802123750945224,nan
1740792977.8689287,-0.048283088760907825,0.20557343971288844,0.2879277985339987,-0.634481472543101,nan
1740792977.8728344,0.5824439005979164,0.7004599759367603,0.20670156164296868,-0.5281119989628378,nan
1740792977.8767405,0.7168273874124159,0.528070448863579,-0.12187908963461154,-0.06767009055251542,nan
1740792977.8806462,0.2723685011336328,-0.3222622176247756,-0.41883254529701786,0.5259191186781764,nan
1740792977.8845522,-0.3246955142719969,-1.0501259602531698,-0.3729161397245011,0.8612567174144796,nan
1740792977.888458,-0.581919077981544,-0.8934875661599853,0.0014869738638545508,0.7385074034317127,nan
1740792977.8923638,-0.3539985215059919,-0.002115802611418518,0.33495207397998966,0.3405464974493984,nan
1740792977.8962739,0.11020327608655732,0.7143208826470266,0.27519820687611185,0.007217584064744272,nan
1740792977.9001796,0.42493409066391186,0.6129577358685632,-0.1272664050641831,-0.14785352640073013,nan
1740792977.9040856,0.36043830209654515,0.016340257753188318,-0.4523640294769888,-0.3031228668887645,nan
1740792977.9079914,-0.02051647512749409,-0.23173782520162375,-0.3457129706776263,-0.5980384185084161,nan
1740792977.9118972,-0.42481612869022284,0.2003856709441665,0.10857833583074324,-0.8513174511179573,nan
1740792977.9158032,-0.5427205834540271,0.7488370482653823,0.48034486306196544,-0.7314752382293302,nan
1740792977.919709,-0.2877225811569726,0.6460770655573016,0.44637675978189917,-0.1876365294941387,nan
1740792977.923615,0.12934319647462886,-0.17688095755943326,0.11147937390291818,0.42729266234160107,nan
1740792977.9275208,0.397049866934381,-1.037269636074604,-0.13877226590069902,0.7367761463601658,nan
1740792977.9314265,0.4095110922458317,-1.2771439691985687,-0.0754097166375803,0.7514192909688847,nan
1740792977.9353325,0.3471324164424898,-0.8825739667611552,0.12861137511000814,0.7629026601521753,nan
1740792977.9392383,0.4025055230045019,-0.2704853583786161,0.10559940568328602,0.8413587144852538,nan
1740792977.9431481,0.45460589788084294,0.3261375092601301,-0.2746848881189996,0.6189597471553984,nan
1740792977.947054,0.13258048873029035,0.996145371468913,-0.7098629849758197,-0.27099807002350756,nan
1740792977.9509597,-0.7046734690637225,1.6757817823885106,-0.7247313158366573,-1.5756561617908267,nan
1740792977.9548657,-1.5925613701124448,1.8285604494424315,-0.14652147852508973,-2.4093859973729863,nan
1740792977.9587715,-1.7082609499924668,0.8900477530791162,0.6649759921236534,-1.973164694791543,nan
1740792977.9626775,-0.6220751305858908,-0.9417128529056326,1.0784062744683531,-0.29449624945414876,nan
1740792977.9665833,1.165859692202491,-2.5568937017218363,0.7393397380101764,1.7390675053932378,nan
1740792977.970489,2.4861732593612036,-2.7578072014189305,-0.08293092512468823,3.008551904931432,nan
1740792977.974395,2.3821564927873204,-1.2895469517338929,-0.696819619042795,2.826376009355709,nan
1740792977.9783008,0.8520100285942608,0.9233735593864428,-0.6029877525995784,1.2121272339054514,nan
1740792977.9822068,-1.149694194064581,2.4919827407428956,0.02809445138969478,-1.1312601566393887,nan
1740792977.9861126,-2.3910371111084436,2.5135835326386404,0.5002911746437614,-3.004980371100847,nan
1740792977.9900222,-2.173936742680806,1.0474579206511825,0.2762147784966106,-3.2259855008552925,nan
1740792977.993928,-0.7490778085212522,-0.993017612533779,-0.4496046565658044,-1.4874806676469379,nan
1740792977.997834,0.8730778764920154,-2.3050924204544607,-0.9043858163642943,1.086644781426624,nan
1740792978.0017397,1.5996959623819886,-1.9009333524576841,-0.5248145269416762,2.5659875414389366,nan
1740792978.0056455,1.0396439437988756,0.11224730361804115,0.41560637398375444,1.8666907552320036,nan
1740792978.0095515,-0.16121255791849323,2.2647317265723554,1.0376032607926302,-0.09628468917814767,nan
1740792978.0134573,-0.8187090063566356,2.6138688547036497,0.7538840949785854,-1.1970197963358427,nan
1740792978.0173633,-0.27427346453624823,0.46795399351882633,-0.1136933701706046,-0.30811314976367216,nan
1740792978.021269,0.9104429637878886,-2.601374727920383,-0.6830343311703311,1.384858890403085,nan
1740792978.0251749,1.418666110101529,-3.8272816884191414,-0.4534198951073215,1.6000520011367914,nan
1740792978.0290809,0.4974243238785471,-1.7993007994074708,0.20765933140766368,-0.4296037580704105,nan
1740792978.0329866,-1.182849707963507,1.9469029526375545,0.5576890734332858,-2.8658129555750556,nan
1740792978.0368962,-2.1204715773786935,4.159889246361172,0.3328587960572544,-3.1027199307930236,nan
1740792978.040802,-1.4959024616787169,2.9477841756295176,-0.06417715933498666,-0.6253616019215553,nan
1740792978.0447078,0.013579193230825523,-0.3931496022203973,-0.21822829322272094,2.3237500940311153,nan
1740792978.0486138,1.0361373151987197,-2.749731591227559,-0.29048803378597055,3.0925601706304797,nan
1740792978.0525196,1.012830651250223,-2.3352864583268222,-0.703434934155398,1.3738589080850698,nan
1740792978.0564256,0.6551437008012241,-0.26445816183417276,-1.2936167218393149,-0.702400158671676,nan
1740792978.0603313,0.8319791009788448,1.0108690497056454,-1.147355446057195,-1.1159534808217435,nan
1740792978.064237,1.2896764225921644,0.4824554377485294,0.38520009835808067,-0.11138158424351886,nan
1740792978.0681431,0.8773724796301197,-0.5723192809592801,2.559217350254001,0.45653316622380374,nan
1740792978.072049,-0.8797680052216585,-0.4493621436838309,3.5034339831885335,-0.4127186813165832,nan
1740792978.075955,-2.788599584792997,0.8145852401044673,1.9611004067874376,-1.660029860625185,nan
1740792978.0798607,-2.9804352558074148,1.567181882733391,-1.237619624990037,-1.587457126180037,nan
1740792978.08377,-0.9447544594877711,0.6819037762841776,-3.6947403599288493,-0.01253703557253975,nan
1740792978.0876758,1.724490586876159,-0.9890011504315604,-3.6132999022405428,1.524379083099698,nan
1740792978.0915818,2.85076102609429,-1.6254378175345294,-1.4098404435522052,1.645531201387379,nan
1740792978.0954876,1.8448382613643295,-0.624848083420334,0.9052881672672771,0.6789517253582265,nan
1740792978.0993934,0.11945850653730222,0.7360123323725948,1.8275526844872407,0.0006184632966694369,nan
1740792978.1032994,-0.6414734218095188,0.9250984488192436,1.6036813665351555,0.18111751663153222,nan
1740792978.1072052,-0.2953142286039477,-0.001482408273139114,1.3795522666088145,0.3811232334663321,nan
1740792978.1111112,-0.0756918728669306,-0.6135349188239867,1.4881251832565237,-0.3136512749156831,nan
1740792978.115017,-0.8086600550006441,-0.03365325348684507,1.0557854092798622,-1.4946185225185575,nan
1740792978.1189227,-1.7694771604457527,0.9101564066021809,-0.6021988959343659,-1.8659352842424777,nan
1740792978.1228287,-1.566496765805642,0.7771456138888886,-2.614791756655869,-0.9176067372832334,nan
1740792978.1267345,0.0775074323904006,-0.5513625712143976,-3.104997333360823,0.4231486377825127,nan
1740792978.1306436,1.8481294145923939,-1.5931324813136445,-1.2414520192110896,1.0325022177822627,nan
1740792978.1345496,2.2397591814441227,-1.0573753979192342,1.5642737530287805,1.0071739152024677,nan
1740792978.1384554,1.1379208684618738,0.5223127602112881,2.86226198442204,1.268763116521033,nan
1740792978.1423614,-0.24947805943668466,1.3971231916964744,1.6059881849127278,1.8729626718347974,nan
1740792978.1462672,-0.873765041091608,0.7347664666581812,-0.8086882225207201,1.4970721976389556,nan
1740792978.150173,-0.8499989735482353,-0.3930573846697934,-2.0367103757088234,-0.8172676945051447,nan
1740792978.154079,-0.8654657568644603,-0.43382356445322273,-1.1550414554151003,-3.744263307433922,nan
1740792978.1579847,-0.98122651075765,0.5934562283077554,0.6274648101154048,-4.38660076317722,nan
1740792978.1618907,-0.5342052805501161,1.0599713334399072,1.5079750569615278,-1.3861264735929333,nan
1740792978.1657965,0.711528724757703,-0.14502646872438596,0.9899140382456373,3.058645170574849,nan
1740792978.1697023,1.793236555884735,-1.9640282734767345,0.06907577595181538,4.9804323425986885,nan
1740792978.1736083,1.420604572841947,-2.2010354602621436,-0.2332192612539416,2.6544268445879995,nan
1740792978.1775184,-0.38201215128287686,-0.16474767860948206,-0.07307443011830382,-1.5462453860251852,nan
1740792978.1814241,-1.9338712734779402,2.258698427783456,-0.33445388561352274,-3.6126683970043256,nan
1740792978.1853302,-1.547944691213975,2.5564113585286323,-1.24406358820163,-2.0152534293885407,nan
1740792978.189236,0.550062678270066,0.4111700479469442,-1.863249676842126,1.0172097013455605,nan
1740792978.193142,2.2712681628286497,-1.8933264207867817,-1.1253515886827714,2.2467133240948365,nan
1740792978.1970477,1.787716693972363,-2.000605264200889,0.8148062966220082,0.8877908756015271,nan
1740792978.2009535,-0.5276178782770696,-0.03936586827004322,2.52722699489144,-1.0317682166820148,nan
1740792978.2048595,-2.4572384152540447,1.692329352516032,2.6427320761064426,-1.3844496251341063,nan
1740792978.2087653,-2.1989601981801283,1.425754546339139,1.122640569589554,-0.2672539224501332,nan
1740792978.2126713,-0.11176782394363383,-0.20888661980838427,-0.823536391566826,0.6209001814301969,nan
1740792978.216577,1.8034917146823577,-1.2119295281404505,-1.919899831971874,0.3372206976009593,nan
1740792978.2204828,1.9646280702187218,-0.6974884454121023,-1.7961838835524635,-0.3061271263717476,nan
1740792978.224393,0.595938668516567,0.2290796276157274,-0.9337977958837712,-0.13020004686989967,nan
1740792978.228299,-0.8055521679694578,0.1246903890245716,0.011655516680100536,0.7091268396187451,nan
1740792978.2322047,-1.077707948587393,-0.8280965224512914,0.6522832837627605,0.9741643581400781,nan
1740792978.2361104,-0.3390128010636181,-1.0561752627434688,0.832726418907592,0.09984824671255312,nan
1740792978.2400165,0.4508089278807783,0.2947629494113963,0.5387313070951388,-0.9670196637279321,nan
1740792978.2439222,0.5492615827893867,2.0748925996536602,0.012359648938902302,-0.9719417219480854,nan
1740792978.2478282,-0.009614026469827418,2.3433143846871634,-0.23977294132760357,0.006913905324051097,nan
1740792978.251734,-0.654432789743481,0.6407474664162252,0.12935093820473537,0.6605343463242451,nan
1740792978.2556398,-0.819338906276656,-1.4417579065044894,0.7960780553862198,0.17137001561814647,nan
1740792978.2595458,-0.30369832782396794,-2.0738258787366504,0.9006296899149885,-0.7009497354334235,nan
1740792978.2634516,0.6199011778917994,-1.1608183062449193,-0.06198028818334774,-0.6135726804911144,nan
1740792978.2673576,1.2934728475936306,-0.14284619177002064,-1.4923772237177275,0.5480429163280328,nan
1740792978.2712674,1.0454235415776565,-0.02439064811812365,-2.0579042697070795,1.4004813768765119,nan
1740792978.2751732,-0.19923480318882092,-0.20342168742543212,-1.0007095458612403,0.7560676492631778,nan
1740792978.2790792,-1.5753157631305965,0.44297421416127586,0.9575219431443577,-0.8143732353537118,nan
1740792978.282985,-1.7896486703629255,1.7148606907232922,2.1807459054529983,-1.5430530223559462,nan
1740792978.2868907,-0.32111756186589163,2.024881632241503,1.674467347290361,-0.5375324297754362,nan
1740792978.2907968,1.798949134931832,0.3982111933334264,0.028853181491226117,1.1202926489355982,nan
1740792978.2947025,2.645263241189546,-1.9353117011761853,-1.2417811693728305,1.572738242569326,nan
1740792978.2986085,1.1598318128351706,-2.56486802275766,-1.2327104124892398,0.273847309724053,nan
1740792978.3025143,-1.6350513336224688,-0.6118535067055898,-0.4087254833300402,-1.4356932263409572,nan
1740792978.30642,-3.3444360636787716,2.0251737360759634,0.14546624572534414,-1.8311959156345656,nan
1740792978.310326,-2.3629320273917958,2.5466133222794665,0.026661476278768984,-0.5942544812234933,nan
1740792978.3142319,0.5528118566151693,0.2939016145220556,-0.14558733903770246,1.0347050712572647,nan
1740792978.3181417,2.916916058636259,-2.460637869326018,0.3239912724961128,1.6670201743350248,nan
1740792978.3220475,2.818055142734111,-2.9138279754267646,1.1702482986920038,1.0415166350909861,nan
1740792978.3259532,0.6524701474247045,-0.6714449086319179,1.3413553372389622,-0.04888206034367476,nan
1740792978.3298593,-1.411718541227642,1.978190500069673,0.24316010979441566,-0.7358378181770834,nan
1740792978.333765,-1.645749065985077,2.6072088018339468,-1.391117270330585,-0.7564796831031589,nan
1740792978.337671,-0.3723992852443223,1.0785896079801058,-2.095414949354153,-0.3634639376579527,nan
1740792978.3415768,0.6166572699044113,-0.6979898250353942,-1.1723077045970962,0.059439701418457044,nan
1740792978.3454826,0.1154838986785326,-1.078846737195011,0.5313342163207346,0.19802843584410834,nan
1740792978.3493886,-1.2010911047285442,-0.28592426837314483,1.4661544788800127,-0.08462452296873002,nan
1740792978.3532944,-1.5919451727360574,0.3119479758240307,0.9661795416670784,-0.5550332705015851,nan
1740792978.3572004,-0.2289001948862555,0.010843346047167862,-0.1256002678386175,-0.6095162613977653,nan
1740792978.3611062,1.8300270318891867,-0.5888713409331499,-0.45666632434694693,0.19240938117879205,nan
1740792978.3650157,2.703163066590474,-0.6352889865788921,0.31908890643926996,1.4377506836301548,nan
1740792978.3689215,1.5948839681148115,-0.17165710871957865,1.1717080761926526,1.9320097126008255,nan
1740792978.3728273,-0.4905549923890441,0.09787921522435154,0.8648423540456943,0.8087823374104797,nan
1740792978.3767333,-1.8803871565884582,-0.07263250044800994,-0.6302265718686136,-1.3545722927171147,nan
1740792978.380639,-1.8490369663167854,-0.10468602611813455,-2.0248792057098792,-2.770741798616874,nan
1740792978.384545,-0.9908453647047214,0.5011548458694123,-2.0198206158122525,-2.0563766700267485,nan
1740792978.3884509,-0.20107341032709175,1.275119583774882,-0.6122293573038968,0.33980093225298535,nan
1740792978.3923566,0.31042196278640793,1.2246084605427485,0.9681087161455262,2.4310820402235285,nan
1740792978.3962626,0.8269831320963184,0.1390468923247795,1.5478040672572024,2.4940486215579396,nan
1740792978.4001684,1.2682016649529428,-0.9778709340831541,1.0921743806341628,0.60110970966474,nan
1740792978.4040744,1.0502381820347937,-1.050562557927218,0.4788472613888919,-1.561813885775491,nan
1740792978.4079802,-0.013704061887233793,-0.28165606337659865,0.35857458180971846,-2.269131175978108,nan
1740792978.4118896,-1.045378790604064,0.06762111352883675,0.45592013125904074,-1.1481727513308493,nan
1740792978.4157953,-0.8658256865301853,-0.6741476026382561,0.05690755772450373,0.7452141881312233,nan
1740792978.4197013,0.4729137698394097,-1.5536226780938518,-0.9684866664804055,1.9395702375592787,nan
1740792978.423607,1.368663376774826,-1.0147924341933765,-1.8430374694646205,1.6338546862169172,nan
1740792978.4275131,0.3629781175708604,1.099276517138204,-1.6491533994759218,0.12867865812708268,nan
1740792978.431419,-1.895559543331745,3.0090582339399217,-0.32934352586474747,-1.4662100060717764,nan
1740792978.4353247,-2.9183025383127608,2.7717181188321987,1.1770745117377364,-1.9758212911346182,nan
1740792978.4392307,-1.0215460675264278,0.44607598221204586,1.7894536977723894,-0.9830903055703354,nan
1740792978.4431365,2.4656013583898173,-1.86653397778716,1.224883835213671,0.7758050292264711,nan
1740792978.4470425,4.175920311290993,-2.2307035967229045,0.1185965875179122,1.8856492805527703,nan
1740792978.4509482,2.171156287287184,-0.855957865615342,-0.6586404522728685,1.4118616421258483,nan
1740792978.454854,-1.8094212512500487,0.36245215288891464,-0.7209889732198799,-0.22289330493183504,nan
1740792978.4587634,-3.96762610488274,0.115717490841878,-0.30406940959438417,-1.5704179070625124,nan
1740792978.4626694,-2.35445126920953,-0.9093684572176456,0.11463311697549591,-1.490040793736171,nan
1740792978.4665751,1.1556430223832432,-1.0440641494981748,0.23241856111891046,-0.17888720973500122,nan
1740792978.470481,2.9739149738067874,0.2535311040200186,0.062359257138169526,1.1392124778330681,nan
1740792978.474387,1.6080281884069894,1.7368232684447282,-0.16947301720450442,1.461503541610726,nan
1740792978.4782927,-1.0283453181320468,1.8763691732768957,-0.22742293455941084,0.8148077168036442,nan
1740792978.4821987,-2.056202100406538,0.6593107865531568,-0.07551165698929356,-0.1118590239285675,nan
1740792978.4861045,-0.8233685491920217,-0.4660137033213011,0.04298510042073654,-0.8260581087460803,nan
1740792978.4900103,0.7737064093026014,-0.37277990224281005,-0.17236217918075103,-1.2725962328677647,nan
1740792978.4939163,0.892097270035502,0.40492565479447024,-0.6386741440680634,-1.3694676081578514,nan
1740792978.497822,-0.07732406696653485,0.36360011602316294,-0.7235082982202331,-0.7729974226674163,nan
1740792978.501728,-0.33152821139658156,-1.0826266384400018,0.20905425317791232,0.5903654691309249,nan
1740792978.505637,0.7589059180999843,-2.7306407426371346,1.87610237154943,1.9530772145298982,nan
1740792978.509543,1.673523429068529,-2.746296892145954,2.846884578861758,2.1376322813330506,nan
1740792978.5134487,0.6566571904543026,-0.5870432434790581,1.6746218417857024,0.786938908493794,nan
1740792978.5173547,-1.8515857796352166,2.345695860501949,-1.4296522533404263,-1.042779353034539,nan
1740792978.5212605,-3.3499826148578924,3.9258541407933607,-4.20405405235769,-1.827420369036126,nan
1740792978.5251663,-1.9783117830612431,3.1045403492151906,-4.1043681456538685,-1.1249703237171083,nan
1740792978.5290723,1.3113431521538015,0.6324004956261654,-0.8250874579740243,0.05109152415768256,nan
1740792978.532978,3.6203143159753095,-1.72771755068743,3.0326229063636236,0.479884005962013,nan
1740792978.536884,3.019037071074541,-2.596671820076509,4.189769212337186,0.09382675513846338,nan
1740792978.5407898,0.3051789641559507,-1.8425910104428425,1.8400033219580454,-0.173426770138451,nan
1740792978.5446956,-2.0940344737851375,-0.44344824143040723,-1.4999698945954811,0.23886296353650197,nan
1740792978.5486016,-2.559980660461492,0.3848001149679677,-2.4958783657856887,0.7502891815894198,nan
1740792978.5525117,-1.4076166142031765,0.1594029424327647,-0.3945061137034461,0.4835864810179848,nan
1740792978.5564177,0.052187201367085906,-0.48771424868513036,2.2318335185383895,-0.4164352774076362,nan
1740792978.5603235,0.9547318383766575,-0.40781375704817757,2.238017245421817,-0.8080597838905095,nan
1740792978.5642292,1.2304197125950425,0.851610551452002,-0.7164352141971624,-0.011688650312168817,nan
1740792978.5681353,1.0260672036400402,2.335952297327345,-3.7447083630169757,1.1526493866097767,nan
1740792978.572041,0.38910080885030546,2.404650683041691,-3.712431156794594,1.1984734047222947,nan
1740792978.575947,-0.42771224619059844,0.4441920020320133,-0.45797564907079175,-0.2227728567578491,nan
1740792978.5798528,-0.843824559813241,-2.161949044797338,3.099934597686469,-1.7704560806867118,nan
1740792978.5837586,-0.5237546789784472,-3.1055549291894726,3.9491862347900484,-1.8795895463873438,nan
1740792978.5876646,0.08178521854119603,-1.4576440648081779,1.8343456367539142,-0.5189457433567144,nan
1740792978.5915704,0.1756487281753808,1.1950003419977226,-0.8915786538225855,0.8675443020575223,nan
1740792978.5954764,-0.33348345726346307,2.2185544088352747,-1.9246447453888873,1.113228437342348,nan
1740792978.5993865,-0.5844536544169294,0.6584475247535091,-1.148128606246252,0.5857322779402669,nan
1740792978.6032922,0.1377427653437596,-1.6883005363397303,-0.14989144453035974,0.4478044196968353,nan
1740792978.6071982,1.2669289795175842,-2.1397377612386865,-0.08708437529540987,0.9725988696790667,nan
1740792978.611104,1.3990920147589803,-0.010673275116260244,-0.5126974306841463,1.1362884801853,nan
1740792978.6150098,0.014215194413615543,2.614925897017286,-0.32549661625789456,0.03128521260953873,nan
1740792978.6189158,-1.6271991898422395,3.0743464085811767,0.5978901374216243,-1.730315953099867,nan
1740792978.6228216,-1.7370998383700305,0.8841600589730034,1.18895904082306,-2.490932975798602,nan
1740792978.6267276,-0.0922961609509618,-1.890075710856215,0.5945439161337592,-1.4156370666214697,nan
1740792978.6306334,1.5651691359277604,-2.887645967015259,-0.6264730128353979,0.5002466750445931,nan
1740792978.6345391,1.4493441012959711,-1.726500272327945,-1.0683761464877262,1.512174724026809,nan
1740792978.6384451,-0.22564712023029582,0.06878979236760628,-0.16659246165478891,1.0060212816121108,nan
1740792978.642351,-1.5179174982868502,1.0177832964647024,1.0467435040262034,-0.005505059107884092,nan
1740792978.646261,-1.0310492478766344,1.058239485080836,1.0980257779033333,-0.2096941161474087,nan
1740792978.6501667,0.5337051089110618,0.9550586740282491,-0.17486508031500245,0.5409250182835295,nan
1740792978.6540728,1.3516692077411177,0.9117072973190745,-1.356388365792687,1.260127752582534,nan
1740792978.6579785,0.6808617817961079,0.3630050680790215,-1.0588194819733132,1.0576998047794866,nan
1740792978.6618843,-0.4219331543891042,-0.8682187668617027,0.42555038030943176,-0.013396200577990292,nan
1740792978.6657903,-0.6221992160459818,-1.8111391817959457,1.3780169017969477,-1.2747590270313554,nan
1740792978.669696,0.003285680818515958,-1.2689435874030248,0.6071084979113904,-2.1461742917112425,nan
1740792978.673602,0.2648904011962204,0.5789610593294692,-1.098228399361285,-2.3078273431961964,nan
1740792978.6775079,-0.3717055447934515,2.0055320796789986,-1.7364926865982067,-1.474624460769473,nan
1740792978.6814137,-0.9857356282031825,1.4909799267165806,-0.32735617994600585,0.40950083045822044,nan
1740792978.6853197,-0.47639635426063326,-0.5209581033798635,1.8530456985193127,2.5950035808523157,nan
1740792978.6892254,0.802702043023947,-1.978239377171197,2.4893729150850463,3.604940820773224,nan
1740792978.6931317,1.3315870945044934,-1.40177317114109,0.6813735816931185,2.4477319791960404,nan
1740792978.6970375,0.398619929512574,0.5420673414555439,-1.9869727433628361,-0.17890497315163031,nan
1740792978.7009435,-0.8190467909515556,1.8288632583804572,-2.9628379840688215,-2.274687109506711,nan
1740792978.7048492,-0.654034250082486,1.269731475643521,-1.2854770631011485,-2.408873531505247,nan
1740792978.7087553,0.807189209268402,-0.3673658472323353,1.4584424318561742,-1.0838600747848421,nan
1740792978.712661,1.5737141884397512,-1.4143637666795998,2.7449086503525777,-0.0006544365560655022,nan
1740792978.7165668,0.15216966977856544,-1.12737876495604,1.5833446884638787,-0.06787785431959636,nan
1740792978.7204728,-2.344276045607286,-0.1919500420798357,-0.6712792182780585,-0.5143500467096739,nan
1740792978.7243786,-3.1358873243504823,0.4006990213101909,-1.8639738350941806,-0.10939883282682064,nan
1740792978.7282846,-0.9166425216221356,0.5086324731852543,-1.2024490190306454,1.1154579127031383,nan
1740792978.7321904,2.446184313846425,0.654999516102142,0.19172097166821947,1.8451060284041074,nan
1740792978.7360964,3.7659301092807227,0.989480830984925,0.7266067511359092,1.1699088566437965,nan
1740792978.7400057,1.9201240368004873,0.921260470764509,0.07098262348354098,-0.2056911815386617,nan
1740792978.7439115,-1.0651874207386793,-0.05666293701622754,-0.6655864840173955,-0.8152537618990194,nan
1740792978.7478175,-2.368371620772286,-1.467667768795526,-0.33585359343285964,-0.26647457108720163,nan
1740792978.7517233,-1.3516532503068779,-2.128025200357685,0.9061076428743902,0.30482461848257164,nan
1740792978.7556293,0.17535593275456354,-1.3604440467186243,1.7685717429193433,-0.232956126727977,nan
1740792978.759535,0.3962755443388129,0.27723688556919057,1.2173380266303047,-1.4531173327566898,nan
1740792978.763441,-0.4647795364396982,1.5736225114795341,-0.4409416670254786,-1.8191610357828727,nan
1740792978.7673469,-0.798300779547958,1.8186608992560875,-1.875339561503181,-0.603605017143367,nan
1740792978.7712526,0.15484025833664425,1.2290127524154502,-2.009242483233949,1.1532546474190695,nan
1740792978.7751586,1.3764272264800474,0.3715972088660316,-0.922032303866668,1.8624259617609435,nan
1740792978.7790644,1.4597812109876478,-0.4809841946343906,0.41106738497548934,1.2267596849949818,nan
1740792978.7829704,0.37906337218869735,-1.264669765778594,1.0963103307080164,0.3835362325844175,nan
1740792978.7868798,-0.6020445999680932,-1.6649019436291896,0.9982635775620864,0.25833422289962577,nan
1740792978.7907856,-0.6113515173228009,-1.1856287232004592,0.6034811151334257,0.36104312655367155,nan
1740792978.7946913,-0.17640949773630343,0.15861588607292648,0.4076088790896645,-0.3632598782489145,nan
1740792978.7985973,-0.30890657269661626,1.4686188794791606,0.4736931512175526,-1.7836240215127022,nan
1740792978.802503,-0.9818892056722615,1.6354753726692102,0.47031011658916194,-2.3745374033145525,nan
1740792978.8064091,-1.079665857347912,0.4911412612176553,0.035882551211288735,-1.036108720020569,nan
1740792978.810315,0.07307721557765334,-0.8910505188982997,-0.8539785696585206,1.3006676826490617,nan
1740792978.8142207,1.604527515525994,-1.222056930193757,-1.759880277787737,2.4545008034505478,nan
1740792978.8181267,1.9307490564843652,-0.30456509394995446,-1.9991373976459033,1.4050896154272035,nan
1740792978.8220325,0.5985935418782814,0.801126268517595,-1.1371261927379779,-0.5431820354363566,nan
1740792978.8259385,-1.107147772622032,0.929298249315653,0.5718800498610819,-1.2933950866686905,nan
1740792978.8298442,-1.560569523190429,0.015287726385201813,2.209609542737369,-0.3548582823603322,nan
1740792978.8337536,-0.5528860319280369,-0.9131539008315918,2.788204400625532,0.7688233509494266,nan
1740792978.8376594,0.6180474785137721,-0.8656079521315587,1.971824256997642,0.581114507908519,nan
1740792978.8415651,0.7232761512328642,0.10711931086486896,0.28535875686427614,-0.5640776857041394,nan
1740792978.8454711,-0.07653984534778469,1.0236326618831604,-1.3595323171213416,-1.0413796436372142,nan
1740792978.849377,-0.628203052645579,0.9658402366260362,-2.3108174404880018,-0.13391162057259556,nan
1740792978.853283,-0.25106245822668355,-0.07646579127149643,-2.3828082646805138,0.9956814546548879,nan
1740792978.8571887,0.5315417335520671,-1.2314825452195555,-1.6180710946051613,0.7792699439061815,nan
1740792978.8610945,0.740676525003662,-1.492474574929324,-0.14130698335396544,-0.7062922452450269,nan
1740792978.8650005,0.1255027213131789,-0.5184841723435081,1.6110091813475707,-1.708341538284293,nan
1740792978.8689063,-0.6217804572416729,1.0736904545285468,2.727765677766669,-0.8640468219794449,nan
1740792978.8728123,-0.7259695657736606,2.0965429441886028,2.3179973658011797,1.143565071365736,nan
1740792978.876718,-0.15000915541461324,1.6447576483406046,0.4367888438610675,2.3142179088013086,nan
1740792978.8806272,0.4953217548822133,-0.12505869119189686,-1.6071454500471007,1.5258957382390885,nan
1740792978.884533,0.6622851430368917,-1.9427801765859305,-2.2237770892353743,-0.37561828834990896,nan
1740792978.888439,0.32498430944873963,-2.344845830501877,-1.037704351630673,-1.683398776593832,nan
1740792978.8923447,-0.16998163981264625,-0.9432056796558362,0.6725996992011882,-1.6173487641476547,nan
1740792978.8962507,-0.4828385353340453,1.1175516377640717,1.2224839439023343,-0.7482191759229901,nan
1740792978.9001565,-0.46243130233559904,2.1047057115786116,0.2363746071657042,0.0628323113164572,nan
1740792978.9040623,-0.144108962566173,1.2733157150907142,-1.0180520047599333,0.5951960631682075,nan
1740792978.9079683,0.253259179198539,-0.4591338864414432,-1.0639604792085169,1.0082533405941354,nan
1740792978.911874,0.39280181824565474,-1.4582516100641738,0.1717721886207375,1.1308777920789284,nan
1740792978.91578,0.0952320984672609,-0.986395780715728,1.3562524161458094,0.5585392811148548,nan
1740792978.9196858,-0.37554609188892707,0.1895547888700674,1.2942369796350173,-0.5436462427270579,nan
1740792978.9235916,-0.4576373865223539,0.7792109475431948,0.2001287760444071,-1.2365549862264453,nan
1740792978.927502,0.10544997411867824,0.389262731917592,-0.715096333460928,-0.7784989355272529,nan
1740792978.9314077,0.8443218942258819,-0.19339889135121036,-0.7161559539773552,0.3625885975847558,nan
1740792978.9353137,0.9388158514781959,-0.08281808945894346,-0.2536537716915637,0.8872444103119639,nan
1740792978.9392195,0.10950274157671187,0.5914483598099796,-0.15066924194110767,0.1700530280828553,nan
1740792978.9431255,-0.9726373173256425,0.8434959301464219,-0.43875570424972526,-0.9153316378880663,nan
1740792978.9470313,-1.3118273461471255,0.04315991734413138,-0.3879806164682782,-0.9622994561808109,nan
1740792978.950937,-0.6113621801585984,-1.2580888908893944,0.35049230032228246,0.2882148867268563,nan
1740792978.954843,0.44575185194706884,-1.843414299633897,1.0767749903736872,1.5717646352857446,nan
1740792978.9587488,0.9552540975166653,-1.0899499248206646,0.8448929564426829,1.5083166908620766,nan
1740792978.9626548,0.6901295610171025,0.4262618605732749,-0.23698539511597833,0.1300037011394242,nan
1740792978.9665606,0.14670264407945824,1.5662841905895308,-0.9628226249580071,-1.240192710164748,nan
1740792978.9704664,-0.17009426357810384,1.709099027306895,-0.46678890484897256,-1.5066733047408247,nan
1740792978.9743764,-0.2559448026188479,1.1196663137450036,0.6073671366043027,-0.8521293177509874,nan
1740792978.9782825,-0.3467430292366942,0.3885692889140582,0.7932310245983604,-0.18866159469174923,nan
1740792978.9821882,-0.39962560683606124,-0.24320686675478645,-0.3440315793522824,0.09071465393254875,nan
1740792978.986094,-0.1273602174015461,-0.904107072328016,-1.478776636280756,0.41624021889282853,nan
1740792978.99,0.4491558449140934,-1.5910569298867023,-1.0043671813981594,1.1323513619951242,nan
1740792978.9939058,0.7764388266495049,-1.8887849348760515,0.9151147518138684,1.72295284011371,nan
1740792978.9978118,0.341782456789806,-1.3065066874230655,2.2560541972434778,1.297332738443394,nan
1740792979.0017176,-0.5991724914319209,0.14105082651890796,1.342566820626501,-0.23485353884897173,nan
1740792979.0056233,-1.1339226856686073,1.755640424384752,-1.113870090555191,-1.8136706381566525,nan
1740792979.0095294,-0.6587297326673995,2.5849523787471353,-2.5989850048084815,-2.2158556278625183,nan
1740792979.0134351,0.40370245089765694,2.084804795994004,-1.4969169122555808,-1.2554110459323438,nan
1740792979.0173411,1.0319708066367987,0.4991985035497974,1.1010708182342055,0.14637156910838445,nan
1740792979.021251,0.722796502287655,-1.2736251323911039,2.547939469072109,0.9847666582533305,nan
1740792979.0251567,-0.006449054899687315,-2.220339521191468,1.4738690861009027,1.0492949967275094,nan
1740792979.0290627,-0.3026048977628989,-1.848508663047307,-0.8534336789416922,0.7885678829917365,nan
1740792979.0329685,0.0033413896514776025,-0.5309072320939496,-2.0573423885222466,0.5879073894587594,nan
1740792979.0368745,0.2668352715776691,0.7407656152532258,-1.216087279301454,0.4222421110260442,nan
1740792979.0407803,-0.09857469855212918,1.1128005788817588,0.40649998292475525,0.13327940589312257,nan
1740792979.044686,-0.8457358391444381,0.5623855545703622,1.0576479948329012,-0.24852460599260992,nan
1740792979.048592,-1.1482089575701875,-0.132535609194171,0.4550257888111685,-0.5830532291566507,nan
1740792979.0524979,-0.5464457166652739,-0.1915082932331704,-0.2135325627979639,-0.8352474756948504,nan
1740792979.0564039,0.5426081838546241,0.3661529797691735,0.01522840977561083,-0.9978077235330611,nan
1740792979.0603096,1.2856788973620388,0.7701987004403883,0.6920966564145294,-0.8726640986184189,nan
1740792979.0642157,1.2456211340358554,0.38370773351609994,0.6514992884213191,-0.20983378934101699,nan
1740792979.0681252,0.6375688503477306,-0.5379316674661274,-0.40962010861654147,0.8184142532839548,nan
1740792979.0720313,-0.08622165726800299,-1.0862248086149187,-1.4631950760120978,1.4974499685498421,nan
1740792979.075937,-0.6706173093461563,-0.700611464239771,-1.3245788402318586,1.2107553688424917,nan
1740792979.0798428,-1.0372872166919265,0.19692004647136732,-0.014560045536851725,0.20632502587219842,nan
1740792979.0837488,-1.060256450854627,0.6707107502087593,1.2733311918510735,-0.5365187105935907,nan
1740792979.0876546,-0.6127246518359118,0.3155954685891134,1.4599217986908668,-0.37380684239623035,nan
1740792979.0915606,0.15478396703774985,-0.32315442163938357,0.593420671390494,0.21794261787634742,nan
1740792979.0954664,0.784772739909927,-0.42717065128677223,-0.4306280685621733,0.18205620011580198,nan
1740792979.0993721,0.9058550325830058,0.12857657436617667,-0.8880550007376805,-0.7831434680717713,nan
1740792979.1032782,0.5969470109453681,0.653767077694504,-0.755596267165117,-1.7038134359644703,nan
1740792979.107184,0.23891441912129563,0.4880105456590499,-0.37023346208990543,-1.364100577245394,nan
1740792979.11109,0.032060178600257214,-0.20421430274810232,0.07657492775219917,0.24468376133816722,nan
1740792979.1149993,-0.17989503069955493,-0.6283521309317164,0.5357336277462464,1.7840577203968697,nan
1740792979.1189053,-0.5452310102753102,-0.30023906499525815,0.804127602065453,1.9588404534509223,nan
1740792979.122811,-0.826194647326605,0.3835145232250787,0.5708344998038509,0.847308453112446,nan
1740792979.1267169,-0.6020656017614822,0.6053917572048239,-0.14572189581449965,-0.33364617334231705,nan
1740792979.1306229,0.13277090474886868,0.06623952092620396,-0.8104167241322421,-0.6584778465755747,nan
1740792979.1345286,0.7745689674048364,-0.679643692227092,-0.8374207781613033,-0.3838390448549128,nan
1740792979.1384346,0.6923291432376023,-0.8469437480335354,-0.23066506976164433,-0.3404838434215203,nan
1740792979.1423404,-0.03438701168859689,-0.26175657851799433,0.40033092132811426,-0.740520215013684,nan
1740792979.1462462,-0.6298663806799502,0.5046676254438343,0.5166140139231241,-0.9408914989464842,nan
1740792979.1501522,-0.44455349959797963,0.7853310480387553,0.21656345201755017,-0.3833555501099047,nan
1740792979.154058,0.3348471587858695,0.47337936669578773,0.018268931822041073,0.5807329292050081,nan
1740792979.157964,0.8957642982281249,0.0028879944015892615,0.16228990029019064,1.0634309687261823,nan
1740792979.1618733,0.6672145084232158,-0.20546407471837194,0.3265022300258959,0.7097755694542542,nan
1740792979.165779,-0.14271260542035366,-0.14888379266257531,0.09604196740862676,0.08161687659174333,nan
1740792979.169685,-0.8612352302182842,-0.10228906597356963,-0.43963669912956316,-0.10411104508101218,nan
1740792979.173591,-1.032790115639093,-0.2089158468997293,-0.7424506914254948,0.1365999357454049,nan
1740792979.1774967,-0.6861002833113011,-0.31972060946736575,-0.46960895679223696,0.1771180637908283,nan
1740792979.1814027,-0.06819346139129512,-0.21983170640495128,0.10707366328532632,-0.30008958336206865,nan
1740792979.1853085,0.6205348854502202,0.0841384845323972,0.4263765893086559,-0.8267047868970946,nan
1740792979.1892145,1.1526173442178276,0.3558737857471287,0.28949076022240117,-0.7406420935219677,nan
1740792979.1931202,1.1714416765847493,0.37440763188928883,0.03471748301065642,-0.05768245819043011,nan
1740792979.197026,0.46211636507137366,0.1406294521332551,0.05777141928870829,0.5232198612207549,nan
1740792979.200932,-0.6360124828987521,-0.14826267091753345,0.31227077168014744,0.482878347761963,nan
1740792979.2048378,-1.3229639476023392,-0.28222098417008673,0.40359993862926535,0.0881610457688604,nan
1740792979.2087471,-1.0592016307135086,-0.189432427900806,0.1120530956982712,-0.027439525975825673,nan
1740792979.212653,-0.15798551409886022,0.041345517974151216,-0.33517032790063017,0.2701818535312293,nan
1740792979.216559,0.5192758364933732,0.23777044938563596,-0.5549173560742688,0.45038241611398705,nan
1740792979.2204647,0.4996696614527268,0.25678484218409003,-0.449157266466087,0.06149176400150789,nan
1740792979.2243705,0.17098427091841378,0.08066262317697216,-0.24071685437751444,-0.6069374249238553,nan
1740792979.2282765,0.19611339353446622,-0.1631413488232202,-0.1182969646108116,-0.8262441441943089,nan
1740792979.2321823,0.588393710643708,-0.2960948083311763,-0.001782943693202475,-0.3192680282358085,nan
1740792979.2360883,0.6445270214284206,-0.23762186944278868,0.2710132227579443,0.3972416370647574,nan
1740792979.239994,-0.11232067922898148,-0.06787099903449537,0.6249466754442432,0.6403508193586421,nan
1740792979.2438998,-1.1487954052032856,0.06977600697713783,0.7543169803894014,0.34081725273842545,nan
1740792979.2478058,-1.371129198630482,0.12160253015348134,0.4638699934498577,0.0023685811040451647,nan
1740792979.2517116,-0.3865626201224489,0.15145221866285974,-0.09271211144713921,-0.03367530456255073,nan
1740792979.2556207,0.9260912293668402,0.21174665388329406,-0.567556317758522,-0.0031420761018478675,nan
1740792979.2595267,1.304861999620827,0.23180504909386862,-0.7470415866032107,-0.27414399767807585,nan
1740792979.2634325,0.4834816035161331,0.09078789586578585,-0.6530690002098101,-0.6888794146616888,nan
1740792979.2673383,-0.5428192825571305,-0.19425209465437385,-0.3735566677627142,-0.6468906965128048,nan
1740792979.2712443,-0.6825399600057691,-0.4101725026915371,0.05651256855664605,0.1046573547020279,nan
1740792979.27515,0.026403704894992417,-0.3355027247729145,0.5403955095658622,0.9958369630233838,nan
1740792979.279056,0.5581565947083431,0.010287612158002885,0.806342720631236,1.1631283867282698,nan
1740792979.2829618,0.1914947298950916,0.34514678679604505,0.5918708151978429,0.40992607071452464,nan
1740792979.2868676,-0.6209520358854048,0.3809294495126573,-0.011952446287152994,-0.5553183520066093,nan
1740792979.2907736,-0.8313567561747585,0.09642836739300355,-0.5238693450210119,-0.8991023722319832,nan
1740792979.2946794,-0.08852740701623252,-0.2544017142178042,-0.5107573117076015,-0.5296980961972823,nan
1740792979.2985854,0.8237592094386715,-0.3897231804746814,-0.053164128747235376,-0.05168273022952905,nan
1740792979.3024955,0.9056021038616158,-0.23514748105476785,0.3294485995611505,0.046457674621535314,nan
1740792979.3064013,0.09435163758834224,0.06544077181360308,0.25207721950879436,-0.07509100667054128,nan
1740792979.3103073,-0.7029016580075145,0.3128066794404757,-0.12301448109526267,0.03608848445308444,nan
1740792979.314213,-0.677405648538167,0.39086540684003146,-0.3230544820559217,0.4269075563948157,nan
1740792979.318119,0.009294686129736277,0.28402758046896764,-0.15315709615797157,0.6384591154244957,nan
1740792979.3220248,0.5245330351856962,0.04170007184717627,0.09344470738118346,0.3184328713844643,nan
1740792979.3259306,0.3749104527320448,-0.23176460133739457,0.054841584665209275,-0.2725481254619061,nan
1740792979.3298366,-0.10878062921006591,-0.39350817311054503,-0.19811584010333735,-0.5314931814204267,nan
1740792979.3337424,-0.30401853552924024,-0.3452132044003503,-0.23499292186777712,-0.2286049028635249,nan
1740792979.3376484,-0.08476181026124952,-0.13116187848885272,0.16137022186394115,0.22408134691874312,nan
1740792979.3415542,0.11704484069698892,0.07860850074635578,0.6499034789484297,0.273012769076509,nan
1740792979.34546,-0.03111765494026233,0.14427898768067488,0.6803619537762953,-0.13110008899056524,nan
1740792979.34937,-0.29197582191604626,0.09514712648327177,0.13931514736042142,-0.5069548998120104,nan
1740792979.3532758,-0.18686803304594723,0.08414610065531265,-0.49039885478132655,-0.41826010808619013,nan
1740792979.3571818,0.3189430274804942,0.19560558659037405,-0.6594489480638959,0.0597592189130297,nan
1740792979.3610876,0.679556026733945,0.325806011339297,-0.3415027648179307,0.48371430741965377,nan
1740792979.3649936,0.3952821149854855,0.28289227352834195,0.005486486222027985,0.5375781111801826,nan
1740792979.3688993,-0.3472265034511377,0.001204433506793644,0.02105468680749987,0.2827944234440175,nan
1740792979.372805,-0.816518283126991,-0.36642905374393625,-0.15763901159758456,-0.027604438827224756,nan
1740792979.3767111,-0.5292243939926764,-0.5745304986427245,-0.13621151993723424,-0.2302836477798881,nan
1740792979.380617,0.2117292589502398,-0.4886426891544471,0.20201986662659988,-0.2960570281195675,nan
1740792979.384523,0.6492744773096025,-0.16826148861649068,0.5457989948879797,-0.2182662238877877,nan
1740792979.3884287,0.39296830014555745,0.2115889944291368,0.5493465097708106,-0.009104570338904189,nan
1740792979.3923347,-0.1924126614899584,0.48168067967238215,0.2451238207558454,0.19438714907536378,nan
1740792979.3962445,-0.4367977979137831,0.5387208461674055,-0.038455457255003454,0.16668100657635976,nan
1740792979.4001503,-0.11511751726399441,0.35769150197684435,-0.1158605640447982,-0.15252256998020833,nan
1740792979.404056,0.3420490714332053,0.009232051058565489,-0.1563564384253448,-0.4850509831680679,nan
1740792979.407962,0.37710939523239456,-0.33671945699145794,-0.39983732398875044,-0.42283104374952796,nan
1740792979.4118679,-0.05318501679874477,-0.4828996836069251,-0.7558834638131954,0.12992774105254126,nan
1740792979.4157739,-0.4453688639809176,-0.3378695405928597,-0.8196506708329229,0.7730443786390041,nan
