timestamps,TP9,AF7,AF8,TP10,Right AUX
1740793848.3119738,-0.6316699864260915,0.17272209943533026,0.04018535347566041,-0.2971186502813649,nan
1740793848.3158798,-0.049951855986911146,-0.020830361837795856,0.2170174565438415,-0.0011096825225461507,nan
1740793848.3197858,0.5844331899735934,-0.44124444464790347,0.1967585401240017,0.22505768709096033,nan
1740793848.3236918,0.8414280184372506,-0.6137284574041786,0.05533559445700007,0.26179554682073475,nan
1740793848.3275979,0.583380852116877,-0.2489109260765316,-0.032447465360606866,0.1133313797629873,nan
1740793848.3315039,0.05594638512855442,0.3596281882335883,0.0224817470694068,-0.05817719766958508,nan
1740793848.3354099,-0.3420668768081721,0.6233762221158251,0.13732139513103309,-0.04620481371308638,nan
1740793848.339316,-0.38685107440128574,0.31740223991282124,0.1531801311136865,0.19525148968462247,nan
1740793848.343222,-0.17320985724049323,-0.17455731322846704,0.007763578406386243,0.45567372648939053,nan
1740793848.347128,0.023244424567182627,-0.31820275856371977,-0.19523035776827893,0.42764233775978294,nan
1740793848.351034,0.01646444079905493,-0.03310304551301523,-0.28785299475487064,0.013389396990512668,nan
1740793848.3549397,-0.13440922044506448,0.2681894252787607,-0.2006387909288818,-0.5274239657739634,nan
1740793848.358848,-0.2134606792360674,0.2111517289818561,-0.01945486892054591,-0.7772877738850495,nan
1740793848.362754,-0.08298500839091368,-0.11025143439047207,0.11192011959741084,-0.5417931521607942,nan
1740793848.36666,0.16843140336357929,-0.3019611237158459,0.1307944581608768,-0.031114916099411763,nan
1740793848.3705661,0.3135698186848337,-0.17623459916557802,0.09172809283919675,0.3506918316127533,nan
1740793848.3744721,0.222167510470213,0.04874351743926972,0.07805898468066148,0.39089403083909346,nan
1740793848.3783782,-0.0014063437993145115,0.06964039209056948,0.10112005739538892,0.22772263186579755,nan
1740793848.3822842,-0.12892988968074823,-0.10445603839883602,0.09899593509772807,0.13830403364428714,nan
1740793848.3861902,-0.05286354256638401,-0.1808451281265816,0.023671472107737734,0.21377476092382655,nan
1740793848.3900962,0.10175158177675245,0.023848582238613837,-0.09275910455696416,0.2818308206892796,nan
1740793848.394002,0.12290477385377852,0.3361553384005832,-0.16767821538602667,0.13631992101570795,nan
1740793848.397908,-0.04853978087205119,0.4230245063567588,-0.1524979650479037,-0.20793065268591635,nan
1740793848.401814,-0.25496684178855133,0.17525422279903208,-0.07413639342114015,-0.5155698632834466,nan
1740793848.4057224,-0.3001527892918365,-0.1820480715421392,0.004318780682281113,-0.5596157280619711,nan
1740793848.4096284,-0.15632750326245728,-0.3499148100406434,0.04708462268883693,-0.3168405040701954,nan
1740793848.4135342,0.03548605238887438,-0.2533910219759451,0.061894790646681415,0.0478989396636065,nan
1740793848.4174402,0.1489135703074308,-0.0551288799422623,0.06741464474616737,0.33558447002277153,nan
1740793848.4213462,0.19735736692087905,0.06509141548949816,0.06662901431932404,0.42967856714720293,nan
1740793848.4252522,0.25132103069131745,0.07507940993101969,0.05612453580171984,0.3163132775923136,nan
1740793848.4291582,0.28148510656837045,0.04876326158657146,0.041880706746078154,0.07212680879123473,nan
1740793848.4330642,0.16535550241092298,0.03774598234657759,0.027265116428492484,-0.1503133024524346,nan
1740793848.4369702,-0.1252104457289668,0.029389459180065483,-0.006747716182503401,-0.194960152334323,nan
1740793848.4408762,-0.4044397156643116,0.001993247017587808,-0.08196342504234763,-0.03767474428872118,nan
1740793848.4447823,-0.42105235477919456,-0.030086366404361624,-0.17025780724320447,0.1517648869119055,nan
1740793848.4486883,-0.14081667624161542,-0.0320973429780395,-0.18200495655336774,0.1498351574653663,nan
1740793848.4525964,0.1765461307106,0.018233076334323382,-0.045282116702468116,-0.07732460837523386,nan
1740793848.4565024,0.23666751119067778,0.11444995066545385,0.18777568588077834,-0.306090317826684,nan
1740793848.4604082,0.034170160426295816,0.20455431947887665,0.3379865904467015,-0.28823560581450064,nan
1740793848.4643142,-0.1380390130342457,0.1847758007220211,0.24385310276326772,-0.04471663873591955,nan
1740793848.4682202,-0.02594750058419979,-0.03184901911815572,-0.06896045907113874,0.14315128893895923,nan
1740793848.4721262,0.2784176492283288,-0.37901865203190765,-0.37417495484201013,0.07451437871859323,nan
1740793848.4760323,0.41933127989902114,-0.5922420095337239,-0.42757426348848415,-0.0976352294838898,nan
1740793848.4799383,0.17011093272722935,-0.40148304086730424,-0.18187428964075086,-0.03139345834752967,nan
1740793848.4838443,-0.2992321302529129,0.16093431015907175,0.17494211778748295,0.3492807899359484,nan
1740793848.4877503,-0.577591308484667,0.6859647423279033,0.39309478708646406,0.6630504418500768,nan
1740793848.4916563,-0.4209309436647793,0.7228741623637024,0.37027800678660117,0.4455014614239621,nan
1740793848.4955623,0.022024279705783897,0.23286093396597674,0.19641170944291514,-0.28230108807516424,nan
1740793848.4994702,0.3806232949722788,-0.340703031771721,0.016829992556322844,-0.9224426451792954,nan
1740793848.5033762,0.4158592898066476,-0.5113062599884733,-0.11639818459234653,-0.8667239379970797,nan
1740793848.5072823,0.18974247095177535,-0.23911649713078678,-0.24521445912435388,-0.14123402710035496,nan
1740793848.5111883,-0.068421662818281,0.0760963723838311,-0.38219762740132024,0.5895733301831383,nan
1740793848.5150943,-0.1958496621792862,0.08449930467161608,-0.43162633236209,0.6913017871937157,nan
1740793848.5190003,-0.18550356907929977,-0.12201277112930564,-0.26798244257147363,0.18598050541977576,nan
1740793848.5229063,-0.10633922848773401,-0.17301302306311703,0.10442147723067143,-0.3280998647584505,nan
1740793848.5268123,-0.008966170046972028,0.08258078671702829,0.4944565084477726,-0.33943893845080336,nan
1740793848.530718,0.07900170137430981,0.36912951133900973,0.6550315526595176,0.07489893429438586,nan
1740793848.534624,0.11906402691623975,0.32334503361800987,0.48642331235905,0.4178954958001718,nan
1740793848.53853,0.07901267989008384,-0.04726684686091728,0.11280240005201825,0.3473003615849247,nan
1740793848.5424361,-0.013368204341782585,-0.3578026658725654,-0.239863613154198,-0.011174908409622675,nan
1740793848.546345,-0.07108924478412322,-0.29463432927826116,-0.43235979344676,-0.29777221594438863,nan
1740793848.550251,-0.03024133527452431,0.035733639539714625,-0.4757364829643679,-0.33838117642027654,nan
1740793848.554157,0.07292373198484196,0.2666874012500849,-0.42904329195750324,-0.24808917826119276,nan
1740793848.558063,0.12429628107984353,0.20725226392604817,-0.2822913673626753,-0.17738098924045023,nan
1740793848.5619688,0.038673513805860996,0.007527135622637071,0.01389574082577352,-0.09545178388630415,nan
1740793848.5658748,-0.15341653515585843,-0.10234160311693756,0.4023474119757056,0.10841529464974875,nan
1740793848.5697808,-0.3160876317454026,-0.10436742643805899,0.6599200800091288,0.3820819514875651,nan
1740793848.5736868,-0.30046227893531907,-0.1309077881297372,0.5578061430835429,0.4903930938382958,nan
1740793848.5775928,-0.051128414562277846,-0.1876687465203529,0.1122955129378073,0.2752318564051854,nan
1740793848.5814989,0.3325924081471214,-0.1039770300677886,-0.3596312265015498,-0.1264174444177168,nan
1740793848.5854049,0.6196818357780426,0.1854583891268338,-0.49776107375566236,-0.38998037944522007,nan
1740793848.589311,0.5730197647873702,0.43424878754224255,-0.2410806103063153,-0.3241581194984296,nan
1740793848.5932195,0.13245709822517607,0.3140767742478654,0.10835103490562221,-0.044445353092276395,nan
1740793848.5971255,-0.47934640980936205,-0.14854867184846232,0.19459011836946946,0.17189223224508915,nan
1740793848.6010315,-0.8629735983305226,-0.5066529564032128,-0.02456487218318998,0.15742100084393584,nan
1740793848.6049376,-0.7322342533691755,-0.36378493148388485,-0.2514871282333436,-0.03390608601807718,nan
1740793848.6088436,-0.15857860527973097,0.14829824896135468,-0.19667623055058295,-0.2278698892896688,nan
1740793848.6127496,0.4674628967091375,0.4866842999395301,0.091257532983444,-0.27464452215999435,nan
1740793848.6166553,0.7475646987260207,0.30806583781033786,0.29247439613350806,-0.11130319284931679,nan
1740793848.6205614,0.5802412117484687,-0.14835674209246916,0.20047542513776212,0.218316941905956,nan
1740793848.6244674,0.18420071417446626,-0.3676952606864461,-0.033072285643783804,0.5364116815463154,nan
1740793848.6283734,-0.1472541679032285,-0.17510978492121562,-0.0915477822105926,0.5776490003238609,nan
1740793848.6322794,-0.2896393828416551,0.09634718530870003,0.10367463690699921,0.19129382654970925,nan
1740793848.6361854,-0.304083592919976,0.07375207018974508,0.27611226647762316,-0.4382136540840143,nan
1740793848.640094,-0.278047387345805,-0.16353825233954195,0.12586604248150432,-0.8390836161159414,nan
1740793848.644,-0.2138887514994455,-0.1990891995737972,-0.278417414881677,-0.6404255075139969,nan
1740793848.6479058,-0.07902611974706784,0.14965477366716806,-0.5348405046479833,0.03878646217408152,nan
1740793848.6518118,0.0920915037481666,0.5443426409261016,-0.3582309637426562,0.6401074828018309,nan
1740793848.6557178,0.2036774216027077,0.5062042548567577,0.07957461112328325,0.6729844213194466,nan
1740793848.6596239,0.20601160916805591,0.00043501129166369787,0.3359908416239429,0.1811455662427514,nan
1740793848.6635299,0.15381379194369818,-0.5017643483082762,0.2046486866334153,-0.3259118163287919,nan
1740793848.667436,0.13155894089289252,-0.5590351805414849,-0.05734871261655662,-0.40357203548898796,nan
1740793848.671342,0.14154473741984525,-0.2334019950539718,-0.05779279704032835,-0.0921347163176916,nan
1740793848.675248,0.1003055660031549,0.057256459498979805,0.2388428052871653,0.20383411462003784,nan
1740793848.679154,-0.05259484058132219,0.07868951414709015,0.4529176738128478,0.19155227371569392,nan
1740793848.68306,-0.2695879408173017,0.017527196095217804,0.24347165654648872,-0.033004563560441735,nan
1740793848.6869683,-0.42921260679526824,0.14946137582197885,-0.2670386574871076,-0.17672276094693692,nan
1740793848.6908743,-0.43238176781512455,0.41286394282349276,-0.6085214043475036,-0.11700077153205607,nan
1740793848.6947803,-0.25015591290852224,0.4615722397113679,-0.4838449878473431,0.00712265382896064,nan
1740793848.6986864,0.0878912112354561,0.12439778942923778,-0.07874668684083622,0.03869693185072718,nan
1740793848.7025924,0.4897885255869769,-0.3365079214111602,0.1892738098212116,0.019131379712685262,nan
1740793848.7064984,0.7723029577413781,-0.5114439682495951,0.15682345417083238,0.08983213377168972,nan
1740793848.7104044,0.7092571909556049,-0.3110640292780511,0.04866591304407088,0.2341218522276507,nan
1740793848.7143104,0.2114043991920509,-0.028794175077138006,0.13087871744105747,0.23636699500644034,nan
1740793848.7182164,-0.505286060329603,0.05660385166967142,0.34584427173950616,-0.04927676959913588,nan
1740793848.7221222,-0.9908052588044177,0.007684457784460901,0.38777751077559375,-0.44931737416373013,nan
1740793848.7260282,-0.8941121148014314,0.07311609951901311,0.10599223176457143,-0.5822607621016187,nan
1740793848.7299342,-0.27385067400255325,0.2882951352939163,-0.28498317824643327,-0.24765943351032443,nan
1740793848.7338436,0.4326728800551084,0.3872836662222888,-0.45015774919837953,0.33466213571929576,nan
1740793848.7377496,0.7745884672474779,0.1565090830657995,-0.31609222346238597,0.7084539540649896,nan
1740793848.7416556,0.6347752382424943,-0.2394389415350435,-0.11263420870481855,0.5955399211286544,nan
1740793848.7455614,0.23926749859786633,-0.40987137346998354,-0.04561956926063368,0.1160278472889574,nan
1740793848.7494674,-0.12007630130646132,-0.19879789098751874,-0.041548362749990714,-0.36942751990833006,nan
1740793848.7533734,-0.3191221683135484,0.12608888878286875,0.10515973220826949,-0.580141026617551,nan
1740793848.7572794,-0.38000715950723196,0.2007606758717181,0.3892839174302752,-0.4776578651032057,nan
1740793848.7611854,-0.31897220502284346,-0.000939007838511932,0.5274297659600612,-0.19015195367620122,nan
1740793848.7650914,-0.1127476304010773,-0.1670166827187254,0.28467752469789565,0.13147834890796545,nan
1740793848.7689974,0.18375904978883006,-0.06526356646608127,-0.20335100852801993,0.37064189457083857,nan
1740793848.7729034,0.3794815688399463,0.16299903074477964,-0.5285356733292598,0.4385778357290307,nan
1740793848.7768095,0.2946798035463243,0.20219738140033694,-0.43363403014354185,0.29975694853613066,nan
1740793848.7807176,-0.03041096254251491,-0.01563925836538534,-0.06904383695143038,0.02337645953494118,nan
1740793848.7846236,-0.3324912194222617,-0.21668749335203558,0.20227890129994366,-0.2330182104829471,nan
1740793848.7885296,-0.36735325541899755,-0.13851164694427862,0.1974475552797469,-0.3322595041533096,nan
1740793848.7924356,-0.13696693896535825,0.12743528917988384,0.04742663907836348,-0.2553652611176793,nan
1740793848.7963417,0.1479127247718245,0.2458593292284527,-0.03017539878712241,-0.08671464422782449,nan
1740793848.8002477,0.30402800567469407,0.06110771354736446,0.010206175011552512,0.08041099493844016,nan
1740793848.8041537,0.3209366337001395,-0.20347483565319172,0.05724753900767641,0.1996703729727996,nan
1740793848.8080597,0.2694620429660403,-0.22161468796349124,0.042914256422174266,0.24518567773400957,nan
1740793848.8119655,0.1433052062778629,0.03146042893055782,0.02072509594603518,0.18051500269923793,nan
1740793848.8158715,-0.12259987592405694,0.24782576069428414,0.036833031208109976,-0.003296271296384627,nan
1740793848.8197775,-0.4755812706050897,0.16066230985012134,0.024213969591342352,-0.2263859139687698,nan
1740793848.8236835,-0.6756703267474409,-0.13904089280763157,-0.09341188317304279,-0.34060331047867337,nan
1740793848.8275917,-0.4892365658261697,-0.3173776892545453,-0.23425498412964443,-0.24414006342993563,nan
1740793848.8314977,0.04091068952513686,-0.18545612864808894,-0.20581255403864424,0.02193552603482146,nan
1740793848.8354037,0.5736725246049669,0.10704863444516688,0.04248863882767517,0.2971973816706799,nan
1740793848.8393097,0.7572037692169752,0.27264961866701903,0.2941451327644369,0.4174571383719977,nan
1740793848.8432157,0.5296917556091418,0.20618559593456148,0.2838324762769826,0.31267210570225545,nan
1740793848.8471217,0.12130417539006517,0.049745817556643694,0.02397412934633025,0.02956308897577546,nan
1740793848.8510277,-0.2099061898938391,-0.023735014311847352,-0.18498556911646152,-0.2935788979687433,nan
1740793848.8549337,-0.3893711259692338,-0.007840534290195591,-0.11434734295660719,-0.47489729668038994,nan
1740793848.8588398,-0.4739284568251957,-0.018734784034975003,0.09841977143841864,-0.3809963521814332,nan
1740793848.8627455,-0.46942981674310186,-0.11387785159760927,0.11402549038660478,-0.04687367635121763,nan
1740793848.8666515,-0.29296909108617264,-0.21941367922507535,-0.16116222268485866,0.2941648884065748,nan
1740793848.8705575,0.06869453394874879,-0.23063857200007346,-0.40891260346172786,0.3740848926907243,nan
1740793848.8744667,0.43672005210765436,-0.12667282269913577,-0.26079408572381474,0.14809958199803983,nan
1740793848.8783724,0.5573106279431589,0.03816335153790837,0.22912133673356283,-0.12643768708004008,nan
1740793848.8822784,0.3547095595717038,0.21192701592764157,0.5922075539356135,-0.13589550598096384,nan
1740793848.8861845,0.02303913545275886,0.36040072350860664,0.458789963503467,0.13715152867801533,nan
1740793848.8900905,-0.1675390128340884,0.41616013646558886,-0.023809237948939188,0.35506522229888937,nan
1740793848.8939965,-0.14079826413692226,0.28152414112779844,-0.3699585046335462,0.17907989045855247,nan
1740793848.8979025,-0.06016573257928273,-0.06371086513004134,-0.3132021984540164,-0.3242502247391111,nan
1740793848.9018085,-0.11004981087977223,-0.46773593630240784,-0.07038021986001489,-0.6956686024082989,nan
1740793848.9057145,-0.2718137685080252,-0.6708579013141263,-0.013219559012721548,-0.5433533255875801,nan
1740793848.9096205,-0.3450948634310195,-0.5052814421847516,-0.18093883891375523,0.03894151743598911,nan
1740793848.9135265,-0.17646842250835962,-0.04662777993823365,-0.24733410727110294,0.5619651187290114,nan
1740793848.9174325,0.16649807259336794,0.4279026722973713,0.030311347659195676,0.6391189689043073,nan
1740793848.9213412,0.45468603395382295,0.6354808728834556,0.4596677897984145,0.33597409249848487,nan
1740793848.9252472,0.504526346354118,0.47502938169349435,0.6077327841265092,0.00691665997063724,nan
1740793848.9291532,0.31113185399829957,0.0795590538537787,0.3015201592905182,-0.13799679076300414,nan
1740793848.9330592,0.003909246649122429,-0.2808329922829173,-0.17849904067233283,-0.20341818988153407,nan
1740793848.9369652,-0.2797206269245654,-0.379324028893095,-0.43033036178107476,-0.3495715657418657,nan
1740793848.9408712,-0.45742906950357515,-0.19225877186837287,-0.3604586530807149,-0.4870518388585037,nan
1740793848.9447773,-0.4781500798984775,0.07663181998429552,-0.19973090551268505,-0.3528870459688571,nan
1740793848.9486833,-0.30317273547449647,0.16094841109183175,-0.14273136867376227,0.11468892508253206,nan
1740793848.952589,0.045186805980961066,-0.020728014689301903,-0.10829785724536022,0.5955625886375571,nan
1740793848.956495,0.42473686969281343,-0.2664915425277458,0.08378635234930874,0.6746720802033251,nan
1740793848.960401,0.6121130267186065,-0.27800080730088883,0.3915860012663143,0.286499895977056,nan
1740793848.964307,0.45608049338942724,0.02350417670391851,0.5380638349577607,-0.208918029213096,nan
1740793848.9682157,0.025032474739464294,0.3873260426531048,0.33616675263502116,-0.4138336997416345,nan
1740793848.9721217,-0.40363654440373636,0.4762366970449338,-0.07083389830311593,-0.2894633610094208,nan
1740793848.9760277,-0.5400606713967111,0.2155000608378426,-0.3645052919384971,-0.11220031529572858,nan
1740793848.9799337,-0.3155757618520449,-0.14028965880383154,-0.397380021972061,-0.08523535075460968,nan
1740793848.9838398,0.055399658224280446,-0.2975815966467491,-0.29193546294857764,-0.10579380606150153,nan
1740793848.9877458,0.26031064518706937,-0.22792589691401058,-0.19982830092904394,0.03818302434814793,nan
1740793848.9916518,0.16829862360530687,-0.13128312096968667,-0.08052906279903156,0.3225489773385345,nan
1740793848.9955578,-0.05537038989054627,-0.13118979535129066,0.1875852644148,0.4561582805542692,nan
1740793848.9994638,-0.12184332999330079,-0.11173677673802268,0.5261938975823572,0.2217399975475231,nan
1740793849.0033698,0.0791850634554087,0.0837172077483631,0.6278728888480043,-0.2297707560032659,nan
1740793849.0072756,0.35056606319401473,0.36093916124023545,0.2824799793246149,-0.5014841349780289,nan
1740793849.0111816,0.3762694653221102,0.4117684997813222,-0.32401347673104747,-0.3582536019151185,nan
1740793849.0150902,0.04789819005425541,0.08873204376575473,-0.731180331389079,0.0438269053702611,nan
1740793849.0189962,-0.4040130272096616,-0.3434103221907121,-0.6397308520043967,0.34445728601095593,nan
1740793849.0229023,-0.6139589553848059,-0.44303484994630005,-0.17483958563368085,0.34003541227319967,nan
1740793849.0268083,-0.41606716730639814,-0.08767488797619491,0.29306106786180436,0.12075454706407616,nan
1740793849.0307143,0.022532905813961886,0.35431741385874266,0.5157617249990359,-0.10291764559897858,nan
1740793849.0346203,0.37918962888972835,0.41089586567341463,0.4985261572821911,-0.21983605299246442,nan
1740793849.0385263,0.45680033936172143,0.023944170823684312,0.3316015626192135,-0.2418643443540068,nan
1740793849.0424323,0.29463846629207785,-0.3975336354201978,0.03856618956992774,-0.1883533779665778,nan
1740793849.0463383,0.05788574113485844,-0.43914721920374333,-0.34013294187064935,-0.04272300918423982,nan
1740793849.050244,-0.12024305186755278,-0.1113910911525111,-0.6101217291846238,0.16726642185268617,nan
1740793849.05415,-0.18881522800741563,0.22798321704347818,-0.5281480189547538,0.32131145589560217,nan
1740793849.058056,-0.14749392378637757,0.3095603593795031,-0.09287108653417592,0.3012932870236841,nan
1740793849.0619648,-0.03688512161996453,0.19875080341742168,0.3635128660005806,0.12114177603864712,nan
1740793849.0658708,0.047871112597923954,0.10360005416740319,0.47759796819927836,-0.0845705479553469,nan
1740793849.0697768,0.009040025516688484,0.06478527457011181,0.2377005865064641,-0.20475222710834368,nan
1740793849.0736828,-0.13733934346866636,-0.0460728233264405,-0.0208846184255622,-0.24172867667455958,nan
1740793849.0775886,-0.2287817618561988,-0.25465988306513343,-0.025923139940250167,-0.24180328896872907,nan
1740793849.0814946,-0.10881047411735105,-0.3606434668300281,0.11126178850383224,-0.18895513588603804,nan
1740793849.0854006,0.17229561384137215,-0.17628386182940567,0.06674607765670537,-0.03260537943933105,nan
1740793849.0893066,0.36510158530608455,0.1780056699967786,-0.24390639059842423,0.18624041601472371,nan
1740793849.0932126,0.28000082307399454,0.346895804620337,-0.5088213641301229,0.3142124427117637,nan
1740793849.0971186,0.014383527799349538,0.14467004388203067,-0.3763829762308331,0.24523792021252616,nan
1740793849.1010246,-0.14540835182000833,-0.19907057885822954,0.10299739412777387,0.06716392759482094,nan
1740793849.1049306,-0.06269017933101695,-0.28066814453055733,0.4984919059104358,-0.02411869984142021,nan
1740793849.108839,0.07709464586211418,0.015385460771747926,0.468010473289938,0.03132551391795063,nan
1740793849.112745,-0.0020379326969329143,0.3793638174840924,0.11419277355614864,0.06823138755277626,nan
1740793849.1166508,-0.2922603780159808,0.42161109582116385,-0.18139873249464494,-0.09041668190360858,nan
1740793849.1205568,-0.45980804092588495,0.08738100703870104,-0.2093438823171207,-0.3654276965381963,nan
1740793849.1244628,-0.22918889159136352,-0.32299650938159596,-0.10902538046814728,-0.4594086166173202,nan
1740793849.1283689,0.25242193265789276,-0.4965682219760616,-0.09668886365074851,-0.19999558776866852,nan
1740793849.1322749,0.5344394575669367,-0.38116987380170525,-0.14665959617860314,0.21860415818873033,nan
1740793849.1361809,0.35930121085804667,-0.12336100421850331,-0.05507502595371147,0.4196491563938048,nan
1740793849.140087,-0.04592087528113347,0.1468464648438106,0.21703301485427767,0.2649012817097887,nan
1740793849.143993,-0.2396100305694018,0.37464334998793586,0.4073206465446912,0.008399682337517105,nan
1740793849.147899,-0.07783775997861458,0.4793651252485427,0.24114949675534383,-0.01955065750698057,nan
1740793849.151805,0.14859541106077698,0.3460350481410861,-0.20134568166572192,0.1755915512678802,nan
1740793849.155713,0.10731763400349192,-0.00833499159256333,-0.5153349963891415,0.255528141957569,nan
1740793849.159619,-0.15375788964725998,-0.34169940595130827,-0.393305245511598,-0.019096788059518262,nan
1740793849.163525,-0.2857903327895725,-0.38555464532831196,0.04782064277384445,-0.45072635874494854,nan
1740793849.167431,-0.10899198064633425,-0.15129539191789554,0.40486122760630233,-0.5914792797851357,nan
1740793849.1713371,0.13869134963869928,0.05778911332616498,0.4090465407329384,-0.25653152675704616,nan
1740793849.1752431,0.10623684495706662,0.002403289592347349,0.1461796332711011,0.24064969872449563,nan
1740793849.1791492,-0.19409371478375137,-0.18796196157750203,-0.1180851840046453,0.42066866639075884,nan
1740793849.1830552,-0.35826790883139725,-0.1676582404575349,-0.2315742630572571,0.16174616177632767,nan
1740793849.186961,-0.07536437652199272,0.1725377068965375,-0.22268780728337695,-0.18345166480740713,nan
1740793849.190867,0.4630165785229621,0.5205497330910269,-0.14971076072507133,-0.19759236609988795,nan
1740793849.194773,0.7416140935284135,0.4879710320323969,-0.007271000583262194,0.1442107527613656,nan
1740793849.198679,0.4829465733104904,0.0767394988411935,0.18545601384811802,0.47243426928227233,nan
1740793849.2025871,-0.0751882739151875,-0.3170873109175796,0.2962586089274343,0.437116125301213,nan
1740793849.2064931,-0.4857126931438904,-0.37414311242364995,0.18371106990958785,0.05320927790218345,nan
1740793849.2103992,-0.5664663837356243,-0.20379057453143332,-0.10839478542332692,-0.366850119143715,nan
1740793849.2143052,-0.4701564172008918,-0.13508549927447192,-0.3391112060907204,-0.5453391275753399,nan
1740793849.2182112,-0.3467184148858083,-0.23480103350055273,-0.30194280003546536,-0.44710996527034,nan
1740793849.2221172,-0.1209511996302102,-0.20553056783002555,-0.03957454339948618,-0.20561348972471694,nan
1740793849.2260232,0.29838046018499037,0.1780873204837517,0.213610750110248,0.04895173548930914,nan
1740793849.2299292,0.7054669202094263,0.6661485489189839,0.282867298605684,0.24425501564387866,nan
1740793849.2338352,0.7001758294383732,0.736300489851592,0.19427775212057508,0.32355038719612395,nan
1740793849.237741,0.1728665107277958,0.20928468743951031,0.07029823994230293,0.255875584729175,nan
1740793849.241647,-0.4421223400257596,-0.4801069061623451,-0.036210069547580236,0.10940034513485244,nan
1740793849.245553,-0.5560228129491965,-0.7269713536232284,-0.14436492986595717,0.03844910216826712,nan
1740793849.249462,-0.07624527558673422,-0.4058541471782013,-0.2265915576223297,0.12420614542958314,nan
1740793849.253368,0.4521001422917268,0.04666305560728438,-0.19140886015625863,0.24137231154245645,nan
1740793849.257274,0.42671633677359966,0.19089773642052957,-0.02355725631706507,0.15440813350153296,nan
1740793849.26118,-0.1542098763677507,0.07494343288071363,0.1300431936490481,-0.2149268694650148,nan
1740793849.265086,-0.7068031624743448,0.06564586862262407,0.10285325279988518,-0.6451415235688449,nan
1740793849.268992,-0.7090368514531603,0.2857673291363132,-0.06774583373220748,-0.7855957899748358,nan
1740793849.272898,-0.21821302590127886,0.4181098870340442,-0.1438055204531288,-0.4791280275564941,nan
1740793849.276804,0.2955232630935155,0.14048986387066276,0.03722214183705459,0.09648444419721802,nan
1740793849.28071,0.5112235912039901,-0.38237359573014457,0.3366004189562749,0.594508195030424,nan
1740793849.284616,0.5084837516165752,-0.6165242297346617,0.43686754003693967,0.7735734690097621,nan
1740793849.288522,0.4818876813222188,-0.27735773945881853,0.19015333706173038,0.6176849860236923,nan
1740793849.2924278,0.39591959464010373,0.30867703306182054,-0.2180158963124612,0.26307848152251734,nan
1740793849.2963367,0.07298424982250723,0.5522884570812059,-0.47589568291121426,-0.1149535756851122,nan
1740793849.3002427,-0.4373290609447336,0.24523991785880922,-0.4578638316889705,-0.3572649046709851,nan
1740793849.3041487,-0.7712122752471452,-0.2531935900818141,-0.2758062342762392,-0.3695010596521881,nan
1740793849.3080547,-0.6307839852200089,-0.45705073039325117,-0.06725004035143695,-0.20225520260604277,nan
1740793849.3119607,-0.16028707748280596,-0.2546341809752862,0.15355012129380863,-0.058031553402217495,nan
1740793849.3158667,0.1933393058475157,0.0838494377402547,0.39455304914008027,-0.12183223666899468,nan
1740793849.3197727,0.1928466493254157,0.2830739765358183,0.5360074066925711,-0.33862786082553525,nan
1740793849.3236785,0.057124202660507155,0.3006170092915197,0.4100715258265626,-0.416382769094846,nan
1740793849.3275845,0.1302158777080014,0.21181437512240273,0.03915492441059876,-0.12965651288625413,nan
1740793849.3314905,0.40331862972225047,0.03871895733490498,-0.3121736053520019,0.38566418167127564,nan
1740793849.3353965,0.5129670933634312,-0.19068572004218542,-0.3975603439204451,0.722180299886179,nan
1740793849.3393025,0.2222922289295899,-0.31594980422862223,-0.2511941143987034,0.6287485681404591,nan
1740793849.3432112,-0.23944564237077015,-0.1711578328398668,-0.10661292650617092,0.2885223631745233,nan
1740793849.3471172,-0.42899691623627056,0.1282485391352607,-0.0798197222720407,0.08395865953831262,nan
1740793849.3510232,-0.22207004166557928,0.20042521888103937,-0.05295651653638475,0.10186298003623624,nan
1740793849.3549292,0.04864158702522976,-0.14606935766565043,0.08489356575682734,0.0030685147480136693,nan
1740793849.3588352,0.02314526495568803,-0.5463264554463898,0.2088298942030458,-0.5143967016249016,nan
1740793849.3627412,-0.23806204222182423,-0.39084518587964495,0.12240510398231799,-1.185753667587711,nan
1740793849.3666472,-0.3523248655143119,0.41175152407242144,-0.08430242086812711,-1.296009814120001,nan
1740793849.3705533,-0.12011569483413677,1.1483680842147008,-0.05053821932793311,-0.447032127019439,nan
1740793849.3744593,0.2146322313246423,0.9869582331111423,0.35481133145303106,0.8515619339577908,nan
1740793849.378365,0.2755283106205034,-0.05782767951422376,0.690628855174329,1.5278047793172937,nan
1740793849.382271,0.03379121250241096,-1.041555225473064,0.3612569507126973,0.991256258784777,nan
1740793849.386177,-0.14476256260943332,-1.0856558199147917,-0.5713648507157558,-0.20366245612872458,nan
1740793849.3900857,0.0671398496379889,-0.3305943026345176,-1.2368080992229358,-0.8414226359408983,nan
1740793849.3939917,0.5748755366580216,0.2892656300259258,-0.864430686719492,-0.24932410448003298,nan
1740793849.3978977,0.948488968033971,0.18413715221049362,0.22743891487985066,0.9936187602140678,nan
1740793849.4018037,0.8134876774940047,-0.22774104271883278,0.8642395881488623,1.573797141397561,nan
1740793849.4057097,0.09950776910496482,-0.13612833814281983,0.3882410264714421,0.678713362914616,nan
1740793849.4096158,-0.9888138474739412,0.5648093595233566,-0.44265059452243477,-1.2395104681628222,nan
1740793849.4135218,-2.0476484088507307,1.1054607292701482,-0.2923214879307232,-2.836083724875821,nan
1740793849.4174275,-2.4819402651140567,0.8134828223047366,1.001473334721859,-2.947279587292692,nan
1740793849.4213336,-1.6856469333338338,-0.034368637489740436,1.9209404219805641,-1.3987594159168177,nan
1740793849.4252396,0.43849163432715965,-0.5979274752993592,0.8969912458489778,0.9971180970120224,nan
1740793849.4291456,3.0132380340798295,-0.5839986698413202,-1.649637114255098,3.0385704231791624,nan
1740793849.4330516,4.4527765540107085,-0.5722909670746997,-3.3627095915566705,3.7835104727224698,nan
1740793849.43696,3.553738147075322,-1.0570600092113764,-2.3444069205703952,2.9234717574474076,nan
1740793849.440866,0.5575314017772021,-1.4810209546038027,0.6888225929483848,0.8540825580225808,nan
1740793849.444772,-2.853711867190121,-0.7175634049671694,3.014926187567521,-1.5176268400358457,nan
1740793849.448678,-4.7283240704241845,1.3699180154451285,2.7183597602562757,-3.19737441014034,nan
1740793849.452584,-4.179108853960432,3.244563901264605,0.5714372050738498,-3.5888141532885283,nan
1740793849.45649,-1.7902647226969233,3.0241521742126936,-1.0932135802156189,-2.722209098843963,nan
1740793849.460396,1.0324106764808003,0.5313042845377873,-1.0826926774036116,-1.0635800579671362,nan
1740793849.464302,3.0054133019592997,-2.30015141901291,-0.39750542708479303,0.8577834339027588,nan
1740793849.468208,3.4924315247644375,-3.2735860151011766,-0.5291766384150489,2.5943006807799227,nan
1740793849.472114,2.5546337648409754,-2.037320107220757,-1.3122397869370566,3.6326429711293633,nan
1740793849.47602,0.8114439311002702,-0.14194619331314076,-1.1424072237710712,3.3630038331751,nan
1740793849.4799259,-0.8247583982141038,0.8556229496984746,0.6937391606637388,1.5132161836542501,nan
1740793849.4838343,-1.6369780118348756,0.9152505804857938,2.6387447196920157,-1.2609817467816162,nan
1740793849.4877403,-1.5866086994283675,0.9789038439312556,2.4365634818516044,-3.415609464882211,nan
1740793849.4916463,-1.257255305791243,1.3423718998695982,-0.07662918898907613,-3.528502262186346,nan
1740793849.4955523,-1.1434924325869167,1.200910363250361,-2.4521201328266238,-1.5474399236493066,nan
1740793849.4994583,-1.0131860500496923,-0.033063350414522026,-2.27406922502589,0.9724001062332166,nan
1740793849.5033643,-0.1991254779532585,-1.5018284887128894,0.04820942656684799,2.0898428280849277,nan
1740793849.5072703,1.3639845296065654,-1.6328620327489913,1.7377677585186015,1.154801443252915,nan
1740793849.5111763,2.617366550625424,-0.12970550201463427,0.9327595338803487,-0.644024504690827,nan
1740793849.5150824,2.2580841577512847,1.3397020416182126,-1.1027992426880247,-1.4302636182568391,nan
1740793849.5189884,0.25134911905303225,0.9232102240268526,-1.5534208763797943,-0.4024866095992547,nan
1740793849.5228941,-1.7999204588088786,-1.113375176380701,0.42838094221560097,1.4788023329469622,nan
1740793849.5268002,-2.118923709662351,-2.429762866640944,2.535370189859101,2.480313287539266,nan
1740793849.5307086,-0.6060374630812968,-1.213111661564227,1.9986074374443192,1.7166346722541603,nan
1740793849.5346146,1.022267850782718,1.6059939958500251,-0.9943126350802647,-0.16613227125567248,nan
1740793849.5385206,1.0868811071282676,3.2158290872785944,-3.2966075646961577,-1.7597863505331215,nan
1740793849.5424266,-0.23994710554949927,2.0045072068897145,-2.3441193041916266,-2.187361725190369,nan
1740793849.5463324,-1.2344439232223643,-0.6679942279126918,0.8790847070162422,-1.6378508456956276,nan
1740793849.5502384,-0.6918160498455129,-2.0619644949995926,2.946057333992653,-0.8189417929697672,nan
1740793849.5541444,0.6652048695781182,-1.1394745231572065,1.8691507344502094,-0.12752838987394904,nan
1740793849.5580504,1.1118009485595184,0.4528151014573969,-0.7790591856572409,0.5472626584371314,nan
1740793849.5619564,0.07292379338097026,0.547397519418384,-1.8983141211981471,1.3333513955867458,nan
1740793849.5658624,-1.1054231804925774,-0.9108160772110132,-0.5185886735022867,1.9227116429944353,nan
1740793849.5697684,-0.7528252126384364,-1.893253096679364,1.2580489281201352,1.7547452233882754,nan
1740793849.5736744,1.0251756320635015,-0.8324945496698535,1.0062798104915085,0.6471723759092431,nan
1740793849.5775826,2.2802998699484274,1.450412833580566,-1.0169496089553471,-0.8410304976504505,nan
1740793849.5814886,1.3714283179832059,2.7044874779313184,-2.2238346196332133,-1.7561933766411617,nan
1740793849.5853946,-1.1065166453615396,1.826298703358381,-0.8862410424975482,-1.5222361834364935,nan
1740793849.5893006,-2.8446155013788896,-0.058716767314323216,1.7328826158354875,-0.43610884192114674,nan
1740793849.5932066,-2.230042296328886,-1.1423251131777954,2.8293130074372193,0.5628324617850935,nan
1740793849.5971127,0.03333184713202708,-1.018637385790219,1.2809751158568998,0.6659479166966559,nan
1740793849.6010187,1.8026763623232338,-0.7530228524420816,-1.1852176794827265,-0.12223897146172959,nan
1740793849.6049244,1.7532301546044267,-1.091149402847407,-2.120072812898591,-0.9616233004271896,nan
1740793849.6088305,0.498310657985771,-1.3186676177699386,-1.0875337682082427,-0.8785894653732034,nan
1740793849.6127365,-0.447861468905955,-0.31598140859018575,0.20258309231035684,0.33583830076883087,nan
1740793849.6166425,-0.4201578011318263,1.6137200188110592,0.26187310826165594,1.8050449347386845,nan
1740793849.6205485,-0.04676956038047136,2.6741802411416464,-0.39012226346624435,2.2167309041267003,nan
1740793849.6244574,-0.12856834851777277,1.5824504433434263,-0.17413134125104804,1.0035068779118017,nan
1740793849.6283634,-0.5262443352140824,-0.7647838658233898,1.2252626779594835,-0.9982299609697218,nan
1740793849.6322694,-0.420893897737109,-2.121986358573352,2.2122836816437834,-2.1599766912443004,nan
1740793849.6361754,0.4784432927624564,-1.3580477525370402,1.2044846023432618,-1.5382360844671106,nan
1740793849.6400814,1.3453405515866554,0.3554563541332064,-1.236829274208674,0.16113255946276686,nan
1740793849.6439874,1.0434298475539008,1.0287832705484197,-2.7669669954155034,1.194152694567293,nan
1740793849.6478934,-0.5524017829967102,0.18189719662514478,-1.8152802857155548,0.5095760496872961,nan
1740793849.6517994,-2.2029133389874054,-0.7811867036359322,0.6199096522051505,-1.1125407107349972,nan
1740793849.6557055,-2.358350044212188,-0.4876024538535544,2.040360719253324,-1.7823726515243679,nan
1740793849.6596112,-0.6081328446016626,0.6693460383447918,1.161703539902548,-0.46481633332342287,nan
1740793849.6635172,1.8464894533189378,1.122701793342584,-0.7931629080737821,1.8310706255415174,nan
1740793849.6674232,3.127043455973438,0.21415915477737443,-1.576861995508164,2.9644720702490477,nan
1740793849.6713321,2.2127861415076984,-0.9352774022197172,-0.386013384079638,1.809165036592017,nan
1740793849.6752381,-0.19970279795405407,-0.8783720976220522,1.418806312575956,-0.6011115252730155,nan
1740793849.6791441,-2.2265963815307863,0.2666534221022225,1.9320623006984772,-2.143267910500541,nan
1740793849.6830502,-2.331075826882372,0.9503713087521629,0.6857758574881214,-1.7400006404278066,nan
1740793849.6869562,-0.6280036150958704,0.22057923616336378,-1.096833816410733,-0.2870600567930547,nan
1740793849.690862,1.2000460031323106,-0.9637876670352742,-1.9285325747755797,0.5243727193764249,nan
1740793849.694768,1.4243007065934408,-0.9028942614459979,-1.398282655085696,0.068002854183377,nan
1740793849.698674,-0.08056177132752178,0.589898997976795,-0.16246208931280076,-0.7421891923560693,nan
1740793849.70258,-1.6724173944542264,1.7467507876490078,0.9439194377128777,-0.7268145668515895,nan
1740793849.706486,-1.5604832116514398,0.9403819915936245,1.465416426494085,0.1751689745919805,nan
1740793849.710392,0.33573256847724164,-1.18657508456644,1.2136875186943559,1.023350718732711,nan
1740793849.714298,2.2386832385002475,-2.2756619987414015,0.15653153155190302,1.166767123408399,nan
1740793849.7182066,2.3252418051832096,-0.993967462714233,-1.2696037355324963,0.9623311632148167,nan
1740793849.7221127,0.6083082138777107,1.296719521970694,-2.0030846641885356,1.0148181620168002,nan
1740793849.7260187,-1.1652294406996353,2.046377086398457,-1.0766749510131213,1.0437216725534924,nan
1740793849.7299247,-1.4811741473240918,0.5026762239413002,1.2113234991815678,0.06707336235460423,nan
1740793849.7338307,-0.6435280731992823,-1.3809486433336988,3.0675820417271447,-2.1001916782489323,nan
1740793849.7377367,-0.16217932031366075,-1.262598327543739,2.609288600869494,-3.9356743330526083,nan
1740793849.7416427,-0.7223783328207682,0.7559522286132565,-0.23902724258080463,-3.3835853447105304,nan
1740793849.7455487,-1.248291510733235,2.1672200472897893,-3.3493340632565585,-0.13956840691803135,nan
1740793849.7494547,-0.29452319345704037,0.9867645966772015,-4.145028949619288,3.5438433180944817,nan
1740793849.7533605,1.8695192190306422,-1.8305733469976015,-1.9238438136805107,4.741802501733545,nan
1740793849.7572665,3.1255708002070244,-3.3190023474854726,1.5190356708317134,2.6414064143717337,nan
1740793849.7611725,1.7563695851969297,-1.7360850272888841,3.557083106405639,-0.7246417023979472,nan
1740793849.7650812,-1.4012070220673551,1.5466599921114468,3.0075536148675193,-2.5860684283977062,nan
1740793849.7689872,-3.4942584541871584,3.5243209682830057,0.8616217796541586,-2.0788318724903685,nan
1740793849.7728932,-2.5035589823369553,2.6193793017483817,-0.9807161283153157,-0.6289183514777545,nan
1740793849.7767992,0.646329509689632,-0.026049025418822647,-1.470728089592455,0.0623977737384567,nan
1740793849.7807052,3.0174341843285726,-2.100859762346202,-0.9727315845072432,-0.10311032406905515,nan
1740793849.7846112,2.5969342720646984,-2.422333273860553,-0.4342709200002695,-0.0034953706331170013,nan
1740793849.7885172,0.10191624938680167,-1.4912368969903702,-0.34393774406120164,0.8190365122521976,nan
1740793849.7924232,-2.0720467582502127,-0.2588848445954897,-0.5164274087792502,1.3408280694442938,nan
1740793849.7963293,-2.32694553179278,0.9258259315472985,-0.5794511730987043,0.42497454004875007,nan
1740793849.800235,-1.0625301428267122,1.9765526885656086,-0.35968945500070215,-1.382868030512817,nan
1740793849.804141,0.3067083399433645,2.298806483678294,0.1793301162031641,-2.0827473669523866,nan
1740793849.808047,0.9649021569940868,1.124015487920602,1.045441121940215,-0.48302012499958297,nan
1740793849.8119557,1.0996894019036088,-1.2461380601915684,2.0005579395429516,2.132972329455047,nan
1740793849.8158617,1.0864563346341047,-3.0732185560827925,2.344807500762834,3.1038960466173555,nan
1740793849.8197677,0.8564939674087475,-2.640129397889354,1.3069583732233327,1.238470844852284,nan
1740793849.8236735,0.22956067013485273,-0.12721411610437763,-1.0552913840995666,-1.7707394520034507,nan
1740793849.8275795,-0.5220170427198361,2.3308155751952917,-3.4132316523722124,-3.061598005573425,nan
1740793849.8314855,-0.8698684387340239,2.7003480988990227,-3.9691407925241577,-1.6126350712326831,nan
1740793849.8353915,-0.7460768838232961,1.030143573343011,-2.013113705654868,0.7767565649482792,nan
1740793849.8392975,-0.6647923819102034,-0.8142370941160032,1.2492917760171809,1.5785389450289309,nan
1740793849.8432035,-0.9285901340969382,-1.2711652707502346,3.552808281509315,0.3011899795696105,nan
1740793849.8471096,-0.9942821062511747,-0.5920821884800337,3.424538350104312,-1.1471705997887771,nan
1740793849.8510156,-0.05515251843371986,-0.1294875155352289,1.3162286451802314,-0.7846590589977983,nan
1740793849.8549216,1.701935284230745,-0.4788531445211193,-0.9875207879031401,1.1462700936978514,nan
1740793849.85883,2.8247268237837675,-0.8080374491344564,-1.9884310563493628,2.4724544872906704,nan
1740793849.8627357,1.9694188804587809,-0.10977497850540918,-1.534335382616799,1.5480808694572084,nan
1740793849.8666418,-0.48417187369579057,1.2906665349606359,-0.5032059637608555,-0.9129503436343039,nan
1740793849.8705478,-2.525959337649237,1.915366827652132,0.2493346477572849,-2.5933360580318965,nan
1740793849.8744538,-2.432249166997839,0.837792331431349,0.4988778266919057,-1.9847328217198275,nan
1740793849.8783598,-0.48832106209984383,-1.1203245742594037,0.42251310365661116,0.1564170808894563,nan
1740793849.8822658,1.3641304778417225,-2.135923097269187,0.1440802237182476,1.7112721452780892,nan
1740793849.8861718,1.533639401983661,-1.2520963713343884,-0.28573108660396046,1.333827177909634,nan
1740793849.8900778,0.23568524958098422,0.6813610833358157,-0.6069250895173839,-0.38657621381920354,nan
1740793849.8939838,-1.0395267655908187,1.9148937194169888,-0.386599152251071,-1.6920511805067562,nan
1740793849.8978899,-1.19874266837003,1.4665662602378078,0.4717367059402094,-1.352034500813668,nan
1740793849.9017959,-0.4236135930290496,-0.14202451997941892,1.365608186220078,0.35689857609305575,nan
1740793849.905704,0.4573431917950956,-1.562296046647499,1.3947789665293713,2.0587713797001688,nan
1740793849.90961,0.9982794327587466,-1.7860076277194596,0.26414891497995757,2.452514033065611,nan
1740793849.913516,1.2735748296682041,-0.7525589916417336,-1.274273520813157,1.2253375605196115,nan
1740793849.917422,1.2574236156799623,0.8002623691248004,-2.0113773895399087,-0.8366891195622502,nan
1740793849.921328,0.5969325120552132,1.844503650233282,-1.3711344313327811,-2.436203831455426,nan
1740793849.925234,-0.7710963719663876,1.6395006971520287,0.09114598208674604,-2.609416227565277,nan
1740793849.92914,-2.070271517906844,0.2536670694642623,1.2507889531932714,-1.3279363040881202,nan
1740793849.933046,-2.1993846210855943,-1.3088054099837672,1.4119514313338017,0.518807748855889,nan
1740793849.9369519,-0.9191350379352332,-1.7683134934160532,0.7616391607429722,1.7764858938362544,nan
1740793849.940858,0.7264855553831774,-0.7258055294443582,-0.02066037617751522,1.8445923526698664,nan
1740793849.944764,1.420413679744325,0.7959715679386073,-0.43825132096162056,1.008838309711565,nan
1740793849.94867,0.9452421283691768,1.241268764315705,-0.46148847566596907,0.04527723290771491,nan
1740793849.952578,0.3153279534889054,0.1558049747742947,-0.32483661072448405,-0.47841293231728355,nan
1740793849.956484,0.4830772672216045,-1.1923978611192592,-0.2252701957013973,-0.5471596481026332,nan
1740793849.96039,1.1401788186500676,-1.0943067829315996,-0.2169523493570092,-0.4728592519017672,nan
1740793849.964296,1.058662619477809,0.651257362794916,-0.2432228555972766,-0.47166564416209655,nan
1740793849.968202,-0.3855938027456203,2.307329376314829,-0.16589670698658185,-0.5008725526778893,nan
1740793849.9721081,-2.2709741957310787,1.9381342417733565,0.1597445643734599,-0.40366360798501244,nan
1740793849.9760141,-2.901124005719156,-0.4714328968874268,0.6882750006075523,-0.09104480801213395,nan
1740793849.9799201,-1.5015576005138638,-2.8433698425879474,1.047533763629659,0.3985962437439619,nan
1740793849.9838262,0.9541742704233189,-3.0255122034272985,0.7611835918290473,0.8836822849115421,nan
1740793849.9877322,2.6168056176366865,-0.8670179230686248,-0.23291914537062164,1.035350471995213,nan
1740793849.991638,2.3909088693124914,1.7744843130531243,-1.3121941918498286,0.5466764892683832,nan
1740793849.995544,0.7352506643567269,2.9129142420548018,-1.5930765115371839,-0.48840688137591415,nan
1740793849.9994528,-0.9575159728414884,2.108762102171844,-0.7577270503515959,-1.3762404510326143,nan
1740793850.0033588,-1.6016849076413286,0.3872559874129627,0.5664173101857018,-1.2662986380565127,nan
1740793850.0072649,-1.110976521937732,-1.062949780537685,1.3486527226043865,-0.034050814078366014,nan
1740793850.0111709,-0.14306441752386342,-1.7797202612803726,1.1059186912921095,1.333212283404684,nan
1740793850.0150769,0.6015581236534072,-1.8168735082111878,0.27788287823207525,1.5214159725975207,nan
1740793850.018983,0.8350984028029772,-1.2144885772523093,-0.3287902983807499,0.24928990281956329,nan
1740793850.022889,0.65026026433631,-0.04058054578344684,-0.3635291916059014,-1.2717390454218858,nan
1740793850.026795,0.23681143869924734,1.227189019681763,-0.13497591742364798,-1.48596595141585,nan
1740793850.030701,-0.3022252804994797,1.8244838131265853,-0.09532763675917982,-0.16300930729523716,nan
1740793850.034607,-0.8858366159655537,1.4100625614020943,-0.3127826332817208,1.2711673554263276,nan
1740793850.0385127,-1.2765050778418554,0.45794411249277883,-0.5136606916380437,1.245295116807294,nan
1740793850.0424187,-1.075271129030636,-0.2852158421845746,-0.4853660988698385,-0.20520932680081447,nan
1740793850.0463276,-0.04735552342541324,-0.6374763811838705,-0.24591995808272948,-1.4414115061370565,nan
1740793850.0502336,1.4486356020778763,-0.9965809097614767,0.14930349821016078,-1.0460893472942636,nan
1740793850.0541396,2.4412923800372845,-1.4941550045558745,0.7153413401037569,0.5721652185400691,nan
1740793850.0580456,2.00507339675981,-1.5007262947607662,1.2890460014579908,1.637445480516189,nan
1740793850.0619516,0.15148880600558753,-0.34393201742875035,1.3400070229779235,1.0096042369404683,nan
1740793850.0658576,-1.9440381602656687,1.5474568209409225,0.38530944659932576,-0.5707798288087303,nan
1740793850.0697634,-2.7951839527831654,2.656426595095459,-1.2522842018932898,-1.3975360267327308,nan
1740793850.0736694,-1.8590959232090116,1.8480467762135218,-2.335289154978162,-0.7481348532610185,nan
1740793850.0775754,0.018281398860903603,-0.2940838952600154,-1.7420046773545113,0.41745185246953626,nan
1740793850.0814815,1.4257656616683192,-1.919592884762534,0.2628841961787919,0.7345822683535721,nan
1740793850.0853875,1.6297194455811816,-1.777133680797238,2.0073950379812646,0.05651578987919935,nan
1740793850.0892935,0.9856513098479642,-0.4134536979881975,1.9435285139811556,-0.5273684252978942,nan
1740793850.093202,0.25566241490595815,0.6214596226438255,0.23510592734214686,-0.18572658461738398,nan
1740793850.0971081,-0.21956563514209299,0.5454694324631858,-1.3637279094294348,0.5869033925990679,nan
1740793850.1010141,-0.5500031058812717,-0.0029340551497929203,-1.3210888561272702,0.6621648656307972,nan
1740793850.1049201,-0.7304923530614994,-0.04833655356457361,0.09901445073440567,-0.1892676913068492,nan
1740793850.1088262,-0.45723455086738324,0.41754444621384434,1.2271147697021785,-0.9117664237101518,nan
1740793850.1127322,0.320449709076407,0.5583330608777839,0.8807063159692846,-0.46745501720594207,nan
1740793850.1166382,0.9389037277367663,-0.04746217124048999,-0.38948241577731685,0.7788421619979291,nan
1740793850.1205442,0.5451788036056637,-0.7522496548063674,-1.0684749251940673,1.3598781642823021,nan
1740793850.1244502,-0.7926852900981323,-0.6603383729267869,-0.4869822431605999,0.4105878399053241,nan
1740793850.128356,-1.8064571121912185,0.187545855461693,0.46899212690883035,-1.2451118651547142,nan
1740793850.132262,-1.227660723028064,0.8420384962914081,0.5317982903287729,-1.9408006253814698,nan
1740793850.136168,0.7131334484452362,0.6315673409780281,-0.3548382122783987,-0.9717730916680191,nan
1740793850.1400766,2.2874257088472723,-0.06981635043712828,-0.9565584298765321,0.7159141411755311,nan
1740793850.1439826,1.9891863785423942,-0.46068792632419214,-0.2791039744137406,1.6500269964764138,nan
1740793850.1478887,0.14181755734739823,-0.3925259126405541,1.131233874080658,1.3538974149111394,nan
1740793850.1517947,-1.4529810728004042,-0.3975697883244584,1.70054715667199,0.5379753813947766,nan
1740793850.1557007,-1.4667249724021991,-0.6764171021457163,0.6086381872998182,-0.025811967111225506,nan
1740793850.1596067,-0.3734336013373888,-0.594988162922744,-1.1985841003244777,-0.38257961841484805,nan
1740793850.1635127,0.32856408076012406,0.4131919247643816,-1.9416633155082073,-0.9698553472996967,nan
1740793850.1674185,-0.01649548719968652,1.7059879989123579,-0.8752992547083578,-1.6251609565751723,nan
1740793850.1713245,-0.5449412033229928,1.8243000064582957,0.9345178544229079,-1.500013133078778,nan
1740793850.1752305,-0.14916518096446513,0.25975891750145735,1.720936445016546,-0.1262396879468793,nan
1740793850.1791365,0.9624498825083713,-1.6063064728858265,0.7924425640100051,1.7048267755622832,nan
1740793850.1830425,1.4315109876160068,-1.8718077882315898,-0.8547061337064396,2.4840704428290428,nan
1740793850.1869512,0.4726903370280772,-0.369961456892393,-1.605124329248527,1.4819067678854392,nan
1740793850.1908572,-1.0118154527400491,1.0098682703694095,-0.795637220828422,-0.46318009081501893,nan
1740793850.194763,-1.3958894957425945,0.5734238371543318,0.7409862053525877,-1.7597221655150062,nan
1740793850.198669,-0.2692938121784651,-1.0033565660550512,1.5524944580268387,-1.5769118061702154,nan
1740793850.202575,1.017806614932959,-1.3918292936800687,0.9263210682190718,-0.4522282966225086,nan
1740793850.206481,0.930722805330935,0.44330539688401915,-0.5095440723050007,0.4864210523287372,nan
1740793850.210387,-0.41365350523743816,2.673476447904734,-1.3979694317255746,0.6552467319037646,nan
1740793850.214293,-1.367697068414239,2.5676811232262224,-0.8862736445076577,0.3144357231900033,nan
1740793850.218199,-0.710916675407046,-0.18447255965603188,0.5819307728431606,-0.009686287111651126,nan
1740793850.222105,0.8839687761290717,-2.851220334307109,1.609568359897811,-0.09801441531361925,nan
1740793850.226011,1.6179611831533787,-2.694848738617157,1.0895832964957775,-0.027879099237299084,nan
1740793850.229917,0.6476923725653798,-0.13689827787573663,-0.7028417908272646,0.12011788070704588,nan
1740793850.2338252,-0.9641754483112056,1.784308539552432,-2.218012528227207,0.3068321279095264,nan
1740793850.2377312,-1.4906885464257469,1.0660005150453793,-1.9849358559605745,0.3724717295901,nan
1740793850.2416372,-0.46559568927917,-0.919460689981283,-0.02538048002446039,0.10551836513165748,nan
1740793850.2455432,0.9118384555496771,-1.2623385977268018,2.072098633574514,-0.4165856002667641,nan
1740793850.2494493,1.216145796849697,0.7401106344484703,2.592810570866097,-0.735938358698615,nan
1740793850.2533553,0.30686810673773973,2.602174106797211,1.2693724394447343,-0.4807157835334585,nan
1740793850.2572613,-0.7396494386788077,1.720259066322644,-0.5976467120156432,0.11271425423599869,nan
1740793850.2611673,-0.954835435548763,-1.2698907941122424,-1.547918383986219,0.38081837891500503,nan
1740793850.2650733,-0.39761695690354326,-3.068714618507804,-1.3359741692542386,0.04708825013141982,nan
1740793850.2689793,0.23048641527416058,-1.6375302407032304,-0.8094568183954864,-0.3299509233260788,nan
1740793850.2728853,0.510893439413488,1.2927923253470166,-0.6033543267925293,0.015591187544727271,nan
1740793850.2767913,0.5624488127206783,2.2527216421460015,-0.3471384640661765,0.9860942261851916,nan
1740793850.2806995,0.5304417502795233,0.20394812884109217,0.6099848113597384,1.4769804180807584,nan
1740793850.2846055,0.24614489903228176,-2.2005311079095553,1.925707289941278,0.5619716339884057,nan
1740793850.2885115,-0.4060465789107244,-1.8158587448916232,2.233577494293088,-1.2598414746951814,nan
1740793850.2924175,-1.0211589619394994,1.1799728815181134,0.6753018504318916,-2.3224126752260377,nan
1740793850.2963235,-0.9418230587161258,3.430840107104712,-1.7515086668573843,-1.4880552798483582,nan
1740793850.3002295,-0.06646132716563423,2.3053954486371357,-2.847793431139886,0.5432814134630288,nan
1740793850.3041353,0.8619317204260655,-1.0939917391637708,-1.4481739634608843,1.862154696898137,nan
1740793850.3080413,0.9913180421671216,-3.2779419137856958,1.1831288522455439,1.3300380801641405,nan
1740793850.3119473,0.30528146234968573,-2.310407558620809,2.5006659266535496,-0.2503065003810201,nan
1740793850.3158534,-0.38469569006538573,0.3072675094660366,1.2828718477168295,-1.0764736857009283,nan
1740793850.3197594,-0.4103451408472217,1.7306062553693915,-1.103838308897467,-0.33777194069372546,nan
1740793850.3236654,0.01550719005164699,1.0202749922767207,-2.174717372119947,0.9659541732101821,nan
1740793850.3275735,0.18963891276258932,-0.281541812725295,-0.9313170370839509,1.2339383758090077,nan
1740793850.3314795,-0.11446771964905379,-0.4774705512425996,1.2039011891371696,0.0687103288883234,nan
1740793850.3353856,-0.384443745120997,0.2729519923509238,2.024079448637248,-1.3464073552195563,nan
1740793850.3392916,-0.14399325525927356,0.6223928880990899,0.8456903394097448,-1.6135777650880359,nan
1740793850.3431976,0.305060359319584,0.09548265080700888,-0.9784299595748938,-0.5999972368568253,nan
1740793850.3471036,0.240988022417993,-0.36511790983735715,-1.6706517700522643,0.5827821413148511,nan
1740793850.3510094,-0.4191921139597751,0.03786393706644313,-0.8230200036345557,0.9041003464222039,nan
1740793850.3549154,-0.7974695437794284,0.6273689901092754,0.4852631861084244,0.4402566874504694,nan
1740793850.3588214,-0.07228435340569694,0.13182107389171496,1.0502222635446683,0.035268840350490785,nan
1740793850.3627274,1.3198716825259773,-1.357459989742835,0.680607378557575,0.1928419552991343,nan
1740793850.3666334,1.889816003757601,-2.1048613437676167,0.01588706355142284,0.5646071553229611,nan
1740793850.3705394,0.700415100178723,-0.7723065701491528,-0.3926626752298005,0.5110451017999361,nan
1740793850.3744483,-1.4158464007427758,1.700275095983254,-0.510645411908525,-0.09009792745801244,nan
1740793850.3783543,-2.5418175177539437,2.8803937205946397,-0.46359486597752464,-0.7591002509660072,nan
1740793850.3822603,-1.633997448395349,1.5419171315886122,-0.17124300909013443,-1.0121244293095712,nan
1740793850.3861663,0.3991671105905395,-0.9217524736454409,0.4224966352806931,-0.8095375934375997,nan
1740793850.3900723,1.7051075257145607,-2.077062936060677,0.9363470145288416,-0.37985961692311404,nan
1740793850.3939784,1.426360152887961,-1.1272168313537558,0.7386175763750426,0.16623632042771838,nan
1740793850.3978844,0.39685121816467694,0.45208444275616755,-0.2957848532037398,0.8186437938542751,nan
1740793850.4017904,-0.07795441673559682,0.8756597341510158,-1.3853230025832617,1.3272294658052415,nan
1740793850.4056962,0.1959289248290657,0.06602107211396552,-1.4541630355077206,1.1824751564083948,nan
1740793850.4096022,0.23936499483938858,-0.6318107073538369,-0.22571163589137916,0.1660506619115075,nan
1740793850.4135082,-0.6533291555655637,-0.3652988171786595,1.3839080729417494,-1.1457038093789842,nan
1740793850.4174142,-1.797705187417831,0.270030063244869,2.047208225257689,-1.689130436239284,nan
1740793850.421323,-1.7599308394589546,0.31379827995800685,1.2075905214874003,-0.9044219394828817,nan
1740793850.425229,-0.061509776443562064,-0.11960668695856813,-0.48435242936540407,0.6104884286452844,nan
1740793850.429135,2.0472509969736357,-0.07683132792725447,-1.7948079352184823,1.5651457622689504,nan
1740793850.433041,2.7066260018866264,0.7016516766205643,-1.8917614675599108,1.1604097113984577,nan
1740793850.4369469,1.2854450907718522,1.1797924770407486,-0.8433619637506025,-0.19876543388572787,nan
1740793850.4408529,-1.0159708507960663,0.34720414532495897,0.5855577683666392,-1.346927438332082,nan
1740793850.444759,-2.3604065785068262,-1.2318478966249236,1.4922963287932265,-1.4347281436561603,nan
1740793850.448665,-1.9295452596509566,-1.8341978363467284,1.368570583526134,-0.5532940919266386,nan
1740793850.452571,-0.3963680898413572,-0.6545642964406643,0.40366940629969633,0.5627182158527276,nan
1740793850.456477,0.9953715021730454,1.0516609861067026,-0.6069884231706995,1.2461594646950336,nan
1740793850.460383,1.5449819916482332,1.3548000681045436,-0.8356311865935523,1.2746443855975562,nan
1740793850.464289,1.319636504054352,-0.012682497130114195,-0.1643406689545508,0.7559101492361445,nan
1740793850.4681976,0.6373352005153198,-1.2731506912271442,0.6104953067131378,-0.07924026944521603,nan
1740793850.4721036,-0.29870832905982175,-0.7487583585368012,0.5106453023990573,-0.895547822013125,nan
1740793850.4760096,-1.225983855077349,1.0480568623467723,-0.5407091239590609,-1.2666099156368797,nan
1740793850.4799156,-1.6201409733774585,1.9734074234560652,-1.4703645198259647,-0.9326146534918475,nan
1740793850.4838216,-1.0280284012394016,0.8269836067400785,-1.1089355923117792,-0.11721161213999597,nan
1740793850.4877276,0.32587535123902645,-1.1838797541834938,0.45852550142566795,0.5539933164627165,nan
1740793850.4916337,1.4787837196170082,-1.874435616348679,1.790168594412916,0.6073540796563356,nan
1740793850.4955394,1.5100719742649942,-0.6581944444410357,1.5343769232731943,0.1968027272084702,nan
1740793850.4994454,0.43535134812065,0.8484415793672658,-0.0629685382573497,-0.07618579923227453,nan
1740793850.5033514,-0.7690487423922098,0.8612127012205896,-1.3226723628635786,0.1455019924070098,nan
1740793850.5072575,-1.0999194288707521,-0.43452125022563504,-0.9234989940126797,0.5541755597647764,nan
1740793850.5111635,-0.46021083877040875,-1.2201737586031323,0.6077341593029978,0.5452948298265619,nan
1740793850.515072,0.3641083832699579,-0.3462283486238731,1.4197266582229948,-0.034416779739291636,nan
1740793850.518978,0.5885916077733842,1.263485833422606,0.3827089436299487,-0.6543259789187881,nan
1740793850.5228841,0.1818315412269541,1.7652039738500704,-1.5822803397783913,-0.6965386512013821,nan
1740793850.5267901,-0.27255188564088445,0.6088055648661285,-2.4006589798670324,-0.19530217749081105,nan
1740793850.5306962,-0.3220004237348535,-0.8863216874342589,-1.0357181923664978,0.1826167286358625,nan
1740793850.534602,-0.09340872832101532,-1.1821264211260831,1.386489173716741,-0.05872717293752201,nan
1740793850.538508,0.00968311228650448,-0.2944698550283757,2.706363129441272,-0.5925558992954649,nan
1740793850.542414,-0.10702236181038195,0.41761267548932884,1.8683596440199508,-0.5858624616025636,nan
1740793850.54632,-0.11773804861287815,0.03041006280846194,-0.1735329786101943,0.3113916826511708,nan
1740793850.550226,0.23808993804089565,-0.8519809875851534,-1.5826557331634905,1.4290976125868775,nan
1740793850.554132,0.709911904875017,-0.9436944100673147,-1.4440964454101293,1.6674153200746087,nan
1740793850.558038,0.7285062362343532,0.10394162768663823,-0.3798648066492761,0.6340915728822594,nan
1740793850.5619464,0.06134759125898022,1.2974828049843188,0.40598190025726333,-0.8945829590299131,nan
1740793850.5658524,-0.8271295600884371,1.4828743952536159,0.386011399668389,-1.700438252507584,nan
1740793850.5697584,-1.1666318617710112,0.5936578435565208,-0.03588624897025947,-1.2736065794924736,nan
1740793850.5736644,-0.6382627076693264,-0.4480807861190564,-0.25086855421270254,-0.19867478048432316,nan
1740793850.5775704,0.30523022419355356,-0.8497622412052307,-0.11741933975443733,0.547401393387455,nan
1740793850.5814764,0.8876765926194189,-0.6552231703684008,0.10887365355830626,0.5598834980490222,nan
1740793850.5853825,0.739392135444768,-0.3635289955408645,0.24929776470882528,0.2299029472814596,nan
1740793850.5892885,0.16208257852366684,-0.19614499238026298,0.3655147262765895,0.12608018532776397,nan
1740793850.5931945,-0.27489841785170716,0.00615270191365553,0.48876194874196616,0.33288002595227495,nan
1740793850.5971005,-0.30880072454908786,0.30626077211575087,0.426603431099788,0.46454761664203276,nan
1740793850.6010065,-0.1306056635796513,0.44235015403011885,-0.001754758170375493,0.21949493152990465,nan
1740793850.6049123,-0.04580509901309663,0.20413008231159957,-0.6137428172421138,-0.24345369005445014,nan
1740793850.6088207,-0.10796691150171864,-0.17203158874402796,-0.9297196685392207,-0.5174958657106162,nan
1740793850.6127267,-0.12699953472092235,-0.22737931338573794,-0.6606580087226105,-0.42382161171168536,nan
1740793850.6166327,0.03172449428131532,0.12489910670481907,-0.0420917726365612,-0.1636910014141097,nan
1740793850.6205387,0.25508948592704017,0.4467426866877404,0.4125466524646453,-0.017815480698517034,nan
1740793850.6244447,0.3114983539051454,0.3109286574235039,0.46016182931224736,-0.016535108679190055,nan
1740793850.6283507,0.11675014268919696,-0.1580042300973366,0.3260708438890206,0.0199059609754512,nan
1740793850.6322567,-0.17899721150511388,-0.4475978419592938,0.33397293280747936,0.1790354894000352,nan
1740793850.6361628,-0.3531090494765074,-0.3092445853559074,0.4504257199579702,0.31709245916686774,nan
1740793850.6400688,-0.3096090133992197,-0.03957636634680875,0.32439982575652887,0.25694030584594707,nan
1740793850.6439748,-0.11226534318233021,-0.03468887054335053,-0.2195169929343473,0.0393969960570557,nan
1740793850.6478806,0.12172873744467295,-0.23256815981315648,-0.8494330654681054,-0.11720906969728301,nan
1740793850.6517866,0.3051692907579143,-0.2031543170103143,-0.9955143934963364,-0.0963206311222177,nan
1740793850.655695,0.37600339922250486,0.22916402767800986,-0.44805612473278017,-0.024911453406885213,nan
1740793850.659601,0.28666807215687523,0.671732241510251,0.38583504843290795,-0.08115913404727897,nan
1740793850.663507,0.05285342404205403,0.6068853418822914,0.859373004512141,-0.22152770374997235,nan
1740793850.667413,-0.2074299522590109,0.04292857961039198,0.6895043264657073,-0.20767309397911263,nan
1740793850.6713188,-0.34281523330368546,-0.46499755453818975,0.1578869475322521,0.06778425190680372,nan
1740793850.6752248,-0.3025830841744832,-0.46056744192506277,-0.24712136330442172,0.3704551172293319,nan
1740793850.6791308,-0.17696819237828718,-0.08947073879344117,-0.3105814890119005,0.34169310376912254,nan
1740793850.6830368,-0.07979005794996963,0.14693360227798616,-0.19473718246921642,-0.06795325833915337,nan
1740793850.6869428,-0.013022451795009965,0.030000825430651926,-0.14080480758249309,-0.47127239240432905,nan
1740793850.6908488,0.1087922129949214,-0.16894962515018908,-0.17082531213335295,-0.42659020416753385,nan
1740793850.6947548,0.29888553705370985,-0.1262193827310477,-0.1185521653138947,0.06720102946937959,nan
1740793850.6986609,0.4195611166847076,0.08506464740662709,0.10317671317958844,0.5296934761973924,nan
1740793850.702569,0.3160613415980399,0.1368337110799484,0.3487190338449371,0.49048129662735385,nan
1740793850.706475,0.017748572416074207,-0.048892609525671364,0.38105013506891383,-0.01023457811876169,nan
1740793850.710381,-0.25366653006014184,-0.15599402251000283,0.1352937784078006,-0.45947602606437843,nan
1740793850.714287,-0.30924774074163136,0.08646148547183234,-0.19690207058115525,-0.40854239355155186,nan
1740793850.718193,-0.1935251379519955,0.474275537195009,-0.350715983064733,0.06823431132130739,nan
1740793850.7220988,-0.11075179564524958,0.5207377512843372,-0.2385566871022434,0.46925493416198033,nan
1740793850.7260048,-0.15742236030332085,0.0654711647955855,-0.012383405842172917,0.38772392227802766,nan
1740793850.7299109,-0.1936112927536433,-0.4828113505367725,0.10766793402253959,-0.09857448231942348,nan
1740793850.7338169,-0.028488552642000616,-0.6066745152688064,0.05077730815132664,-0.5433142667700226,nan
1740793850.7377229,0.2984178496231773,-0.2786979550442953,-0.05495825694110336,-0.5797263430120201,nan
1740793850.741629,0.5018635581998988,0.05023082227050921,-0.03430632544461661,-0.22525284590237035,nan
1740793850.745535,0.3556897485636829,0.042799487130294765,0.14292988856579908,0.214491437941695,nan
1740793850.7494438,-0.028445075281424936,-0.118409596685402,0.3186546328573793,0.4657907676561203,nan
1740793850.7533498,-0.2928635089291721,-0.020734435518709387,0.2931125771597931,0.4812597355464625,nan
1740793850.7572558,-0.21534144692659155,0.38763493606325505,0.022857867140808917,0.3685649826506434,nan
1740793850.7611618,0.0503215411298085,0.6822835708138902,-0.31731201924771335,0.21073914395732718,nan
1740793850.7650678,0.1544439410829127,0.4759347477514421,-0.47268461821746977,-0.0013597852622815084,nan
1740793850.7689738,-0.05115466492759023,-0.09502091066422932,-0.32706624194826106,-0.283393564465576,nan
1740793850.7728798,-0.3505092943487093,-0.5213155010786228,-0.003177195742534167,-0.5566279038925956,nan
1740793850.7767856,-0.41143014465121536,-0.5025227351035407,0.2485213674802921,-0.6636025038312473,nan
1740793850.7806916,-0.14915842338700622,-0.2303356160962724,0.27041657549614595,-0.48949741150239845,nan
1740793850.7845976,0.2041300449834134,-0.06474668911864405,0.12247790992960754,-0.0708306328040048,nan
1740793850.7885036,0.3756727471258889,-0.07423819174261095,-0.0018243660051882207,0.405974001881561,nan
1740793850.7924097,0.33188787563042643,-0.03355029887252032,0.021089375818124288,0.7130173124700291,nan
1740793850.7963185,0.24617932734444808,0.1785176133372195,0.12624473053194676,0.7134110323268891,nan
1740793850.8002245,0.2298045934494017,0.36704962872972324,0.14164344115218733,0.42896099011799915,nan
1740793850.8041306,0.176751408781896,0.2916544603828821,-0.018303041121144135,0.009428446763279722,nan
1740793850.8080363,-0.08225568773193753,0.02980028871858905,-0.2487234073943219,-0.3609499173949754,nan
1740793850.8119423,-0.5056262601131334,-0.0966801237978077,-0.3484061273150756,-0.550446967123698,nan
1740793850.8158484,-0.7893192490107829,0.0406226596131385,-0.21772046446938365,-0.5158871820039947,nan
