timestamps,TP9,AF7,AF8,TP10,Right AUX
1740794595.46268,0.23241626317648245,0.10536393773591629,-0.1602981475450766,-0.1738240540828046,nan
1740794595.4665856,-0.1400872808761742,-0.37920320984591316,-0.0518217550827685,-0.15483987466324844,nan
1740794595.4704912,-0.3347903333608621,-0.5953965876479747,0.32394610772730326,0.008516884028934338,nan
1740794595.474397,-0.2368489836083345,-0.3388898535177675,0.6696308251951745,0.10446737699970471,nan
1740794595.4783025,-0.010404781417539392,0.1561385387103743,0.5580628764273383,0.034280256971321615,nan
1740794595.4822083,0.10060252347589434,0.5005501153433373,0.001390001704703214,-0.08145289449686668,nan
1740794595.4861138,0.025583461769441988,0.5174977015594571,-0.47803217677696724,-0.07038768533540025,nan
1740794595.4900196,-0.0847907616723974,0.3076962800906258,-0.409453452353348,0.06834324112744275,nan
1740794595.493925,-0.05019468689382931,0.042529101123759364,0.07989402959920727,0.15992819982667666,nan
1740794595.4978306,0.1264642727638418,-0.19958862410693803,0.3904208482823889,0.0692709567161339,nan
1740794595.5017364,0.2591852802835194,-0.39166063078544777,0.12455047561584316,-0.12650341984335867,nan
1740794595.505642,0.18920205577071886,-0.46097262118913296,-0.45534434166991017,-0.21442413675076294,nan
1740794595.5095532,-0.03192908717519086,-0.3263551678951719,-0.7059354471864815,-0.08305400998683786,nan
1740794595.513459,-0.19544837165220408,-0.022957506414849605,-0.3055296840035202,0.1486320180385717,nan
1740794595.5173645,-0.1669875293238742,0.27963423764104606,0.3958961598955969,0.2518511881642547,nan
1740794595.5212703,-0.03164859058787669,0.415397992742819,0.7471344178507449,0.12306387246332355,nan
1740794595.5251758,0.017320575747801218,0.351702574037734,0.4673987687678913,-0.11548944734746064,nan
1740794595.5290816,-0.0820023136401046,0.1680205500827101,-0.09486537726709657,-0.2441483271599037,nan
1740794595.532987,-0.17746268276759047,-0.049225141006129,-0.3572766428827609,-0.16003008378565903,nan
1740794595.5368927,-0.08374675504968694,-0.23998520883359126,-0.10952808834437948,0.03786210099348969,nan
1740794595.5407984,0.17974732266668955,-0.32597253094851586,0.293278217653141,0.1618345089889665,nan
1740794595.544704,0.3790741071062646,-0.22651975840228256,0.3199676107612244,0.11970858004460894,nan
1740794595.5486097,0.3089943695075296,0.0249622319032996,-0.17494434370259085,-0.011615220578441434,nan
1740794595.5525153,0.016923354677304686,0.22986652611137967,-0.7717516641206901,-0.08205223953468906,nan
1740794595.5564258,-0.24633129493611933,0.18581441960484063,-0.861338847713085,-0.025393577484860503,nan
1740794595.5603313,-0.28819883500912996,-0.07197019502855252,-0.2288051678463841,0.08136410186441807,nan
1740794595.564237,-0.14999690223162543,-0.25572129335961413,0.695997628029133,0.10863527651445454,nan
1740794595.5681427,-0.015044186100282556,-0.12100132322875574,1.1717344674997467,0.013589863296661224,nan
1740794595.5720484,0.013822363391872778,0.2348366994974304,0.7904239850974071,-0.11846373507029374,nan
1740794595.575954,-0.0020357686504746063,0.43891612192612073,-0.14151598309479235,-0.16864764502119714,nan
1740794595.5798597,0.036306472772075826,0.2385218154012578,-0.8540511453471951,-0.10570541025886372,nan
1740794595.5837653,0.11897511444998526,-0.21033746939256287,-0.7936014227114766,-0.0006068836400180616,nan
1740794595.5876708,0.15061184021338395,-0.49595593313366676,-0.10972980298195868,0.07035277268121141,nan
1740794595.5915766,0.09145597223801337,-0.375888016834118,0.5143162490072417,0.10698911662602335,nan
1740794595.595482,0.011182096344548469,0.0006060206608910602,0.5225330424825767,0.1494774707128526,nan
1740794595.599388,-0.017085218498376284,0.2925437344155861,-0.009936393878111469,0.18059254015356288,nan
1740794595.6032977,-0.02568150423675658,0.32084574632741286,-0.5113090431168152,0.11323359987822458,nan
1740794595.6072035,-0.0983633437629576,0.1758723368011874,-0.5099415892559193,-0.09234035928073331,nan
1740794595.611109,-0.2176456819898349,0.025151613420157953,-0.06310068000535385,-0.3203307814415887,nan
1740794595.6150148,-0.2353075670162011,-0.08006613333545515,0.3860986070104429,-0.3645683854279849,nan
1740794595.6189203,-0.04359081012132274,-0.17209637184886112,0.49594302462623024,-0.13718359574850664,nan
1740794595.622826,0.25050501779219503,-0.22565592936583787,0.30571362697513194,0.20373680330028887,nan
1740794595.6267316,0.3873729741664243,-0.15675698911555172,0.06696540343483341,0.3762063228349453,nan
1740794595.6306372,0.22000936117443198,0.03035726528471346,-0.08321929188364258,0.2439895626663922,nan
1740794595.634543,-0.11221919282910645,0.18601452193975468,-0.19894336088432302,-0.047617139999991384,nan
1740794595.6384485,-0.31198179349321575,0.17281058739135638,-0.32664646793610724,-0.21930403910057833,nan
1740794595.6423542,-0.22251613021347696,0.04402768349883352,-0.36285716847275923,-0.13401835161274836,nan
1740794595.6462598,0.029430036128653407,-0.01673295199118609,-0.184644201380949,0.0850293845822185,nan
1740794595.6501696,0.18847660945688,0.05726637365121551,0.13369611975347495,0.19948542741817388,nan
1740794595.6540751,0.1323641503045392,0.11034601134523365,0.3410696122309903,0.09139520382903776,nan
1740794595.6579807,-0.041271767423076845,-0.029920076284983492,0.2773974193817215,-0.14753439737122057,nan
1740794595.6618865,-0.1557803913906589,-0.28413420096214603,0.05673505296901823,-0.323021297566239,nan
1740794595.665792,-0.12988000004908085,-0.36021177795409315,-0.07426488628494002,-0.2990588602607604,nan
1740794595.6696978,-0.008282053526671407,-0.0981330052930918,-0.02774888454597435,-0.07329654392237042,nan
1740794595.6736033,0.12272709833945483,0.29378557172783626,0.0513509992785516,0.24052444722869246,nan
1740794595.677509,0.19772726915033886,0.4310616379982067,0.00869622739256793,0.4661530773535098,nan
1740794595.6814146,0.1710589367233049,0.17708193153954457,-0.10822212629743637,0.4433290794009965,nan
1740794595.6853201,0.026334171819107997,-0.19844020573104976,-0.1338650616993094,0.13964899975353146,nan
1740794595.689226,-0.17352024077493244,-0.31933955206064907,-0.03716011406995162,-0.27520758906120846,nan
1740794595.6931314,-0.2845358784726405,-0.10918303919681188,0.022633439556756396,-0.512177858370707,nan
1740794595.6970406,-0.19670837968209282,0.1633823873273093,-0.0658350208230107,-0.3957264390925866,nan
1740794595.700946,0.0336682619975656,0.22059073534854134,-0.16266690413279433,-0.0404651405899035,nan
1740794595.7048516,0.21038147850826466,0.06869954840212793,-0.03027704878583274,0.23964602953836228,nan
1740794595.7087574,0.1925132663327643,-0.07954282597159966,0.30978487862702486,0.2339248912204627,nan
1740794595.712663,0.044494935244515386,-0.10029987147178654,0.498989874801638,0.037361319283118435,nan
1740794595.7165687,-0.048426203159822934,-0.07656489863098839,0.22618161908755108,-0.07618422380126122,nan
1740794595.7204742,-0.008010794653532572,-0.11966335625958228,-0.34593533260394316,0.027702455873657,nan
1740794595.72438,0.04870514493972665,-0.17508830223293473,-0.6666111497561601,0.19898493627439504,nan
1740794595.7282856,-0.020115060440443942,-0.09054135905751927,-0.3760399604954468,0.19673183903666944,nan
1740794595.732191,-0.16734389405448546,0.15109484245001897,0.263693360468695,-0.015348446266820609,nan
1740794595.7360969,-0.1902930990825559,0.3608448047381708,0.6139201834153364,-0.22691497064265043,nan
1740794595.7400024,0.0053869683250679975,0.3437114033244235,0.34140016625235076,-0.23528826320105053,nan
1740794595.7439108,0.24229913758051375,0.11687253206694599,-0.22730065986425585,-0.07809568232159986,nan
1740794595.7478166,0.2449668074797637,-0.12667834686959817,-0.4822987025588734,0.03677022032991421,nan
1740794595.751722,-0.028567407221451534,-0.2442625963392435,-0.2025857324226453,0.0015505548861328058,nan
1740794595.7556279,-0.3005046326255319,-0.26044203879992367,0.24011954315545314,-0.06815044778610453,nan
1740794595.7595334,-0.2656432541294078,-0.250272773679778,0.3478490322921671,-0.006379487406854156,nan
1740794595.7634392,0.06076972092713364,-0.1916668292839262,0.06013269999265262,0.16729482666149434,nan
1740794595.7673447,0.3473229137119722,-0.014342104619695262,-0.2331636870734047,0.25870767462676364,nan
1740794595.7712502,0.30590600395254836,0.2313791504096678,-0.19649043709634978,0.14352858820100836,nan
1740794595.775156,-0.003930709255133095,0.3589415256238177,0.06301304269595587,-0.07048131904163585,nan
1740794595.7790616,-0.2637941609211517,0.2524852219589647,0.17398449772198565,-0.17197298779361742,nan
1740794595.7829673,-0.25369893822399153,0.032766014164376,-0.0091478473358184,-0.09949686577075778,nan
1740794595.7868729,-0.05903934878807184,-0.06809966972153705,-0.22112466583510812,0.0023007403422812237,nan
1740794595.790785,0.08148586388025417,0.005244615351151177,-0.12634984374781177,-0.013802962288649691,nan
1740794595.7946906,0.06447378856006858,0.05449294053652339,0.23977841523304438,-0.10637620347589782,nan
1740794595.7985964,-0.0021235927409444804,-0.10911785596442475,0.4701565015960809,-0.11377820206919709,nan
1740794595.802502,0.01365013505174988,-0.3809310894892665,0.23906103516829164,0.015993982136719022,nan
1740794595.8064077,0.088133401602866,-0.43991888766752685,-0.30867004262284403,0.1438492713372913,nan
1740794595.8103132,0.09462091029734347,-0.12858747501746862,-0.6737689863776478,0.11820366527966676,nan
1740794595.8142188,-0.006855847957093887,0.3213049095465003,-0.4993352932886967,-0.020266529068009537,nan
1740794595.8181245,-0.10525306842329364,0.511993384461112,0.07819922532169296,-0.08066676607996479,nan
1740794595.82203,-0.08069662629754269,0.3049595589098332,0.5701130579424087,0.035703292212595765,nan
1740794595.8259358,0.03895141623003653,-0.047854836032692076,0.5967191829027307,0.20092231814938008,nan
1740794595.8298414,0.10979813635010902,-0.20697605948286033,0.20587953193160197,0.2072673865686066,nan
1740794595.8337471,0.0468410606611347,-0.10717168459502388,-0.2241163011008055,0.012908918798454957,nan
1740794595.8376586,-0.07916433413993365,0.036602181340363256,-0.354687390185169,-0.2145746513425911,nan
1740794595.8415642,-0.13381054496210693,0.034081563509874194,-0.16735588870475182,-0.29597151500378843,nan
1740794595.84547,-0.07429018956018757,-0.07115066430491636,0.07496519741899181,-0.22260008438217274,nan
1740794595.8493755,0.019113483004762788,-0.12037177845901025,0.1087912842048239,-0.11117132499977492,nan
1740794595.8532813,0.05311389624931749,-0.07541906122830018,-0.0809494948134961,-0.026136074358475862,nan
1740794595.8571868,0.024751435824319372,-0.03954253643631173,-0.26423482497601114,0.0795536240625829,nan
1740794595.8610923,0.003898499253718492,-0.06358800773394145,-0.20617130996714625,0.24090271014962156,nan
1740794595.864998,0.03986402784766167,-0.04519086848017161,0.08871371220438438,0.3701238812679538,nan
1740794595.8689036,0.10915978731030948,0.11270912782123776,0.36926243883189847,0.3325083165385935,nan
1740794595.8728094,0.1447052239542267,0.30545948569242426,0.38293020632961977,0.11683151767936141,nan
1740794595.876715,0.09347318957126596,0.2997919847074181,0.1292422330933729,-0.13191132534572372,nan
1740794595.8806207,-0.04770636145210044,0.026889487851163883,-0.14566376910798765,-0.26937533564178784,nan
1740794595.8845317,-0.2194443631890182,-0.2809306904564214,-0.212948975190808,-0.2949759805447392,nan
1740794595.8884373,-0.31178912167748507,-0.32301137922154677,-0.09612236988242286,-0.2975565576373556,nan
1740794595.8923428,-0.22785946479929234,-0.07557687840374387,-0.01405826173241929,-0.2905226766973975,nan
1740794595.8962486,0.016427747542168712,0.1755945714566311,-0.1009634380963889,-0.17588774473616567,nan
1740794595.900154,0.25874306612839243,0.16710199537113632,-0.2367871610374007,0.10147353035074805,nan
1740794595.90406,0.3086067622696833,-0.04595248545601869,-0.19468726263191508,0.4186175444673628,nan
1740794595.9079654,0.1374287152802874,-0.18497313560846884,0.07011516256781794,0.558867526769808,nan
1740794595.9118712,-0.06984676367672633,-0.10035730402716321,0.3430535438970721,0.4296077750210402,nan
1740794595.9157767,-0.09857493265183008,0.06470643850945063,0.3833395938894462,0.14523978104570692,nan
1740794595.9196823,0.054396870912594264,0.09004151534161874,0.18637280949776874,-0.12070905989640796,nan
1740794595.923588,0.16560805729431427,-0.022295865473917948,-0.03850065041933738,-0.31043722067869844,nan
1740794595.9274936,0.04092324747094107,-0.05686792309338285,-0.13055221021164695,-0.45776786452012963,nan
1740794595.931404,-0.24163382610055528,0.11390614254568149,-0.14020695416553047,-0.5278363991852246,nan
1740794595.93531,-0.3971151204542402,0.3303054011917082,-0.19588565136528463,-0.38608541539824714,nan
1740794595.9392154,-0.24794579258462562,0.31136938887869126,-0.2759959520701846,0.014154316659267472,nan
1740794595.943121,0.07544340494381828,-0.011298879654414054,-0.21371451748730766,0.467525596025428,nan
1740794595.9470267,0.28316978377464874,-0.3947800233624629,0.05533640010442264,0.6429801097178832,nan
1740794595.9509323,0.24340294075880933,-0.530943753416376,0.339093369571201,0.41199142017053325,nan
1740794595.954838,0.09289784649195519,-0.34258201847433306,0.3690951070938213,8.115383005846108e-05,nan
1740794595.9587436,0.030155104438902965,-0.011356337730492857,0.11834631877257115,-0.24169708317929517,nan
1740794595.9626493,0.07086119705752462,0.23881189903734493,-0.14748889134623588,-0.19650859214899355,nan
1740794595.9665549,0.06940158655126336,0.3248716233488172,-0.17337622996055266,-0.0585717201659977,nan
1740794595.9704604,-0.049577691001980104,0.2897397792274734,-0.006579471945302352,-0.05479592417743519,nan
1740794595.9743662,-0.174949516674023,0.19287316324728854,0.08840569519157698,-0.16726948358360733,nan
1740794595.9782763,-0.16430680857339752,0.0708609862336236,-0.019139267555844365,-0.19196684319627574,nan
1740794595.9821818,-0.05122564434037406,-0.03431850160225267,-0.16454931165469325,-0.03310386401250457,nan
1740794595.9860873,-0.009186996990726018,-0.08689756013282475,-0.12616981556043838,0.15910142215753795,nan
1740794595.989993,-0.10716125907695905,-0.11165384707364434,0.05594193449297635,0.18116368575331818,nan
1740794595.9938986,-0.18818614929153285,-0.17675454451798506,0.12054474611953468,0.03925119815459426,nan
1740794595.9978044,-0.05709262779950436,-0.2803485505574045,-0.04656698146909652,-0.06316847310603045,nan
1740794596.00171,0.24724033490150177,-0.29595756556105285,-0.20828869390997068,0.007308437762651282,nan
1740794596.0056157,0.4537379312493131,-0.10390439846522631,-0.05206638632218202,0.14382631277897034,nan
1740794596.0095212,0.3568012244909908,0.21890830364019687,0.3643424498233682,0.14532208078010384,nan
1740794596.0134268,0.049480773124688564,0.4155691114018105,0.5835617583741379,-0.017699447101597467,nan
1740794596.0173326,-0.19523453799907525,0.3127627335482175,0.24765072734033117,-0.16516653264014686,nan
1740794596.021238,-0.23958309846357434,0.034570192696259015,-0.4350042452494099,-0.14023214871048234,nan
1740794596.025148,-0.19542137478359015,-0.12061190787792712,-0.8374272190687128,-0.003729165283300359,nan
1740794596.0290534,-0.213453033074449,-0.024854378693279867,-0.5576341494410109,0.058205882769267595,nan
1740794596.0329592,-0.2509329295956866,0.12920491711336923,0.15482200529252563,-0.02018776142281886,nan
1740794596.0368648,-0.13975410752080697,0.07343578379864837,0.6650516549913279,-0.11191963069337722,nan
1740794596.0407705,0.13901904993311198,-0.1900579579447992,0.5979489863386394,-0.08157781985275597,nan
1740794596.044676,0.3625579484126182,-0.38015244037048923,0.14726342447315235,0.03361752144435489,nan
1740794596.0485818,0.3136495721708339,-0.2840804316994628,-0.2299104785528031,0.08941164262593675,nan
1740794596.0524874,0.06372074771351427,-0.020352309037270182,-0.30512718051097554,0.04556820855393114,nan
1740794596.056393,-0.09053359053769436,0.12311398881852918,-0.19873731639900039,0.02176936597565129,nan
1740794596.0602987,0.01388288984366412,0.06608631752914303,-0.09950163554161688,0.11492337340703444,nan
1740794596.0642042,0.19599005837388667,0.02909477439146118,-0.024590846613680533,0.2312275415826318,nan
1740794596.06811,0.14720930882733244,0.2081269701557344,0.09393433505784815,0.17976805204806592,nan
1740794596.072019,-0.17959096544596595,0.457533942068886,0.2046346563149409,-0.07583255068482897,nan
1740794596.0759246,-0.4869275826317617,0.4249282767548622,0.16279622495488336,-0.3364804857138773,nan
1740794596.0798304,-0.46169497699730755,0.003395968790654689,-0.03943067077685747,-0.37696076894537023,nan
1740794596.083736,-0.12100908025065277,-0.472074612511517,-0.1971061866870291,-0.19117145908825392,nan
1740794596.0876417,0.22665409780501639,-0.5683462435843715,-0.13054293466840192,0.0268252216635844,nan
1740794596.0915473,0.32883405714555053,-0.24558942158541514,0.06491389841221762,0.12447008753877109,nan
1740794596.0954528,0.2190083603678834,0.10321701039006148,0.12417536353389712,0.13794761501505912,nan
1740794596.0993586,0.0963445913103767,0.12054624855501994,-0.027871872301925567,0.17611967003482107,nan
1740794596.103264,0.06695920979831899,-0.10698841484015756,-0.1450253566527907,0.23177119837201327,nan
1740794596.1071699,0.07648053105779858,-0.18822539221498363,0.019880476599168348,0.19252892909772878,nan
1740794596.1110754,0.053869085930796985,0.07456957195832215,0.33075009709199676,0.02691321141688173,nan
1740794596.1149812,0.011623505091262518,0.4454364871370101,0.35911495684828193,-0.1346531203433605,nan
1740794596.1188896,-0.028856746147117793,0.5439372338098702,-0.08542171684575246,-0.157912493594453,nan
1740794596.122795,-0.1193787006491205,0.28012237342157736,-0.6270530430009503,-0.08852746587541802,nan
1740794596.1267009,-0.2953958855664218,-0.08929277965389788,-0.6686568004748344,-0.09112719433135771,nan
1740794596.1306064,-0.4331551748774591,-0.2968265043968237,-0.0721262236225635,-0.20634242169060657,nan
1740794596.1345122,-0.3196029617556642,-0.33117035075213064,0.6253915703542676,-0.26106316221013987,nan
1740794596.1384177,0.0731242285113903,-0.32905742519967357,0.7591221846993487,-0.08436204963288228,nan
1740794596.1423233,0.4604042626572008,-0.31238439603966556,0.24776280652938906,0.23663616315059094,nan
1740794596.146229,0.5056736221864052,-0.16735633847525763,-0.3445157461301848,0.4136092323807018,nan
1740794596.1501346,0.2101773160525722,0.12107323030388238,-0.45507496932432157,0.2869399883823254,nan
1740794596.1540403,-0.06309782060315294,0.35148009535623753,-0.11728827296550663,0.018797684989788795,nan
1740794596.1579459,-0.01712921884654228,0.31981813391759795,0.16690040238995357,-0.10564627838730895,nan
1740794596.1618516,0.202450052718424,0.0968249992556809,0.06973243546964984,-0.023560084219079756,nan
1740794596.1657636,0.17586299026802302,-0.02857497789121483,-0.20015603073976662,0.053291288388487276,nan
1740794596.1696694,-0.24611486922493322,0.0924066886350023,-0.2219899102182019,-0.05923961836729365,nan
1740794596.173575,-0.6946899915762459,0.26351131131770583,0.07495983695261975,-0.2621014305538147,nan
1740794596.1774805,-0.6763337213990542,0.17808990002483327,0.32331302357861613,-0.3011638496444889,nan
1740794596.1813862,-0.15528416336619374,-0.18521250419437005,0.19589376139833237,-0.10594373729543964,nan
1740794596.1852918,0.38769519140025943,-0.5068701508856499,-0.1645766991845939,0.11398896463669704,nan
1740794596.1891975,0.5021209996080127,-0.4885247466954753,-0.30510903620369234,0.14231812508980426,nan
1740794596.193103,0.2544995829165163,-0.18346052103428617,-0.01560814451159834,0.030085324366043095,nan
1740794596.1970088,0.07199423671657418,0.10247361449521525,0.3994692980768515,0.003458089655348832,nan
1740794596.2009144,0.17227522602956405,0.1844451771271939,0.4582271920093207,0.13829698974383922,nan
1740794596.20482,0.31500187110816474,0.16330005248243898,0.047893648671262015,0.2539484768378456,nan
1740794596.2087257,0.16883331741440594,0.20713310224530684,-0.4489370519511357,0.17452830003937309,nan
1740794596.2126374,-0.21720463197052428,0.28713383356655403,-0.5724046387140626,-0.01176746072358498,nan
1740794596.216543,-0.4668433440846777,0.23461444407348303,-0.259390083822738,-0.07512589178672356,nan
1740794596.2204485,-0.370466673161906,0.018173725019004904,0.13608145912264424,0.00757494825208487,nan
1740794596.2243543,-0.14598737427909309,-0.16983233470141398,0.2509590394073594,-0.015851667428802677,nan
1740794596.2282598,-0.11351717384082148,-0.15616247452889684,0.07907838122492486,-0.311671270549217,nan
1740794596.2321656,-0.23298171974353962,-0.02685843502766081,-0.07209107892565704,-0.6373083468989235,nan
1740794596.236071,-0.15330839540577088,-0.021215957619481293,0.05975512453116968,-0.5485837533084587,nan
1740794596.239977,0.26940116061108954,-0.20751877281780132,0.40507258328169776,0.0468498593664507,nan
1740794596.2438824,0.6899594061552599,-0.37566356230997433,0.6143946149815457,0.6860645023585565,nan
1740794596.247788,0.6538163239181757,-0.2964328072686999,0.3796308512573479,0.817490821196191,nan
1740794596.2516937,0.1780349850905646,-0.0049208529742167835,-0.2639164410678549,0.4126800928508205,nan
1740794596.2555993,-0.2377633726347536,0.2598941331130753,-0.9099897815361989,-0.028256007369114856,nan
1740794596.2595108,-0.22208811953341326,0.3550259173354546,-1.06997978229218,-0.0952194126084632,nan
1740794596.2634163,0.013369706443018957,0.35547820156050186,-0.5714364493521252,0.05841966177046313,nan
1740794596.2673218,-0.023288360405744717,0.3585443235448543,0.2630638769767018,-0.023596835615676735,nan
1740794596.2712276,-0.4279103866219503,0.2948919482156578,0.8507905133964572,-0.4555721141474322,nan
1740794596.2751331,-0.7419528837699991,0.049152858956519115,0.8346520938079054,-0.8218386833188979,nan
1740794596.279039,-0.5335910880863688,-0.2908170342909183,0.37952134605530186,-0.6870784525488765,nan
1740794596.2829444,0.04296202176041362,-0.46874676272181204,-0.026881207902979962,-0.13544381002226366,nan
1740794596.2868502,0.45270690102984945,-0.38976752833620254,-0.0814939436949603,0.3565748666367819,nan
1740794596.2907557,0.4700337196687116,-0.27333879198178174,0.05297451639540877,0.5174353097135285,nan
1740794596.2946613,0.4113852208894412,-0.3414833224962439,-0.0009544033810883778,0.536849074659927,nan
1740794596.298567,0.5887445003819629,-0.43344570568939494,-0.3479420779503018,0.6611580965020123,nan
1740794596.3024726,0.7595193417358443,-0.14731542552402999,-0.6746199954271433,0.7380305328897937,nan
1740794596.3063831,0.40546673320088156,0.5688781442761883,-0.6224787170870157,0.4010178628283905,nan
1740794596.310289,-0.4689329726305073,1.1667437251640698,-0.22117366329558402,-0.3311653626558952,nan
1740794596.3141944,-1.144864568563443,1.0563323450723292,0.15902694905154782,-0.9191427304733004,nan
1740794596.3181002,-1.009766423620428,0.3535295495045616,0.277619574676165,-0.9263854869786441,nan
1740794596.3220057,-0.37950508058756843,-0.20954308461991525,0.3104775560037336,-0.5974035297351141,nan
1740794596.3259113,-0.13667612341152044,-0.229701260937773,0.5616282793275066,-0.5193439234786245,nan
1740794596.329817,-0.5013306542350014,-0.2195767967830033,0.953820684018867,-0.7113348285589642,nan
1740794596.3337226,-0.5576020549265629,-0.902345082945941,0.9835830672588273,-0.4136920447219319,nan
1740794596.3376284,0.6059155508657761,-1.9712275658969378,0.2788124901598007,0.9102959369056768,nan
1740794596.341534,2.403825186839567,-2.0377121404723435,-0.8805812986059464,2.513476177588385,nan
1740794596.3454397,2.9453927235081414,-0.2110220196011435,-1.732884035087088,2.7791414144831674,nan
1740794596.3493452,1.0836523924253123,2.4465385505209594,-1.735606778405451,0.9660956097937231,nan
1740794596.3532553,-1.9468342844046762,3.60318599912966,-0.9955828580863569,-1.6808863260603786,nan
1740794596.3571608,-3.4679929208624554,2.0866145097385376,0.020009338012654525,-2.9759064829378796,nan
1740794596.3610663,-2.1447014905649553,-0.6717657670338271,1.0259103603246653,-2.0419222009594598,nan
1740794596.364972,0.4786399314386138,-2.084603422730982,1.960489702997986,-0.22119505265101475,nan
1740794596.3688776,1.6153283646383676,-1.2788833579451633,2.5217548997549932,0.5062407494487935,nan
1740794596.3727834,0.3499336969988771,0.0005327741019290482,2.0104446277775083,-0.17317464492655063,nan
1740794596.376689,-1.328105704962386,-0.32050403876403155,0.018296681393267844,-0.6090324632986479,nan
1740794596.3805947,-0.8623001107604306,-1.8639188544803766,-2.6710723880820173,0.6789015423667277,nan
1740794596.3845003,1.7749508837054606,-2.080237878237532,-4.2036987949623095,2.9395388639971305,nan
1740794596.388406,3.821517558545454,0.4637335800019699,-3.1104922750772332,3.73242411847855,nan
1740794596.3923116,2.7039706891378157,3.7527433363026037,0.16936282857272164,1.5929166794185816,nan
1740794596.396217,-1.0524237235819565,4.150947368658315,3.3476682418438597,-2.17923202164721,nan
1740794596.4001267,-4.230313718530601,0.6573828600528249,4.1229807624720625,-4.6506121724229095,nan
1740794596.4040325,-4.160511374542825,-3.436941391137484,2.137994629053046,-4.051612988745944,nan
1740794596.407938,-1.2386157903882382,-3.867270939981316,-0.8162224830808151,-1.224110843628889,nan
1740794596.4118438,1.825342521770596,-0.21170093171594787,-2.5035523436131677,1.5860893619340333,nan
1740794596.4157493,2.8574016657700376,3.397465917996248,-2.1439843283716264,2.917183465402607,nan
1740794596.4196548,1.9521409091600264,2.793677816760655,-0.7346642510272507,2.8539447569813943,nan
1740794596.4235606,0.5848992776150627,-1.4593430957534357,0.2775352141690874,2.0413363369035573,nan
1740794596.4274662,-0.3032744021485598,-4.569695414296887,0.42842450408516713,0.6895123955722757,nan
1740794596.431372,-0.8834944644328573,-2.8654193641690906,0.35117726225883644,-1.137318572955784,nan
1740794596.4352775,-1.418921824975294,2.0414075172841706,0.6993450824199936,-2.713251628086428,nan
1740794596.4391832,-1.4353579646096968,5.016364088081824,1.2309867627693853,-2.866410281000181,nan
1740794596.4430888,-0.3428226459998757,3.070123567903292,1.0791604110485604,-1.2486689316326938,nan
1740794596.446998,1.3968029583839079,-1.4919155261411543,-0.14662910009675476,0.9775825298988436,nan
1740794596.4509034,2.314500129800721,-3.853549870547148,-1.688962055747594,2.137131187174492,nan
1740794596.4548092,1.3977598666854323,-2.0185450224360184,-2.196520928169409,1.6908058005086086,nan
1740794596.4587147,-0.7168435985724744,1.3743091338322093,-1.0178343333927073,0.5806879243610396,nan
1740794596.4626205,-2.2912598060291596,2.4731619160195097,1.037592853320384,-0.09250066368423027,nan
1740794596.466526,-2.184374594017463,0.5707618767672249,2.2830975155433193,-0.3258155323159933,nan
1740794596.4704316,-0.796840615054131,-1.5913015381265136,1.6366200542353007,-0.812647634260672,nan
1740794596.4743373,0.6447983582946407,-1.473192313326696,-0.338227992120244,-1.5388615571189246,nan
1740794596.4782429,1.4068543945380039,0.31482997870338664,-1.854400162752582,-1.4417979231974454,nan
1740794596.4821486,1.6143231203627895,1.1702726023718681,-1.5055683348217814,0.17663268919055036,nan
1740794596.4860542,1.5248103879784365,-0.0060674408976901665,0.3814325485618194,2.2601535674380275,nan
1740794596.48996,0.9506943466705551,-1.435477541017805,1.9670382606249277,2.695197398865527,nan
1740794596.4938684,-0.32459496287375117,-0.8209686966444094,1.602620588054573,0.6483419081536445,nan
1740794596.497774,-1.7970763030010406,1.5963342896498942,-0.5390157929045483,-2.167163054411385,nan
1740794596.5016797,-2.3721496695142394,3.0978268257874437,-2.5186172699540363,-3.043678255128247,nan
1740794596.5055852,-1.446403464554277,1.6262469204727452,-2.4203319887251955,-1.1307828756318155,nan
1740794596.509491,0.3125660380863073,-1.7238772905864648,-0.1940964863758341,1.6107636763322193,nan
1740794596.5133965,1.506651488007368,-3.7657733908305113,2.2591941012450096,2.4975525420674622,nan
1740794596.517302,1.3483970895577415,-2.5815190497442457,2.863680599918654,0.9397803977681669,nan
1740794596.5212078,0.34183217364587976,0.5735162238696687,1.2627074999242998,-1.132530010722784,nan
1740794596.5251133,-0.3786915084592715,2.736760765052196,-0.9925130586238171,-1.5691910583579793,nan
1740794596.529019,-0.22902596970485012,2.236762140958599,-2.024126722659651,-0.2963578825486856,nan
1740794596.5329247,0.3948017131938882,0.03310740976946808,-1.3113890078898967,0.9220905329059228,nan
1740794596.5368304,0.7167920829595572,-1.6252764565051119,0.1151916075357758,0.7270516619698584,nan
1740794596.5407426,0.3807640688290368,-1.4243234281908745,0.9047108259378751,-0.34398201676876033,nan
1740794596.5446482,-0.36508178437143995,0.13289012503211825,0.6155486394581267,-0.7495591071208763,nan
1740794596.5485537,-1.0455927014142758,1.5677942954161928,-0.18546306490679146,0.05681943645607573,nan
1740794596.5524595,-1.317131438017234,1.742418957531846,-0.7160574400181263,0.9827290137822123,nan
1740794596.556365,-1.0335718915117806,0.5186979300361944,-0.6383712155057208,0.6896840948904075,nan
1740794596.5602708,-0.23060164361156624,-1.3304373735834976,-0.06430949991867692,-0.7303384054812275,nan
1740794596.5641763,0.8049336146248802,-2.5792520999029094,0.7204009145164189,-1.77350681725552,nan
1740794596.568082,1.566050422580066,-2.226342725758171,1.3293834494379067,-1.167179372169908,nan
1740794596.5719876,1.6286436756239115,-0.251762766330965,1.2717940748543106,0.734918866927334,nan
1740794596.5758934,0.9826625060521086,2.111445430931692,0.2721250581790805,2.269629477263741,nan
1740794596.579799,-0.0034414550084282585,3.1424541483748296,-1.2338030345150042,2.053605391515162,nan
1740794596.5837045,-0.9419853534729443,2.0415567119601206,-2.139414934458955,0.2098301223539755,nan
1740794596.5876164,-1.629494170596189,-0.3157350651043592,-1.5550247382191005,-1.820374139877594,nan
1740794596.591522,-1.8655303507195466,-2.1364085568766296,0.21769293627950856,-2.5127687455597973,nan
1740794596.5954275,-1.3019774474114991,-2.289131912845827,1.7598453269095031,-1.41314021610923,nan
1740794596.5993333,0.20077651000512997,-1.1175127727276468,1.7914609746738588,0.6081653287127111,nan
1740794596.6032388,2.007123963448363,0.22284995685073666,0.3961585217253368,2.0527155606579846,nan
1740794596.6071446,2.816700656525564,0.9778133543582749,-1.078917470851225,1.9095005148660376,nan
1740794596.6110501,1.741810408618879,1.1905971763091827,-1.3532423904335025,0.41625389429695747,nan
1740794596.614956,-0.6314866832756103,1.1055335592708369,-0.3743028696421393,-1.1400996917384265,nan
1740794596.6188614,-2.502895105195289,0.6348261673295816,0.826365537890671,-1.5187933415428108,nan
1740794596.622767,-2.4369361755174257,-0.34033709828722764,1.2497290674098094,-0.6123466730739519,nan
1740794596.6266727,-0.7040374974000465,-1.370579087250983,0.7436997796158794,0.5280272013482504,nan
1740794596.6305783,1.0652332944930092,-1.5834349428075871,-0.18000683470224202,0.8091148275481423,nan
1740794596.6344895,1.5457173144163288,-0.6092415506815332,-0.9982031226668368,0.19890014642038495,nan
1740794596.6383953,0.8799623620264133,0.8391606114153465,-1.4346320291857764,-0.39047103925365695,nan
1740794596.6423008,0.15671082073319992,1.569163219524297,-1.2626032036953951,-0.2712539910900014,nan
1740794596.6462066,0.005405865299184098,1.0858965677797452,-0.2919782509599706,0.22549534927749867,nan
1740794596.6501122,0.03885928907706961,-0.0032040765199817323,1.2069867684548863,0.3006620280397665,nan
1740794596.6540177,-0.3222773715037218,-0.763149030364184,2.2752875408577267,-0.15825411369411646,nan
1740794596.6579235,-0.8780453000539543,-0.8731131743561308,1.8912281760121161,-0.38443695805523387,nan
1740794596.661829,-0.8692647143123079,-0.6427473856930586,0.04890313726045202,0.16077016372130828,nan
1740794596.6657348,-0.08327453644975863,-0.3123702434050458,-1.9319153917517726,0.8437462557296085,nan
1740794596.6696403,0.6899488193102394,0.24419060510749926,-2.4535283453523653,0.5081494755467533,nan
1740794596.673546,0.5715990747458215,0.9937311445033594,-1.1210591469801454,-0.8997826302474314,nan
1740794596.6774516,-0.23589770578954994,1.2902616269083909,0.8786780385617654,-1.8588433626708087,nan
1740794596.6813622,-0.5899307191541372,0.435384829898608,1.9202342030675452,-0.8969170291987665,nan
1740794596.6852677,0.18031401615710643,-1.2325387647268151,1.4068050379652248,1.4282804484984877,nan
1740794596.6891735,1.311752416340081,-2.2165471063731266,0.08902383385486837,2.740059907079309,nan
1740794596.693079,1.3847901858780383,-1.2582018424595667,-0.9041387977104229,1.3834597846081957,nan
1740794596.6969848,0.014180523521988137,1.1285680595265735,-1.1162884069301133,-1.5049557358523322,nan
1740794596.7008903,-1.57501212660771,2.8526410718133914,-0.8351564786479255,-2.9804852468473135,nan
1740794596.7047958,-1.8513348997200252,2.230963257727063,-0.4119402751601742,-1.4674977730465248,nan
1740794596.7087016,-0.6733563591299265,-0.2727309203682537,0.15160597617969093,1.4287513072715001,nan
1740794596.7126071,0.6106520708445076,-2.461812731927868,0.8947217312569414,2.640812841620667,nan
1740794596.716513,0.7618483487143272,-2.5597083578449653,1.4613590279967241,1.0145713353245398,nan
1740794596.7204185,0.0400299349403156,-0.8166623622062666,1.2776003122506217,-1.4915159571911185,nan
1740794596.7243242,-0.24538890485766507,1.0190206814861185,0.21201362903850643,-2.1166736954414525,nan
1740794596.7282343,0.5625690957919649,1.5749938861452804,-1.1110618766717806,-0.3959525451308016,nan
1740794596.7321398,1.5801902131257632,0.9786446633742005,-1.7940211642830441,1.508042995520355,nan
1740794596.7360456,1.383132669654381,0.24754334648460458,-1.4429921467665323,1.4700838996221826,nan
1740794596.7399511,-0.2724156162891441,-0.021694640854145058,-0.41916602753416904,-0.1827140009070671,nan
1740794596.7438567,-2.0149160472380023,-0.08871169945878787,0.6030994842114462,-1.287273728108725,nan
1740794596.7477624,-2.2297018420907984,-0.37219555284670736,1.1879812411901067,-0.5659888074713734,nan
1740794596.751668,-0.7284084010806632,-0.7377808782278519,1.2583543869235705,0.9002941376635027,nan
1740794596.7555737,1.07282657599076,-0.6932534950487654,0.8836598448139609,1.1297514754631777,nan
1740794596.7594793,1.5899015578527693,-0.11935675965395594,0.17387046729833533,-0.2745996074650746,nan
1740794596.763385,0.5767120669494042,0.4910595732820465,-0.611545084624713,-1.6467414999228696,nan
1740794596.7672906,-0.7746421406085878,0.5937753359978439,-1.054133491717523,-1.282939347613156,nan
1740794596.7711961,-1.0864784589544878,0.21703935602962598,-0.8628219321566891,0.5306945925700264,nan
1740794596.775106,-0.07799870360749421,-0.12221066048324568,-0.18203584163768421,1.866878990426237,nan
1740794596.7790115,1.285015860725694,-0.060508930670711655,0.4759932862607287,1.359400228584745,nan
1740794596.7829173,1.7541454922415205,0.21271274979397864,0.6492003699306638,-0.35293264690185355,nan
1740794596.7868228,0.9002042086958366,0.23199201965498759,0.2680143890490734,-1.4742296041125138,nan
1740794596.7907283,-0.5956659823509115,-0.17609921675747167,-0.3640504368582118,-1.0221998742446694,nan
1740794596.794634,-1.6186070515963145,-0.6797593563007257,-0.8073878673174489,0.3183026565373653,nan
1740794596.7985396,-1.6012545732852848,-0.7541738629272242,-0.686093879336815,1.151270941946872,nan
1740794596.8024454,-0.9212069987451527,-0.1616428255868731,0.13976459555081755,0.8021084530528775,nan
1740794596.806351,-0.3637515057996845,0.8024465596598417,1.3341446963894004,-0.27919425920970925,nan
1740794596.8102567,-0.198285849466642,1.4355952798998606,2.0174358537645554,-1.1903064106263512,nan
1740794596.8141623,0.12710864982484812,1.073381060418757,1.2890643460968345,-1.3162196850921817,nan
1740794596.818068,1.2317126545310866,-0.32811788907546996,-0.8099833682792881,-0.537965208236996,nan
1740794596.8219771,2.735841677602262,-1.88568333285815,-2.8691845325886183,0.8163779973698128,nan
1740794596.8258827,3.1908309542000524,-2.2437875678157204,-3.051533616911749,1.9827667888624994,nan
1740794596.8297882,1.4094757795679527,-0.7368399431489356,-0.851583566588347,2.018038036108534,nan
1740794596.833694,-2.017976789652489,1.6980444278050937,2.1027588920643265,0.547381014921639,nan
1740794596.8375995,-4.756574329451064,2.997736301376851,3.339654098129402,-1.5916391590105685,nan
1740794596.8415053,-4.612681169225775,1.790501848754303,1.8827285650041359,-2.7626243401525787,nan
1740794596.8454108,-1.5573003154729659,-1.0787452003536289,-0.7593777217213928,-1.9544411348115172,nan
1740794596.8493166,2.1710826944120347,-3.054856274317687,-2.1161252669041777,0.167076775596879,nan
1740794596.8532221,4.045004303019621,-2.2373910678206217,-1.2523571020053708,1.8306132712133314,nan
1740794596.8571277,3.327620002722988,0.6617840953095193,0.43677619804251006,1.8723857421636008,nan
1740794596.8610334,1.2637047041674896,2.885886996967778,0.9536222357181007,0.7590910792603587,nan
1740794596.864939,-0.5018678928730446,2.3144791300350205,-0.056778458553856215,-0.1645548836452202,nan
1740794596.8688517,-1.3707480566664025,-0.4415281331209696,-1.085249903834503,-0.2476860074437551,nan
1740794596.8727572,-1.6953106682348236,-2.701632187229116,-0.7018725264968584,-0.07567505774411142,nan
1740794596.876663,-1.728458517734929,-2.419753731975561,0.7123481915568195,-0.4604210828765199,nan
1740794596.8805685,-1.1968997298097297,-0.09920529911327026,1.4858637797973273,-1.2461386809879775,nan
1740794596.8844743,0.02753369899547393,1.9628975724829951,0.7197425321613583,-1.4366784123945906,nan
1740794596.8883798,1.2843230585764147,2.0903605993084753,-0.6469736864141296,-0.44351547576099387,nan
1740794596.8922853,1.596236239903529,0.6776917146631634,-1.033188917874719,1.1170312334871877,nan
1740794596.8961911,0.7686840275636548,-0.6391194192694646,-0.15370233918867202,2.021480164328436,nan
1740794596.9000967,-0.32646536097145556,-0.8558675304148246,0.6932916041004802,1.6518066493652375,nan
1740794596.9040024,-0.7269864819555443,-0.3889722435360709,0.3077973235540928,0.41897385450546415,nan
1740794596.907908,-0.40558783079243393,-0.17983151257741783,-0.875028924072329,-0.8763485696997586,nan
1740794596.9118137,-0.05435841638349259,-0.45357460696101515,-1.3009913028217075,-1.7417613298529517,nan
1740794596.9157262,0.0004840474898895067,-0.6046344824481189,-0.2202082965507673,-1.959658828876747,nan
1740794596.9196317,0.19411060401357397,-0.1306950735832851,1.3532266671828281,-1.2620102193874252,nan
1740794596.9235375,0.8298597801307322,0.6716199181195788,1.80386949307081,0.4324002231565703,nan
1740794596.927443,1.199510999902111,1.0577090232619355,0.7555042459771193,2.3777919588068093,nan
1740794596.9313488,0.2246501864398055,0.6895203475143189,-0.6212975978727859,3.0748656589546814,nan
1740794596.9352543,-1.8899181641732792,-0.05578460154377276,-1.0918880960544388,1.5286780357297056,nan
1740794596.9391599,-3.1923278994553277,-0.5721112389283984,-0.7126947789939788,-1.4657220559616155,nan
1740794596.9430656,-1.814085621563912,-0.6113973540213357,-0.43857008068838044,-3.6279858988741505,nan
1740794596.9469712,1.6825413209810176,-0.3341276609711576,-0.6577869337104177,-3.1295518553254706,nan
1740794596.950877,4.313448949557872,0.02473628602728933,-0.6570630059995091,-0.30819875539419433,nan
1740794596.9547825,3.497394169674025,0.3287598549870737,0.281966976576704,2.6146219709962235,nan
1740794596.9586883,-0.18514797176970627,0.4294923736320014,1.6510876378795187,3.5171391091056514,nan
1740794596.9626,-3.4167053575664017,0.15087598512811973,2.072655407532541,2.055817454004766,nan
1740794596.9665055,-3.4491549091972047,-0.43809136800254533,0.9148809555519383,-0.43407594794488374,nan
1740794596.970411,-0.7581206784770652,-0.8463679479971876,-0.8535722144746097,-2.317279675774591,nan
1740794596.9743168,1.7543691182181078,-0.5203096157083041,-1.6997520253372027,-2.7546281656565834,nan
1740794596.9782224,1.9376757433601848,0.49586097553397246,-1.2100721892181228,-1.7739772784001488,nan
1740794596.9821281,0.3633281325737199,1.3826421568150793,-0.3548257554778944,0.10604506633596397,nan
1740794596.9860337,-0.8476873184043306,1.2338361294078393,-0.08099724497690548,2.0095087640521694,nan
1740794596.9899395,-0.6008512355382624,-0.0006856021366329229,-0.12438700663398672,2.8134177502782522,nan
1740794596.993845,0.26118287386929523,-1.3369558248100397,0.3839154086084674,1.7875001799842543,nan
1740794596.9977505,0.44062504971469474,-1.6208614650295972,1.36653549826439,-0.5545911077693434,nan
1740794597.0016563,-0.11068414964699946,-0.6060646883838724,1.5375872125431072,-2.4973244746500702,nan
1740794597.0055618,-0.3798552324210825,0.8220383576225531,0.06318505632951893,-2.4708103962336057,nan
1740794597.009473,0.14139942804864244,1.468835448396254,-1.8991924281117463,-0.537756902022046,nan
1740794597.0133786,0.7306750155879387,0.8720336230655429,-2.0617251645320573,1.5971128979430802,nan
1740794597.0172844,0.46836523100301,-0.3860070102610428,0.3013065007483902,2.1903085785305514,nan
1740794597.02119,-0.45662483409240195,-1.2631769872693406,2.9793270025243888,1.027276532672373,nan
1740794597.0250957,-0.9673317840266984,-1.1148682744558478,2.826228784972587,-0.634797879440123,nan
1740794597.0290012,-0.5326449012768145,-0.11102853592047777,-0.6887185130551179,-1.4862132683417784,nan
1740794597.032907,0.15124138573835083,0.9934038924169915,-4.387683558086045,-1.2661771399635686,nan
1740794597.0368125,0.17290717193851965,1.436317350385989,-4.3758445234619785,-0.5146371970602738,nan
1740794597.040718,-0.27323508174329,0.9407386652695522,-0.18587134882703,0.3195448654358795,nan
1740794597.0446239,-0.1252113756570963,-0.1529661395361797,4.429831247228467,1.1279559158555688,nan
1740794597.0485294,0.9625181909035292,-1.147783523535416,5.1376432856415235,1.6408883309327948,nan
1740794597.0524352,1.826432055080132,-1.4559516135542805,1.3776987713778026,1.252549877737873,nan
1740794597.0563457,1.0583166379725502,-0.9543072483242178,-3.1308318772773873,-0.24416889065678157,nan
1740794597.0602515,-1.094213455263475,0.0072233322125025,-4.216419082434257,-1.9314115131656857,nan
1740794597.064157,-2.64899844119134,0.897310153423485,-1.3417895359148697,-2.3072923005926635,nan
1740794597.0680625,-1.9801089296566432,1.3126100259304843,2.2218321408880732,-0.8361746860774659,nan
1740794597.0719683,0.3056327715348918,1.0924429559018065,3.007719427596532,1.2525745169864873,nan
1740794597.0758739,1.9820207126239178,0.30478396887807546,0.7413029278661439,2.0700162837388736,nan
1740794597.0797796,1.6432515975722948,-0.7281914206821729,-1.8896923475742078,1.0174952942909903,nan
1740794597.0836852,0.11404562888323493,-1.4225008209050645,-2.370310742067998,-0.6148324296782851,nan
1740794597.087591,-0.7559867825372071,-1.1956683366127558,-0.7780158312989751,-1.1255405752970782,nan
1740794597.0914965,-0.3293272512376938,-0.003810763130298815,0.877062337962047,-0.2633285205975964,nan
1740794597.0954022,0.2931332645461895,1.349170074406879,1.155340434276855,0.6656702514121924,nan
1740794597.0993078,-0.040418073379985375,1.680481026006316,0.5261183470390249,0.48259227280558215,nan
1740794597.1032178,-0.9099558384657295,0.49769549142551955,0.29429318918613284,-0.4647817469464907,nan
1740794597.1071236,-0.8829646781462527,-1.3305100629414717,0.770051615474044,-0.8447099146113618,nan
1740794597.1110291,0.4770888925570506,-2.1639226168919983,0.9746014427703138,-0.08069439560162968,nan
1740794597.114935,1.7881260943803565,-1.0936947423658756,0.07565091034033518,0.8895992581270542,nan
1740794597.1188405,1.3833020056399203,1.0706016167439827,-1.3761595741317203,0.7624954910951358,nan
1740794597.1227462,-0.61832417945429,2.428182893106272,-1.9821720373486749,-0.4946025869270701,nan
1740794597.1266518,-2.2734852862333073,1.7453305867694857,-1.1335183919177554,-1.5098588436950346,nan
1740794597.1305573,-1.929385019575375,-0.35837636565114916,0.2606274047342896,-1.0406453427488576,nan
1740794597.134463,-0.0015873370582685752,-1.9991494066622,0.840537522019938,0.6234450111547665,nan
1740794597.1383686,1.6315565230546154,-1.8220247624967354,0.3721496440035901,1.962190659893273,nan
1740794597.1422744,1.7665194907093056,-0.21798875219373695,-0.05834320637618168,1.7967323666809603,nan
1740794597.14618,0.9443640009023002,1.1944930284414368,0.5353602606885333,0.3564843565551206,nan
1740794597.1500897,0.3415932049524683,1.2094436361410639,1.7024393865337237,-1.1608814734505397,nan
1740794597.1539953,0.12467864096242151,0.11291534651257626,1.928658399123477,-1.797020555380164,nan
1740794597.157901,-0.5442748211375542,-0.7951531129777589,0.3679438791229211,-1.4561992976226814,nan
1740794597.1618066,-1.9346945500420278,-0.608838769580582,-2.016315652463854,-0.5742811520294876,nan
1740794597.165712,-2.8236426545208158,0.3311860144783007,-3.234312151415747,0.4244889846378426,nan
1740794597.169618,-1.6817805199708764,0.9254459763567654,-2.19908472546898,1.2236417171635845,nan
1740794597.1735234,1.2953219860084648,0.5177333020327474,0.2162858965621717,1.4729871146724614,nan
1740794597.1774292,3.8464802160519724,-0.4641398747487792,2.0518937754184448,0.9393511789359392,nan
1740794597.1813347,3.6865583206072254,-1.0226144256263863,2.0932197808616646,-0.11955150321784083,nan
1740794597.1852405,0.8226584063988156,-0.6423417077297363,0.8058053980131619,-0.9624004246060707,nan
1740794597.189146,-2.379781516042565,0.22923651127425326,-0.3973622399915901,-0.9717296149048977,nan
1740794597.1930516,-3.449507505787014,0.720794660566468,-0.5965563024873486,-0.2614325804726513,nan
1740794597.196961,-1.987628235439944,0.46830779242748183,-0.034820847209651846,0.42996160235958136,nan
1740794597.2008665,0.34657462588896554,-0.06627992022816948,0.4295368665999364,0.4730891085697182,nan
1740794597.2047722,1.6804291407874212,-0.2034287272827833,0.2697290768375134,-0.08736967702988985,nan
1740794597.2086778,1.4899890427830287,0.12775355157320792,-0.3455980570982794,-0.678233044526567,nan
1740794597.2125835,0.5124991402978134,0.31052269227019647,-0.9051780692670625,-0.7690417909491901,nan
1740794597.216489,-0.36356017611302993,-0.1585341759997461,-1.0373879687487995,-0.24128408206841925,nan
1740794597.2203948,-0.7842557755415314,-0.9083542099855076,-0.6626244888651919,0.6392903136385708,nan
1740794597.2243004,-0.7340244546025497,-0.9571540238786747,0.08623390074477304,1.381894865031149,nan
1740794597.228206,-0.20174749878088266,0.13899734974264025,0.900348864991489,1.4237649981915874,nan
1740794597.2321117,0.6621527351637574,1.5267789859082739,1.3249907225988844,0.4556166879789954,nan
1740794597.2360172,1.2765105885389516,1.7261480705559975,1.0075706275929215,-1.1148432216337127,nan
1740794597.239923,0.9574123413537647,0.22295568950002137,0.07844554352660629,-2.1348475934813016,nan
1740794597.2438314,-0.29847515146738557,-1.7350138205681485,-0.7929817450600948,-1.5674571476997041,nan
1740794597.247737,-1.5464580225516034,-2.2148110251326183,-0.9187661531640108,0.34455638865091187,nan
1740794597.2516427,-1.6814485116393532,-0.604994943807608,-0.2651674545837295,1.9553564696664136,nan
1740794597.2555482,-0.5523751519208701,1.5933184063921435,0.46116567743967785,1.669250314721733,nan
1740794597.259454,0.8383195752046476,2.204019125251198,0.4987534298483229,-0.31609681867437295,nan
1740794597.2633595,1.3304376781480582,0.6398147045714373,-0.19150583709080807,-1.9623240570283207,nan
1740794597.2672653,0.7354931541623521,-1.4419496998133652,-0.8909377622706284,-1.4107406829395024,nan
1740794597.2711709,-0.10268388602358798,-1.877427776912028,-0.8685963221982785,0.9379671052584029,nan
1740794597.2750764,-0.30668721170397184,-0.2942217775548539,-0.0989852258734895,2.647015964518425,nan
1740794597.2789822,0.12686565453037377,1.5274110503555838,0.7828558258196078,1.7507633526161932,nan
1740794597.2828877,0.4595602151517196,1.615805064467077,1.145904141301271,-1.0731806795503307,nan
1740794597.2867935,0.11997102586068,-0.07786246167526982,0.8748926833871188,-3.086199933008334,nan
1740794597.2907057,-0.6683406184720099,-1.7084827295718232,0.2686937081807111,-2.295407982329069,nan
1740794597.2946112,-1.162666675283849,-1.5848980080579866,-0.3630928019432777,0.500173887351155,nan
1740794597.298517,-0.8758332727975926,0.08204172039940386,-0.8496021385748161,2.592208533110454,nan
1740794597.3024225,-0.0051335110055480155,1.5724785173707112,-1.0071451427587663,2.1584403215141434,nan
1740794597.306328,0.8271786649453905,1.560992008274446,-0.6233687307778136,-0.034836941307724585,nan
1740794597.3102338,1.1318014823244669,0.3379295063868473,0.22785084336183084,-1.6872332714688034,nan
1740794597.3141394,0.8514377494447969,-0.8215753176871355,0.9708172776609083,-1.4149810075094529,nan
1740794597.3180451,0.2531595055522909,-1.1201933265196058,0.9095105884259844,0.06956551313508036,nan
1740794597.3219507,-0.33406278706584314,-0.7862843185982663,-0.023509645581460528,1.0588903317656546,nan
1740794597.3258564,-0.6825061348029057,-0.3545956953143239,-1.0107038329978333,0.731594477756911,nan
1740794597.329762,-0.7030901305061293,0.09778427069646854,-1.0541414324106457,-0.24354134645742231,nan
1740794597.3336678,-0.44216428054533613,0.7378491721645105,-0.009848914199086118,-0.7325917107445085,nan
1740794597.3375797,-0.057251359377364267,1.2838378228213136,1.1836621103960228,-0.378659092844469,nan
1740794597.3414853,0.2604725140996747,1.0435808673566647,1.4133789812540705,0.2606486978742243,nan
1740794597.3453908,0.3903548978938334,-0.16504768060375194,0.5000827169862588,0.5243507360705759,nan
1740794597.3492966,0.3310244198012809,-1.438237931412855,-0.6800226178223742,0.29972722472645963,nan
1740794597.353202,0.16419796439713857,-1.5411463632439037,-1.1505057166648602,-0.0929365017901191,nan
1740794597.3571079,-0.009776785490868396,-0.29560609485873407,-0.7739560570715462,-0.3663536398418131,nan
1740794597.3610134,-0.11095695854183049,1.0748714775993593,-0.18165273484839714,-0.43941253690425475,nan
1740794597.3649192,-0.1054657865047051,1.2099847187433292,0.08093635550105041,-0.29040405380953105,nan
1740794597.3688247,-0.03492693180125821,0.10934108192070566,0.10732300565548887,0.09349645924904805,nan
1740794597.3727303,-0.003924876632787314,-0.8910617825209202,0.28568196174343646,0.5513544554888847,nan
1740794597.376636,-0.08218497570295394,-0.6651904646975295,0.6227078555374466,0.7178092770027057,nan
1740794597.3805416,-0.19703151967115334,0.43388011696870515,0.673150605318664,0.3494962888980771,nan
1740794597.3844414,-0.168495739958769,1.0507671215368914,0.16988267640644028,-0.3297787877100764,nan
1740794597.3883471,0.08941779895607936,0.44387537320787507,-0.4986251127107189,-0.7596229219001883,nan
1740794597.3922527,0.4055082991243053,-0.6841067414209911,-0.6497459361433183,-0.5929501237026281,nan
1740794597.3961585,0.45646624025007715,-1.0701453415074247,-0.11895892436983449,-0.048840776539017056,nan
1740794597.400064,0.09338671936722441,-0.36527841253720755,0.4829610514509898,0.3510883806349993,nan
1740794597.4039698,-0.44569083452659747,0.5507292114630514,0.4351570391511506,0.3450037586966525,nan
1740794597.4078753,-0.7044467246085037,0.6896402017688034,-0.26152056234677507,0.13157031007775533,nan
1740794597.411781,-0.4278793313059425,0.08155205624484162,-0.8662362850965929,0.028044585233096476,nan
1740794597.4156866,0.1866639887727656,-0.4077796796836515,-0.7183720048629142,0.07227634229662225,nan
1740794597.4195921,0.6651200186719608,-0.2161547526361342,0.054753572994722534,0.061646256987683265,nan
1740794597.423498,0.6758627727848274,0.2811330139551698,0.7279036386669597,-0.0929566583443425,nan
1740794597.4274035,0.2782051616770825,0.3577063384315756,0.7833846587642547,-0.21838288563107305,nan
1740794597.431314,-0.1998101472436298,-0.09597208936202915,0.38144941474102445,-0.132032508307298,nan
1740794597.4352198,-0.4693431738004164,-0.4636880026611294,0.028653245540122635,0.07782804961373654,nan
1740794597.4391253,-0.46107927933533055,-0.23368960952839007,-0.051719849804002786,0.15118424115475393,nan
1740794597.443031,-0.2746083445811402,0.33285321806728024,-0.07362327385744895,0.0065395530609695714,nan
1740794597.4469366,-0.04027030740307421,0.5328695389088771,-0.2717567227737119,-0.14386489604340683,nan
1740794597.4508421,0.15023165258889518,0.09952271566527904,-0.5284730650163326,-0.08394824099390293,nan
1740794597.454748,0.24280443537318475,-0.48008327246418564,-0.52782307784092,0.10237072502252423,nan
1740794597.4586535,0.22581626879727962,-0.5662227825232583,-0.19428333453607427,0.13900245490273688,nan
1740794597.4625592,0.1457594111627029,-0.10740504669432979,0.1834171019737772,-0.05269700701976616,nan
1740794597.4664648,0.07542232089059614,0.3646490576365412,0.30299945474431184,-0.21295106152283128,nan
1740794597.4703705,0.03975725833607165,0.4002780866860306,0.2075604226911281,-0.07075590903941284,nan
1740794597.474276,-0.0070630237572310624,0.10138519218706224,0.187955158131811,0.2710336713419479,nan
1740794597.4781861,-0.10568130316766922,-0.11682609442797671,0.3654298103719049,0.4129161381726227,nan
1740794597.4820917,-0.2085593674503392,-0.06901702842413641,0.5015641198905496,0.13684209244911552,nan
1740794597.4859974,-0.2136653748090657,0.05410913508691019,0.285532845843273,-0.3061203837112367,nan
1740794597.489903,-0.09152267367540906,0.03270718157986444,-0.25737489436433103,-0.4711206163050582,nan
1740794597.4938087,0.05723677409906728,-0.08039118785905591,-0.738854230893907,-0.22844883987652181,nan
1740794597.4977143,0.10582664874851319,-0.09381143107070207,-0.792769062641308,0.11417187887401578,nan
1740794597.5016198,0.04960326102980656,0.0034995645314228074,-0.4212873855115156,0.20670556065321144,nan
1740794597.5055256,0.008634511655213919,0.021440132266577806,0.06377635726764859,0.06003067345526593,nan
1740794597.5094311,0.07097464187253999,-0.12903400668487416,0.3760255722845549,-0.03249230923757418,nan
1740794597.513337,0.17149858541112034,-0.2592992321628329,0.4637912469418589,0.08596714874064279,nan
1740794597.5172424,0.16576416709617822,-0.12911532247631374,0.42247540869418704,0.23574071610582367,nan
1740794597.5211482,0.012798142475428792,0.21540294676936975,0.312726107910343,0.16321858057424676,nan
1740794597.5250578,-0.16234742608130634,0.4556656029076422,0.1304583751385957,-0.10295093651780969,nan
1740794597.5289633,-0.20761094876109265,0.3669885730724416,-0.09445664936029875,-0.2774097714131526,nan
1740794597.532869,-0.11340072990869202,0.0681301128085958,-0.265316968182794,-0.18351617373314372,nan
1740794597.5367746,-0.006948457773377536,-0.1570217170381192,-0.30971875320328907,0.02839062101388903,nan
1740794597.5406804,0.01018688243093855,-0.20905340682555312,-0.2512473669301296,0.09077722375634945,nan
1740794597.544586,-0.02770524714231534,-0.22848676682840274,-0.15513469924686124,-0.03106199152280085,nan
1740794597.5484917,-0.019792192530614594,-0.31438493001907086,-0.04257872405935475,-0.1123910725230363,nan
1740794597.5523973,0.06037582944604406,-0.33112840587304915,0.0862770355995361,0.009112178946054551,nan
1740794597.556303,0.13791475231177075,-0.09770418921130254,0.16854915075412877,0.2006613634731681,nan
1740794597.5602086,0.14185403345349207,0.2969136375109269,0.10972442397276903,0.20475370695430206,nan
1740794597.564114,0.08703907577800271,0.5170265640141821,-0.05686094284609716,-0.012317517666854606,nan
1740794597.5680199,0.028478669029287522,0.36437081717502906,-0.11389679752157683,-0.19788653024106653,nan
1740794597.5719333,-0.026606033446741655,0.03508959605620123,0.12271319349605517,-0.12693925522417843,nan
1740794597.5758388,-0.10963015073752133,-0.11170535331340652,0.5111082434890343,0.10938564418231082,nan
1740794597.5797446,-0.20015122450891706,-0.003075508049029574,0.6129705562972908,0.21212228072886868,nan
1740794597.58365,-0.20543750937044022,0.06224156468804737,0.13044944906513142,0.04240962683249866,nan
1740794597.587556,-0.07077491573208884,-0.17404824794509835,-0.6844207051078792,-0.21308207290216102,nan
1740794597.5914614,0.11889448008825118,-0.5377867838516891,-1.1572698199663658,-0.27406014365582604,nan
1740794597.595367,0.2047548636727558,-0.5755105271290132,-0.8143479596679893,-0.09201880954381152,nan
1740794597.5992727,0.13116380435398953,-0.10190551419132202,0.12369915029700204,0.12612791983187213,nan
1740794597.6031783,0.010977540482107357,0.5232922449044985,0.9170250968963856,0.18763795395562705,nan
1740794597.607084,-0.017814231456192483,0.747347957246333,0.9893191095899087,0.11393917348643182,nan
1740794597.6109896,0.03315330288713698,0.4076771099720033,0.4200522264052104,0.045058308684905346,nan
1740794597.6148953,0.02939316610162629,-0.12427834131221374,-0.22279606406331942,0.02777817691101845,nan
1740794597.6188037,-0.08500306546650332,-0.37516807618963366,-0.46584827004009544,-0.011132341199011268,nan
1740794597.6227095,-0.18238639634474174,-0.2485027284231671,-0.30112282862803347,-0.10061907403105591,nan
1740794597.626615,-0.10480569140882105,-0.02382880783191879,-0.04049641263476953,-0.1411013638172409,nan
1740794597.6305206,0.10697015000368612,0.03745742817782519,0.06749832379940086,-0.04341494122699424,nan
1740794597.6344264,0.21998436368546023,-0.03886247521628122,0.01570774285184383,0.10765291003612,nan
1740794597.638332,0.07955526982824893,-0.07292163505778354,-0.08190000718576408,0.12529710202217498,nan
1740794597.6422377,-0.17982861343615203,-0.00975455929164626,-0.15078706023758312,-0.03468535847006226,nan
1740794597.6461432,-0.2643264573695609,0.040423879127177494,-0.15888018152548364,-0.1848833049491442,nan
1740794597.650049,-0.05959518697415727,0.0048860167544813,-0.05762394198308607,-0.12314313837136291,nan
1740794597.6539545,0.2260937652974558,-0.03162553516675952,0.16734072810052417,0.10304645937330677,nan
1740794597.6578603,0.29527539162055044,0.03777636694196309,0.39008621806724836,0.23408413761814204,nan
1740794597.6617658,0.09572272496402523,0.1616045515599926,0.394706552705371,0.11271402757656751,nan
1740794597.6656778,-0.1408586985295639,0.17914391732775586,0.10820205075023147,-0.1154137610235935,nan
1740794597.6695836,-0.1860982258604454,0.040931454073825244,-0.25380660932938415,-0.17683395120210932,nan
1740794597.673489,-0.06489636610190011,-0.11047060979775274,-0.36603668520194527,-0.008173407641521694,nan
1740794597.6773949,0.025676359196668202,-0.12309297637925717,-0.14822788640840254,0.16812209029967348,nan
1740794597.6813004,-0.00761218291399904,-0.03609380667184194,0.11884591872989463,0.12537932077403238,nan
1740794597.6852062,-0.0529151047057553,-0.01810267213681941,0.09571864051243521,-0.0859639913602122,nan
1740794597.6891117,0.01637602305854685,-0.12109682687302187,-0.2123834816333694,-0.21006922529854655,nan
1740794597.6930172,0.1372026346715646,-0.19000616666017636,-0.42584913076312136,-0.11005441993744251,nan
1740794597.696923,0.12921882413991118,-0.06667379356902241,-0.2028474027640468,0.07193189119764011,nan
1740794597.7008286,-0.04643791791888429,0.17676067089442105,0.3531268258511213,0.11352180887568218,nan
1740794597.7047343,-0.19788637536092127,0.2971857552242111,0.7540090659185398,-3.9233909284235385e-05,nan
1740794597.7086399,-0.12692249566864,0.17386900237328393,0.6082652162920326,-0.07318932419511431,nan
1740794597.7125516,0.10806123538836894,-0.04025166054658709,0.014606868548726398,0.024631455893879047,nan
1740794597.7164571,0.23859295644321835,-0.11016279551812755,-0.5370930659347962,0.17512897325893728,nan
1740794597.720363,0.10486404782144322,-0.008858077793163553,-0.6350405483560417,0.16230803234009827,nan
1740794597.7242684,-0.1448317442961126,0.06703781887370912,-0.2994104300443447,-0.039492366229162586,nan
1740794597.7281742,-0.22742484149539707,-0.030723814926772338,0.1011450216125311,-0.21756115715583144,nan
1740794597.7320797,-0.0611196802558765,-0.2029783808886304,0.2323869043226387,-0.17791236879453878,nan
1740794597.7359853,0.14757431789022565,-0.23396316567281045,0.08071632726298231,0.019189641329921875,nan
1740794597.739891,0.16297969751771116,-0.07094353637055982,-0.09723003209090053,0.13944487565473718,nan
1740794597.7437966,-0.004928290574403656,0.11692087830115905,-0.059358552285017206,0.060644464834771844,nan
1740794597.7477024,-0.14172681503708554,0.1652356613237273,0.18784926364388974,-0.09515998750939166,nan
1740794597.751608,-0.10681748578120265,0.11060238778065389,0.40087642432882786,-0.13100619528321372,nan
1740794597.7555137,0.016382323782004552,0.09655122414895415,0.32706621541219455,-0.01223327502509182,nan
1740794597.7594247,0.06892863517616639,0.13842356698719296,-0.04919136888232502,0.12136501750620737,nan
1740794597.7633302,0.03537858450947024,0.09354366384389994,-0.45504371480886774,0.14944869358667912,nan
1740794597.767236,0.03241574061969618,-0.10828519165568148,-0.5412875674231087,0.09802246115697134,nan
1740794597.7711415,0.10136373357487918,-0.30169483861073537,-0.2022869162142547,0.051860653371726004,nan
1740794597.7750473,0.1172984828850121,-0.2533745298834051,0.28632833462034835,0.011186669867093336,nan
1740794597.7789528,-0.03446798230477978,0.026587198809406548,0.48358738169086374,-0.08814190426389847,nan
1740794597.7828586,-0.24981004854728414,0.2483432814365037,0.19623864066181196,-0.22669582566866228,nan
1740794597.7867641,-0.27843601304661125,0.1708896072882524,-0.3040996406585252,-0.2628650088952326,nan
1740794597.79067,-0.02957028468595133,-0.09845297739032198,-0.5111961564247214,-0.09670171432464647,nan
1740794597.7945755,0.2727377358147165,-0.22349497819454398,-0.17524701298530335,0.1678554793570797,nan
1740794597.798481,0.3152923399527293,-0.04810425204605992,0.4270361604238966,0.2994405797222999,nan
1740794597.8023868,0.056627973773117936,0.21240241073360366,0.7338216353002702,0.19138353036471714,nan
1740794597.8062973,-0.21701786688842625,0.2413139587562172,0.4296353419206171,-0.016959460512091126,nan
1740794597.8102028,-0.22262575562598041,0.013645735144702324,-0.253931985965952,-0.10825938550812393,nan
1740794597.8141086,-0.0028381777150838406,-0.18311894148002664,-0.7551876609885096,-0.04022257405929249,nan
1740794597.8180141,0.14976842241404667,-0.12106648637451055,-0.6880523810044226,0.029933336248992946,nan
1740794597.82192,0.06467037815983818,0.08299175493880358,-0.15069710258540775,-0.029238518317008837,nan
1740794597.8258255,-0.10498045549904032,0.13174056075146634,0.41239820527176385,-0.14564293814492305,nan
1740794597.8297312,-0.09731308607252159,-0.05787964701848814,0.6078865820313191,-0.14315796858229732,nan
1740794597.8336368,0.10759905949742261,-0.2426865015677768,0.3756487882204376,0.016070763607710495,nan
1740794597.8375423,0.25081489265728363,-0.16776022789982536,-0.038272472763577245,0.16716057995708333,nan
1740794597.841448,0.12013480275317207,0.10056654031782691,-0.3199437185225685,0.14351582489961548,nan
1740794597.8453536,-0.1737703284378692,0.25254857943768355,-0.3164770834102424,-0.015048672440404882,nan
1740794597.8492594,-0.3210112707963775,0.1224376392624723,-0.10868122208195452,-0.11414783002490193,nan
1740794597.8531694,-0.1822627462793369,-0.10939474935811981,0.08974371394070457,-0.047314270635489646,nan
1740794597.8570752,0.057076446672597245,-0.14978747880562554,0.1241574413373045,0.08163731632994961,nan
1740794597.8609807,0.13505633443867301,0.043838708898628564,0.035326131014876645,0.1041353093585391,nan
1740794597.8648863,0.042354810355655075,0.22567963022562001,0.006100819024930855,0.0012278176556980434,nan
1740794597.868792,0.01192295799172046,0.17497166925841212,0.13760466876013988,-0.08945502821483113,nan
1740794597.8726976,0.1825571860450942,-0.05079721570233787,0.28034069151365104,-0.0674068968634134,nan
1740794597.8766034,0.370495385970207,-0.22328102126878902,0.15552170764193826,0.004443951947519607,nan
1740794597.880509,0.26011652195942886,-0.23045292050738309,-0.2953756684689374,0.005594332862495698,nan
1740794597.8844147,-0.1947029600528883,-0.15791083604577613,-0.7197883265542824,-0.05979426240345697,nan
1740794597.8883202,-0.6438608998115286,-0.0975780451137829,-0.6294819035822212,-0.06349566098170527,nan
1740794597.892226,-0.666352236771976,0.001967555060806444,0.05970874098452528,0.0572537777594355,nan
1740794597.8961315,-0.20031632980310962,0.21248860476889653,0.8183162379658511,0.182901017973012,nan
1740794597.9000413,0.39031270535620716,0.4196903487735875,0.9553745624531624,0.1444506828930879,nan
1740794597.903947,0.6694752207938575,0.3785193218894609,0.330866687332979,-0.051493892257168106,nan
1740794597.9078526,0.5102603372279517,0.022375390898385014,-0.451973362968174,-0.20364352426066254,nan
1740794597.9117584,0.1278273513996511,-0.3739744432438181,-0.6535852895404927,-0.14791893080008398,nan
1740794597.915664,-0.19560863384818514,-0.4475255737490614,-0.18513993181358043,0.04259941543445311,nan
1740794597.9195697,-0.3473939224927911,-0.15555074625476673,0.3049882932739174,0.14547014163743277,nan
1740794597.9234753,-0.3629849325635895,0.16374250553591888,0.1758774293155584,0.06038340728136032,nan
1740794597.9273808,-0.2708914861006843,0.18146992244113933,-0.45336684669419125,-0.07534145587334228,nan
1740794597.9312866,-0.05324707314540932,-0.042762163242640414,-0.8109068902065101,-0.07201186675893285,nan
1740794597.935192,0.23992405508127163,-0.15939718128719402,-0.343488889802013,0.06372293590196813,nan
1740794597.939098,0.4241752783332246,0.01639269329696009,0.6267206131855038,0.13615515953947419,nan
1740794597.9430034,0.31478002512736586,0.2649297759059811,1.2091529514277,0.017629376682186327,nan
1740794597.9469128,-0.05635417688856461,0.2431103237194325,0.8748157984469913,-0.17199927533287016,nan
1740794597.9508183,-0.40446725463164984,-0.06460597244061231,-0.025001150331315284,-0.19866594741345858,nan
1740794597.954724,-0.42570740203693364,-0.2988799394821272,-0.6907057642137879,-0.002659598502043886,nan
1740794597.9586296,-0.08719323183455903,-0.15725617081229765,-0.71416883336232,0.2147156931314354,nan
1740794597.9625354,0.325201059400409,0.21973851222561352,-0.3780410033085911,0.21902256632498565,nan
1740794597.966441,0.463451744525035,0.3873288496125193,-0.16613505993421288,0.012877641660033997,nan
