timestamps,TP9,AF7,AF8,TP10,Right AUX
1740793793.703595,-0.12689657075442268,-0.5362350198560257,-0.5984868760137663,-0.3299571160987874,nan
1740793793.707501,0.02464123100741789,-0.7374481110511297,-0.5112377429366437,-0.16621061184294583,nan
1740793793.711407,0.04921453721927093,-0.5183370627316533,-0.3447277836232125,-0.08677391777005322,nan
1740793793.715313,-0.17275613013198418,-0.06298778041819869,-0.21877888149476388,-0.1929726596044894,nan
1740793793.719219,-0.3770263047448659,0.33827980245952866,-0.031494142867074935,-0.21150725712032517,nan
1740793793.723125,-0.22725213002493325,0.48154821399317943,0.3298017031277124,0.08370473846739522,nan
1740793793.727031,0.22385324005883636,0.3524102412771139,0.7029003751542063,0.4750016147082309,nan
1740793793.730937,0.5253398236266505,0.10078425766322952,0.7140116627599323,0.5072650127145729,nan
1740793793.734843,0.33463421601915533,-0.08392626146765682,0.20112372959249616,0.06932571262336387,nan
1740793793.738749,-0.15687467135383676,-0.1142014563744511,-0.4955205970627479,-0.40844233387469514,nan
1740793793.7426548,-0.4169562751672686,-0.05586553560502182,-0.7938772621217949,-0.4331964405425199,nan
1740793793.7465608,-0.18112986448513996,-0.04180267427664582,-0.4593337712747109,-0.02606749950615266,nan
1740793793.750469,0.24468108726068064,-0.1251946414606761,0.14156935523680536,0.32241758830096046,nan
1740793793.7543747,0.35181177651621515,-0.21994318141915073,0.44100241291464465,0.2525588512674662,nan
1740793793.7582808,0.024869320174670296,-0.19366975181029772,0.27528071107810287,-0.06749443311435008,nan
1740793793.7621868,-0.3443627083348142,-0.015018466281644445,-0.006547107233239984,-0.21970779260813145,nan
1740793793.7660928,-0.3417295910444381,0.20406790464170693,-0.03507209503096947,-0.08541228605103474,nan
1740793793.7699988,-0.011714643709550061,0.31252764878630107,0.115186362055181,0.055533597340186175,nan
1740793793.7739048,0.23553751748888468,0.2519793567633746,0.07231179692051057,-0.034547843718232815,nan
1740793793.7778108,0.14286171338682413,0.08223110979114398,-0.2754590373085933,-0.20100342556808204,nan
1740793793.7817168,-0.10134324172939543,-0.09739005099761687,-0.5502859333971616,-0.12094804985554128,nan
1740793793.7856228,-0.134374034893614,-0.21967920033456306,-0.32089963993106013,0.21285851931135022,nan
1740793793.7895288,0.11414576705771431,-0.2492006417436605,0.3162394561143579,0.4279286703223877,nan
1740793793.7934346,0.34304566088692107,-0.1626405562274282,0.7599051097669357,0.24299279931065734,nan
1740793793.7973435,0.26006553847441194,0.021459890772696777,0.558356832890333,-0.1467386249125032,nan
1740793793.8012495,-0.07008668703701408,0.20050518896488065,-0.07152555929085852,-0.2999422720264672,nan
1740793793.8051555,-0.32508291402244094,0.23310422799150937,-0.4924193688757925,-0.09125803115405132,nan
1740793793.8090615,-0.3099310587533142,0.07440960486880417,-0.3725662017634539,0.13419169588742613,nan
1740793793.8129675,-0.13802335043224562,-0.14270008292274333,-0.02063516844429642,0.02802482986325951,nan
1740793793.8168733,-0.023286386690574173,-0.20949564452772007,0.05616922740613599,-0.2834070079000196,nan
1740793793.8207793,0.00028091164816261853,-0.05379485974459048,-0.19652477468856075,-0.3502437753679522,nan
1740793793.8246853,0.06509218821396531,0.16631848375306993,-0.3316891472126825,0.0037697547341009312,nan
1740793793.8285913,0.22076116841033308,0.21472817527430568,-0.0055805211990422095,0.42003281297071166,nan
1740793793.8324974,0.3196905677092422,0.029579739023717803,0.532485878669887,0.4365928463902393,nan
1740793793.8364034,0.2042488357606293,-0.20100686225669012,0.6930579901209754,0.06475888949399232,nan
1740793793.8403094,-0.06119489874520201,-0.23436813785650754,0.24821494887123233,-0.23525543326894355,nan
1740793793.844218,-0.23806696133218283,-0.032500502004820644,-0.37283173513981255,-0.14787760992626098,nan
1740793793.848124,-0.19255784850927535,0.19884574273889388,-0.560617766352618,0.1087378064802649,nan
1740793793.85203,-0.04624000995971696,0.2323567150231734,-0.20899504908011415,0.10309160514063954,nan
1740793793.855936,-0.004579444208839773,0.055359429050993,0.19970990232539598,-0.20789820826342262,nan
1740793793.8598418,-0.09038361802398194,-0.13531372205092507,0.18641360500103724,-0.39880272761236696,nan
1740793793.8637478,-0.1290637882392278,-0.15981275992384014,-0.17362104733853903,-0.13811973856548862,nan
1740793793.8676538,0.002573380960511479,-0.041818491748122404,-0.3765792536816505,0.3388605194399222,nan
1740793793.8715599,0.1974875152010638,0.045557505659261456,-0.10843542207687379,0.4824342905235822,nan
1740793793.8754659,0.24610029188785715,-0.0044818817138745646,0.3860405288876051,0.10802968452862438,nan
1740793793.879372,0.10148953413001956,-0.10896050755883639,0.589647482515724,-0.35875466772546477,nan
1740793793.883278,-0.06529109998058198,-0.09919665589489164,0.2874381366279056,-0.3910682776749471,nan
1740793793.887184,-0.08751026061069914,0.07501031891691809,-0.22559001764882708,0.011475388455761716,nan
1740793793.8910925,-0.0061529054008220615,0.27465163601992587,-0.48702724019715066,0.353957584602755,nan
1740793793.8949986,0.01059022973292757,0.3097089414969257,-0.3299025270580412,0.27111369075097114,nan
1740793793.8989043,-0.08524751866280889,0.13023000479691282,0.021605812712187086,-0.05637815885997955,nan
1740793793.9028103,-0.14794697887331706,-0.13263632062052488,0.2416257117806367,-0.19448401733968437,nan
1740793793.9067163,-0.04555064674510535,-0.30361758334349714,0.20561474519760178,-0.03466363530868682,nan
1740793793.9106224,0.129912597697198,-0.3172216552657043,0.02350897849495569,0.10409347683145832,nan
1740793793.9145284,0.14969349745780278,-0.23083265427940708,-0.1307460591420966,-0.04573914572636843,nan
1740793793.9184344,-0.05235240137843038,-0.11390587990757874,-0.1627127346432532,-0.3058910509954624,nan
1740793793.9223404,-0.2523359730137254,0.03327995964883872,-0.07513549448012011,-0.2800107592497974,nan
1740793793.9262464,-0.1753197269015961,0.23223244564793777,0.07119229989383224,0.0986767633822958,nan
1740793793.9301524,0.16372489077690233,0.4232198016184089,0.18739727233105238,0.43568271593700203,nan
1740793793.9340584,0.43485203872536926,0.46040324377416025,0.1956210019047868,0.35270868980289877,nan
1740793793.9379668,0.3411392749862276,0.2464125267873976,0.08762364220791553,-0.03535348932115533,nan
1740793793.9418728,-0.04986708527433972,-0.13192480924829356,-0.0597493575002236,-0.2625452823078691,nan
1740793793.9457788,-0.3723447851477586,-0.43639881094556604,-0.15602913880297634,-0.09544722890882334,nan
1740793793.9496849,-0.35085917798539484,-0.4764656076241293,-0.18181770342711512,0.1852964402935168,nan
1740793793.9535906,-0.07380758934983923,-0.27926412837121656,-0.1756194216400971,0.1571745143712143,nan
1740793793.9574966,0.13803828064688783,-0.04698298252227903,-0.14133699606495936,-0.20013868326592668,nan
1740793793.9614027,0.09301582940011659,0.0588332915318603,-0.02112575924211491,-0.47442799719965056,nan
1740793793.9653087,-0.08997982723561722,0.07186172799197407,0.20028678363282226,-0.32472136769141613,nan
1740793793.9692147,-0.1522015950663771,0.14214780980352346,0.3959192741636464,0.12142354059227314,nan
1740793793.9731207,0.009177851814186707,0.3162180043656399,0.3748009437568285,0.4453804994130036,nan
1740793793.9770267,0.24936517467111377,0.4398209020046802,0.09120159553948108,0.42001942761156885,nan
1740793793.9809327,0.35093589653252066,0.31580916581376495,-0.2650886021659668,0.1902469220817059,nan
1740793793.9848409,0.23862979524025357,-0.050069855267557896,-0.43680631386846774,-0.0037829130966938684,nan
1740793793.988747,0.011357471670543077,-0.40578626493652425,-0.3477631767263912,-0.1247748034148028,nan
1740793793.992653,-0.1927424197858609,-0.487570380943659,-0.13998581308690494,-0.26793593476691246,nan
1740793793.996559,-0.31452151376479714,-0.2856296128111886,0.031011094105100497,-0.3941693515365477,nan
1740793794.000465,-0.36092077127588446,-0.04054238243159583,0.16395419485961826,-0.31141460750147104,nan
1740793794.004371,-0.3240346959473616,0.0331888902598439,0.3235840381915168,0.035737116804088524,nan
1740793794.008277,-0.1603376546407666,-0.017367653142913133,0.442214341583555,0.3904959474353603,nan
1740793794.012183,0.1382949829096276,0.03444343217252918,0.3318816943440304,0.4273120165362531,nan
1740793794.0160887,0.47057682047943156,0.2852833217085232,-0.05472297353439522,0.1402198402533844,nan
1740793794.0199947,0.6475827644642335,0.531978931271062,-0.459267561317355,-0.13915527328131636,nan
1740793794.0239007,0.5148845237099695,0.46352215048205414,-0.5332474220231197,-0.1474405104421843,nan
1740793794.0278068,0.08380089389307693,0.0198474761386491,-0.2317514756132102,-0.0034823802840380827,nan
1740793794.031715,-0.43712349523545424,-0.4887164449223621,0.10742825926854568,-0.014168415350377743,nan
1740793794.035621,-0.7528707942759661,-0.6574166531861645,0.1508379982125285,-0.22408226874444434,nan
1740793794.039527,-0.6729722117355847,-0.37679825404673106,-0.023860707985656985,-0.3192737751844434,nan
1740793794.043433,-0.2477605496260287,0.07562154262765622,-0.028385389776182213,-0.04396635818366991,nan
1740793794.047339,0.26204546467688705,0.32797488562194826,0.30978764040805556,0.40298511224803896,nan
1740793794.051245,0.5696479167793576,0.2653752947357491,0.6469770896299197,0.5397822484005166,nan
1740793794.055151,0.5549915796164464,0.075737107206423,0.4789635506100448,0.17212838488236018,nan
1740793794.059057,0.3101568303832239,-0.014632607714405332,-0.22249607640032454,-0.34300254819575315,nan
1740793794.062963,0.0189607259947256,0.013974381074552258,-0.8714218779317989,-0.49076247377398585,nan
1740793794.066869,-0.19489680110252586,0.016380719325429005,-0.8573566069638566,-0.18255995520880056,nan
1740793794.0707748,-0.3099348628730726,-0.08024458666034082,-0.21216305186920892,0.1781481689198178,nan
1740793794.0746808,-0.33859860636109784,-0.1572522354599191,0.4285210929286266,0.21116657143750836,nan
1740793794.078589,-0.2679647891416334,-0.054382821796963576,0.5338238179803101,0.0009014005965716703,nan
1740793794.082495,-0.09010931803180325,0.1973281512740178,0.2254050735920119,-0.07487894052531822,nan
1740793794.086401,0.13374238127958735,0.35339607828035835,0.03378613529303479,0.12202267239126338,nan
1740793794.090307,0.2842648624795696,0.1962744266698424,0.1942886210062198,0.296906916064571,nan
1740793794.094213,0.2804722937015813,-0.21522637015311027,0.36309083878034326,0.11728411013520927,nan
1740793794.098119,0.15312233576998424,-0.5620576762667145,0.09807475095486708,-0.3172502647045774,nan
1740793794.1020248,0.00671398907536137,-0.5425328836921436,-0.5086938976542954,-0.5424299588509682,nan
1740793794.1059308,-0.08376383689579686,-0.14081324292157843,-0.8558841867616422,-0.26720881194773155,nan
1740793794.1098368,-0.1208516574016914,0.36305808332087214,-0.5160230233892276,0.2725377496426142,nan
1740793794.1137428,-0.13638534897482948,0.6301937353980485,0.2387574616295399,0.567138882810817,nan
1740793794.1176488,-0.12932616830353744,0.5182030320493535,0.7071830900638648,0.37950014406303956,nan
1740793794.1215549,-0.07602361070893231,0.14870580987644988,0.5156396790822015,-0.04941650672930597,nan
1740793794.1254637,0.012864301219993128,-0.2245483240284615,-0.014478164290009957,-0.32038247086327715,nan
1740793794.1293697,0.08228842922152613,-0.40300613453254475,-0.28264440928091183,-0.2912845010390937,nan
1740793794.1332757,0.09237342500084976,-0.3449502988393847,-0.08447703658591844,-0.12483247643910722,nan
1740793794.1371818,0.06469545723638123,-0.14595176653198322,0.2293002849221089,-0.011757338696785868,nan
1740793794.1410878,0.046478440253196314,0.04966011054422607,0.2253240974139965,0.02936396938300318,nan
1740793794.1449938,0.04238021685594387,0.13780560932476893,-0.11851090721455597,0.07125817651950668,nan
1740793794.1488998,0.015498265322526461,0.10211301313157968,-0.44784977960163386,0.11589168635236236,nan
1740793794.1528056,-0.039700447814467306,0.006827641939570264,-0.463607996136291,0.10542520622546352,nan
1740793794.1567116,-0.06501584063875504,-0.05469256213424247,-0.19653465065373554,0.05196828974432426,nan
1740793794.1606176,-0.014995124638535461,-0.024772992644480914,0.13231386046637264,0.04564674627526755,nan
1740793794.1645236,0.052079895889895665,0.08034861806330826,0.3799307136398264,0.10301974242837202,nan
1740793794.1684296,0.01630220540465043,0.18266436441849881,0.5173544841617344,0.09276285176834856,nan
1740793794.1723382,-0.14312281860440876,0.19600615897945575,0.4830101214006597,-0.10315398113191351,nan
1740793794.1762443,-0.26790389700661704,0.08653100863516293,0.1756066180657836,-0.3795914662388407,nan
1740793794.1801503,-0.1640723481172828,-0.09818129225098338,-0.3386445867754144,-0.4562042028857027,nan
1740793794.1840563,0.15984840259440075,-0.25279107882290264,-0.7221145960299861,-0.17954837407415458,nan
1740793794.1879623,0.4446487362428608,-0.2816033667579177,-0.6244475274829878,0.2722422247485083,nan
1740793794.1918683,0.4194375086222268,-0.16756349608689564,-0.0786086189751593,0.5453567259840939,nan
1740793794.1957743,0.08603488742916122,0.01164796857083864,0.4561541671048806,0.45721102292228527,nan
1740793794.1996803,-0.2726425004754177,0.14216301544760235,0.5311476879055305,0.1393333086066327,nan
1740793794.2035863,-0.3798178945729668,0.16369193184236852,0.1664229562721707,-0.1535361632957832,nan
1740793794.2074924,-0.22899638004784026,0.10979732746981244,-0.1953871944558225,-0.2977045324858452,nan
1740793794.2113981,-0.03805773702183899,0.05958439142786868,-0.1921106195174082,-0.32504607035147914,nan
1740793794.2153041,0.026445175155791523,0.052013815539900525,0.07823153388295273,-0.26952286015930577,nan
1740793794.2192128,0.015361181538668113,0.05542384434509145,0.22496252665986274,-0.10717650235288083,nan
1740793794.2231188,0.07190623055015877,0.02188530324323493,0.05045224778598905,0.13046990885734752,nan
1740793794.2270248,0.20265199507432596,-0.0447275315674717,-0.23193990950307297,0.28713384520144214,nan
1740793794.2309308,0.24999768574592818,-0.09405042032450486,-0.2810132281728694,0.2268558071708812,nan
1740793794.2348368,0.10104313206273555,-0.09948934644083184,-0.040451376861376495,0.026612817001542638,nan
1740793794.2387428,-0.14069678254219709,-0.09492109529306267,0.21239837623092853,-0.07911889934899917,nan
1740793794.2426488,-0.24968819061920897,-0.11797044729055096,0.2056510595103843,0.014300179362331954,nan
1740793794.2465549,-0.1316362347883269,-0.13077044260710932,-0.029415227141070106,0.12848797016435765,nan
1740793794.2504606,0.07160519574814737,-0.041615740768988094,-0.23264775200160467,0.02370778654742476,nan
1740793794.2543666,0.14840767632429044,0.16631311906346352,-0.2195436593234494,-0.25603983179305023,nan
1740793794.2582726,0.04839534634025506,0.3519906377363737,-0.03685936913205339,-0.37791347131458203,nan
1740793794.2621787,-0.0916758954499518,0.3193534811092332,0.1614310962281912,-0.11728456107185325,nan
1740793794.2660873,-0.13081890431105567,0.03554445336021435,0.29137166300856493,0.3183134921682702,nan
1740793794.2699933,-0.07251320123771447,-0.2794423817810844,0.33992126513376214,0.47530953744334903,nan
1740793794.2738993,-0.011231651320897996,-0.3372161181059938,0.26004350950366445,0.16931725611407153,nan
1740793794.2778053,0.016936305208818298,-0.08195452764842379,-0.01442843507691878,-0.28539775539917056,nan
1740793794.281711,0.06560823288193318,0.2196964306344249,-0.4128267734752309,-0.4246089975844498,nan
1740793794.285617,0.1617263069952345,0.23485187887347186,-0.6696954690517131,-0.15190066603383567,nan
1740793794.2895231,0.22360965276788553,-0.0773700266095057,-0.528459494323971,0.18875093557402414,nan
1740793794.2934291,0.14628667858688163,-0.3944451184771342,-0.025823145283888387,0.24788169529094636,nan
1740793794.2973351,-0.05123294562975647,-0.35163333402536134,0.4837127762957049,0.06123130183774285,nan
1740793794.3012412,-0.22046914698537712,0.06585532360717393,0.6371541518868519,-0.065139196307674,nan
1740793794.3051472,-0.2426013034644266,0.4813974014573963,0.3917031694014026,0.019196540884405224,nan
1740793794.3090532,-0.15404796411965474,0.498479477336279,0.025141402722668217,0.13745276838110573,nan
1740793794.3129616,-0.07805387519121,0.10457600080027152,-0.1709131925109882,0.06367623823341412,nan
1740793794.3168676,-0.05501174412386749,-0.31670910477398523,-0.1541899036218774,-0.1522784337151616,nan
1740793794.3207736,0.0009056394695283017,-0.37810201925919457,-0.08970969227387811,-0.2529766073988522,nan
1740793794.3246796,0.15811392894882725,-0.07344097247406398,-0.11019138261089118,-0.12650043937258484,nan
1740793794.3285856,0.330034943125317,0.24082347930835518,-0.1813525970526695,0.047642936180032576,nan
1740793794.3324914,0.3408374559164639,0.23050502129715303,-0.1940495514567148,0.05789390600485061,nan
1740793794.3363974,0.1314445152338225,-0.07932495843303794,-0.11758600156443895,-0.03985390530686073,nan
1740793794.3403034,-0.14863780264114476,-0.3559736539656004,-0.013358138240991172,-0.007475388038785175,nan
1740793794.3442094,-0.2881164866532386,-0.3169799814442354,0.07347842903110696,0.2130377524860342,nan
1740793794.3481154,-0.230872415543324,-0.004680834747816967,0.1685918755216314,0.3679604689509857,nan
1740793794.3520215,-0.10843670910661155,0.29058881121839303,0.2924295813107484,0.20479416414025026,nan
1740793794.3559275,-0.06186375854691771,0.3399031290154178,0.37328685778768683,-0.16869574982664912,nan
1740793794.3598356,-0.08028675946452866,0.1760828882353782,0.2904989917722522,-0.37673604309039815,nan
1740793794.3637416,-0.046753808445648255,0.0008443786544352058,0.013843629760302815,-0.23464492115311975,nan
1740793794.3676476,0.08661956991821454,-0.055499469916778045,-0.32713759175935175,0.016307429711932848,nan
1740793794.3715537,0.22614898359645624,-0.04386016158467218,-0.5313243063649312,0.0261469884999786,nan
1740793794.3754597,0.25179594267313066,-0.081207213687733,-0.48050509353305065,-0.18912753202068688,nan
1740793794.3793657,0.16056584109187869,-0.1782555758569131,-0.21275730399924006,-0.2459413428210681,nan
1740793794.3832717,0.05339763513934625,-0.22127905590826094,0.12444390926517643,0.09886318691176894,nan
1740793794.3871777,-0.004630823037301285,-0.11835241158456468,0.36812187716703876,0.5721731177622722,nan
1740793794.3910837,-0.05697144697821452,0.07497327253635253,0.41302049188528966,0.6525989313513205,nan
1740793794.3949897,-0.16652435204521482,0.2027505991475578,0.25711945709486295,0.18741746017904284,nan
1740793794.3988955,-0.2930242707063305,0.1729237959208243,0.01423691261002028,-0.39936592646061414,nan
1740793794.4028015,-0.31239034254460635,0.04932765893465299,-0.14557083495147624,-0.5777748576596906,nan
1740793794.4067097,-0.16337819073047263,-0.028886631553709147,-0.12647972368916927,-0.2942237010947886,nan
1740793794.4106157,0.06686119794426064,-0.0016874331691523895,-0.00011811887488620422,0.032261212659880564,nan
1740793794.4145217,0.232236683703693,0.05906919019533416,0.06033309285734993,0.05990364047330197,nan
1740793794.4184277,0.27979711250208295,0.04845179170861508,-0.032551953325800416,-0.08668772274434179,nan
1740793794.4223337,0.2717386038727012,-0.045053198878095,-0.17543531536528778,-0.05443801486007383,nan
1740793794.4262397,0.258095520765728,-0.13107001075710334,-0.1924455494052017,0.22345518893713398,nan
1740793794.4301457,0.1820377773781256,-0.12708339391579046,-0.05447923895556959,0.42271351980932026,nan
1740793794.4340518,-0.038933834226910664,-0.05082358578156686,0.07146246480341252,0.2607768770323981,nan
1740793794.4379578,-0.34976157629163995,0.010590908346651134,0.028788332418057856,-0.11425692574713184,nan
1740793794.4418638,-0.5374661802547821,0.0094999552597712,-0.10654374712893654,-0.296211914187027,nan
1740793794.4457695,-0.42196470123733487,-0.010224557948507731,-0.08493405666092567,-0.1317933176902667,nan
1740793794.4496756,-0.0614143475884615,0.021872761248017823,0.2055345606540867,0.09658550435198539,nan
1740793794.4535837,0.27160964112967173,0.10434327570361002,0.5385349472880879,0.052724239049615026,nan
1740793794.4574897,0.3429197946556642,0.154921528170491,0.5376060450177713,-0.20697501871124735,nan
1740793794.4613957,0.17850270445732525,0.10488943657579387,0.08542798095739514,-0.3058389242773115,nan
1740793794.4653018,0.019216776535841393,-0.015054095034728293,-0.5012002151341973,-0.045592860472191195,nan
1740793794.4692078,0.05633132517934064,-0.10116230175703336,-0.75272937311195,0.3155155026645851,nan
1740793794.4731138,0.22662324859499722,-0.08797395978962984,-0.4994972981032347,0.3692750747327456,nan
1740793794.4770198,0.2784585293719464,-0.018108155072907514,-0.014616830378621486,0.06249774935998669,nan
1740793794.4809258,0.03846239525306196,0.008526434883602987,0.2896378490539378,-0.23781362968920736,nan
1740793794.4848316,-0.3894173434651349,-0.0517396329521735,0.2642698205997589,-0.1963559288394328,nan
1740793794.4887376,-0.6862871794528876,-0.13640597678759828,0.10270507597751266,0.09203894645341176,nan
1740793794.4926436,-0.5843633433257068,-0.14275809436822287,0.06473576808674393,0.24403418642241656,nan
1740793794.4965496,-0.09871345501037687,-0.034733744149846806,0.19185141566085814,0.06998672275555472,nan
1740793794.5004578,0.47117974631288534,0.12214551427137506,0.3098620965609152,-0.21028417620624315,nan
1740793794.5043638,0.7632479575637083,0.22571485974773114,0.25244548519000337,-0.2616632147788115,nan
1740793794.5082698,0.612904026533038,0.22540404904492914,0.02123894750972755,-0.04227752565484681,nan
1740793794.5121756,0.15114537836984054,0.14602959024422488,-0.25797983008256475,0.17569963419281123,nan
1740793794.5160816,-0.3167028432900785,0.04022545716816777,-0.46151469179462684,0.1585863167389253,nan
1740793794.5199876,-0.5354572451975976,-0.06403472991658106,-0.5138660549809407,-0.026890795863192977,nan
1740793794.5238936,-0.4484422466035843,-0.16480139592841597,-0.3673758219399681,-0.1414209024956269,nan
1740793794.5277996,-0.17900284882103779,-0.2491544768573122,-0.030702272974339674,-0.07894419392882766,nan
1740793794.5317056,0.09715696961078056,-0.2739733046026551,0.35866974865794504,0.0454321873442348,nan
1740793794.5356116,0.26190908143037983,-0.19524874557110194,0.564041741622698,0.08971718772452256,nan
1740793794.5395176,0.27959911968400697,-0.01848982506004326,0.43958432793575347,0.06309415096325689,nan
1740793794.5434237,0.17139616797595136,0.18378653269589398,0.101900431374355,0.06257167117024723,nan
1740793794.5473323,-0.0009282620749844032,0.3121261251056156,-0.14907873758287826,0.0994032261708969,nan
1740793794.5512383,-0.1422517920601205,0.3086599589526536,-0.1283356055154256,0.078615933040498,nan
1740793794.5551443,-0.16571509384477295,0.19654894519548072,0.03515224083460125,-0.04994460041866979,nan
1740793794.5590503,-0.06454164817821799,0.05455828266125747,0.0471135506821314,-0.19861774773849178,nan
1740793794.5629563,0.06349692355728931,-0.05322935137075506,-0.19899285344485768,-0.24137124387026263,nan
1740793794.5668623,0.09565372974974073,-0.12825144419537074,-0.46879780354712797,-0.1599629639466519,nan
1740793794.570768,0.006564082984503756,-0.21557205170112775,-0.43162098089813233,-0.03561077904750571,nan
1740793794.5746741,-0.10001137051706878,-0.32441058911960524,-0.04169959178933969,0.07825540194170709,nan
1740793794.5785801,-0.09872485574709926,-0.3748642472368674,0.38080910688818925,0.1964097682880725,nan
1740793794.5824862,0.021439892264635288,-0.2471164691443615,0.47612266365029543,0.2997311294698697,nan
1740793794.5863922,0.14493105650712823,0.08836480773074608,0.22103078969096646,0.27761194946034473,nan
1740793794.5902982,0.15420180285872262,0.4830142416833801,-0.06407226951135518,0.056993835148950366,nan
1740793794.5942068,0.04729122586157493,0.6781437798826578,-0.08098349479910161,-0.23547884235135524,nan
1740793794.5981128,-0.07914572716323376,0.5031710021992879,0.12095584673850106,-0.3436137188238753,nan
1740793794.6020188,-0.1426506352168882,0.03645718244791608,0.21993710574377928,-0.16430015860545685,nan
1740793794.6059248,-0.13960770461290578,-0.43032898980569234,0.0037636783593016183,0.10097440851096676,nan
1740793794.6098306,-0.10067817809757572,-0.6111986644200532,-0.3719575793359572,0.15766854601223604,nan
1740793794.6137366,-0.02657112453616366,-0.4406005846096906,-0.5343622794755759,-0.03342244860893865,nan
1740793794.6176426,0.09311956094204096,-0.09701516921058886,-0.28726066821345914,-0.20726542317429344,nan
1740793794.6215487,0.21167635549172475,0.17165833183304036,0.1729956362642949,-0.12568627174319016,nan
1740793794.6254547,0.22953137846362315,0.24808827954384907,0.44309227576632293,0.12313750828218331,nan
1740793794.6293607,0.09861824868096614,0.1941556778302468,0.304594315917911,0.24483052023770988,nan
1740793794.6332667,-0.09925042799745214,0.1346470808971138,-0.07148794102332606,0.12658633415172257,nan
1740793794.6371727,-0.21772458974584313,0.1175545406330233,-0.2990769700411644,-0.019938751054975678,nan
1740793794.641081,-0.19305616141030732,0.089698960511948,-0.1492664182537573,0.03949169705088804,nan
1740793794.644987,-0.09506401419362494,-0.010493421294574513,0.23646175403979725,0.21274063967543771,nan
1740793794.648893,-0.020078812966601304,-0.1588589470132133,0.4830524102492888,0.17204882422543996,nan
1740793794.6527991,0.028935942653595594,-0.25183745203286384,0.33155319516437776,-0.19814334109536222,nan
1740793794.6567051,0.11172019272698798,-0.20272446408882863,-0.1222294070813868,-0.576939749161961,nan
1740793794.6606112,0.21530985449956236,-0.028908343794574097,-0.5141316877045008,-0.5384209476461161,nan
1740793794.6645172,0.21895940011159404,0.15366734565221624,-0.5393538726805914,-0.06169982343040127,nan
1740793794.6684232,0.04165763465837824,0.2223763123899802,-0.21874866492855752,0.4155782859146957,nan
1740793794.6723292,-0.20726182875829893,0.1439792474384575,0.14145772670099657,0.4847183414764671,nan
1740793794.6762352,-0.29869423231503506,-0.005984579719477434,0.25320875877450577,0.20523116291440197,nan
1740793794.680141,-0.13321589123493893,-0.11235056888196358,0.11577103481334013,-0.028628489000998864,nan
1740793794.684047,0.1244782672919667,-0.11491791825613476,-0.015878683404281595,0.003864752538558836,nan
1740793794.6879556,0.21261248435014068,-0.04686349162224474,0.07243289857937671,0.11837973836141157,nan
1740793794.6918616,0.06368629602814779,0.011450991742786956,0.3056378777503262,0.0345653569146601,nan
1740793794.6957674,-0.1250058101919689,0.013796564077183377,0.38972899238142966,-0.2179033743986169,nan
1740793794.6996734,-0.12960577778361612,-0.01472718782016804,0.13604005226152233,-0.3410493607413993,nan
1740793794.7035794,0.04072548199846247,-0.015498979460999865,-0.3059349273380323,-0.18369901298395547,nan
1740793794.7074854,0.17310680005207124,0.036916810434028884,-0.568327154148821,0.046885772994416285,nan
1740793794.7113914,0.11815940062464156,0.1090455318904721,-0.4250836658337208,0.06942507541700788,nan
1740793794.7152975,-0.0438719578207773,0.1416735157549567,-0.017617893945829396,-0.08042054991990316,nan
1740793794.7192035,-0.1304569778019352,0.09737386964857642,0.29039487343209897,-0.09646461707910174,nan
1740793794.7231095,-0.08908580435603165,-0.021662873726895876,0.2721804646476891,0.16151604614847545,nan
1740793794.7270155,-0.02916298010484005,-0.1787103012950374,0.03484938723679749,0.4329452037245413,nan
1740793794.7309215,-0.03613716406065377,-0.302787677588588,-0.13319188347813574,0.36605172606039543,nan
1740793794.7348306,-0.045680155305455446,-0.296924952380938,-0.0741039365090023,-0.015325388411050328,nan
1740793794.7387366,0.041794394125692115,-0.09665844057178186,0.10692621552983682,-0.31083874746323215,nan
1740793794.7426426,0.17691281251062962,0.23648647512430973,0.20096531355953662,-0.23527838490084158,nan
1740793794.7465484,0.19056555546634935,0.4931024932893506,0.13401160117963196,0.02653341536611695,nan
1740793794.7504544,0.02387608989011017,0.45256348218880244,0.014951856714799101,0.07009783389794406,nan
1740793794.7543604,-0.15659732789302971,0.09762981159505345,-0.02974335998883075,-0.19101504962870466,nan
1740793794.7582664,-0.14742596766983698,-0.31453433806625725,-0.012446633661671693,-0.4014280376064597,nan
1740793794.7621725,0.02400623664905986,-0.45275930905347256,-0.046349516083441844,-0.2220997229068895,nan
1740793794.7660785,0.11679386716817095,-0.22613331519453542,-0.17714649296108642,0.22148728965277603,nan
1740793794.7699845,-0.015203319878379279,0.11283500293847072,-0.3019161734705824,0.4821401187690184,nan
1740793794.7738905,-0.21901152861556694,0.21611683593260433,-0.2760610799054867,0.3368461889606439,nan
1740793794.7777965,-0.22753446556007106,0.000895680085698426,-0.07823873718053656,0.030673694372381353,nan
1740793794.7817047,-0.008133831573217551,-0.2635688959191566,0.16171181515316152,-0.07661041480405861,nan
1740793794.7856107,0.19039075956626522,-0.24780460600244672,0.29828516206009403,0.028654039436938426,nan
1740793794.7895167,0.17332775635100958,0.08049870624606864,0.30538951859841723,0.054063543139721115,nan
1740793794.7934227,0.07221429791270545,0.42338595755053854,0.2601938302308937,-0.14271909802156948,nan
1740793794.7973285,0.15739460686584647,0.47018056110570033,0.21417235257294961,-0.3294027163060097,nan
1740793794.8012345,0.40634246420286974,0.20480131605330987,0.12168960435150894,-0.22542953028299065,nan
1740793794.8051405,0.42410082861841303,-0.12308775811728002,-0.08285548479625955,0.07329754825252449,nan
1740793794.8090465,-0.09156539368539822,-0.288782771344712,-0.3562422176720447,0.1814111554438702,nan
1740793794.8129525,-0.8737678387645913,-0.2905337743938052,-0.5325967755232281,-0.05851109693610161,nan
1740793794.8168585,-1.235452893667381,-0.2576849069090795,-0.46163247672531715,-0.3225567807717129,nan
1740793794.8207645,-0.7581964056407837,-0.23919509288778892,-0.15988257444520523,-0.19392407866922245,nan
1740793794.8246706,0.24587348997628578,-0.15565166537596903,0.18608490017759333,0.2843647629173265,nan
1740793794.8285787,1.0361856192913184,0.05336484914822123,0.3725288698861611,0.6220365806708749,nan
1740793794.8324845,1.1601192999801062,0.3112148098149876,0.33900917421040255,0.47067560735546,nan
1740793794.8363905,0.7780507182659782,0.47008053226758945,0.1904508127601048,0.04156588697765726,nan
1740793794.8402965,0.3136095439673942,0.44959726217426166,0.07833956039141514,-0.1845140336203094,nan
1740793794.8442025,-0.04396837269017435,0.2622767308217762,0.06563649248461009,-0.0734956898315499,nan
1740793794.8481085,-0.38295902493557576,-0.05540040297463242,0.09367479383443948,0.02079455777543594,nan
1740793794.8520145,-0.7403015528705235,-0.4363692002823137,0.06083287220080038,-0.24155941893489058,nan
1740793794.8559206,-0.9587106166247592,-0.6910921394552151,-0.07164123500474112,-0.7141074618672875,nan
1740793794.8598266,-0.922599064189353,-0.5546181269504732,-0.23899140286812626,-0.9268416930972556,nan
1740793794.8637326,-0.7351857445878391,0.019905967704502682,-0.3277432133701477,-0.6300579059288901,nan
1740793794.8676386,-0.4726205740585628,0.6271394990212117,-0.280192264283077,0.007605005821032082,nan
1740793794.8715444,0.12164865406201672,0.6626172909110889,-0.15748907579919544,0.7276534507216156,nan
1740793794.8754535,1.353713162680448,-0.02301437621116955,-0.08739117658805699,1.4488608618946277,nan
1740793794.8793595,2.8266099580867645,-0.7809356931373062,-0.11651379356732189,2.0197380650097227,nan
1740793794.8832653,3.24606448590852,-0.7021734349350846,-0.10621490413081444,1.8874855926366403,nan
1740793794.8871713,1.4695948347829613,0.3660088698257728,0.17093857797252304,0.44609598436172015,nan
1740793794.8910773,-2.0252031183390784,1.455373268282294,0.7481810297897596,-2.043773394243274,nan
1740793794.8949833,-4.9665800605050245,1.3530169366407292,1.258017599534302,-4.088094555772221,nan
1740793794.8988893,-5.020863256277524,-0.08659816071233549,1.109994585499094,-3.9496046947285794,nan
1740793794.9027953,-1.9289847039998667,-1.6517074768418025,0.03881542512200875,-1.2665337385745976,nan
1740793794.9067013,2.139746907214598,-1.9461171426939745,-1.4455657652439926,2.366274630667591,nan
1740793794.9106073,4.463307173252151,-0.8053794606885819,-2.2573928129754086,4.588360443009034,nan
1740793794.9145133,3.995242939968182,0.6174424674857681,-1.6043548286542058,4.130662950443115,nan
1740793794.9184194,1.7979588276339118,1.178829283526763,0.18637817703000106,1.5985067608033912,nan
1740793794.922328,-0.40840594241601236,0.915908549964976,1.7532668132468114,-1.3135504552003439,nan
1740793794.926234,-1.7354859263121352,0.6901481002023975,1.8113864996435043,-3.112915237296529,nan
1740793794.93014,-2.1977516264599886,0.8262256380335394,0.36077074647709545,-3.1512933919808797,nan
1740793794.934046,-1.8993987786689734,0.5713375012728699,-1.1970108503390806,-1.5979983412473269,nan
1740793794.937952,-0.8183249424458717,-0.7899895977996159,-1.2881725011887697,0.6464435972561565,nan
1740793794.9418578,0.5610846545376776,-2.520824126629376,0.32341217389559845,2.102164252905304,nan
1740793794.9457638,1.0763881666215496,-2.7239661110207334,2.192251215500038,1.525304330952046,nan
1740793794.9496698,0.03476353950791042,-0.41970753334133715,2.4272927529788526,-0.7785608304730567,nan
1740793794.9535758,-1.5147871994833395,2.871877957742343,0.42257891709682927,-2.603630350857428,nan
1740793794.9574819,-1.3777304836468922,4.161799372714615,-2.5027973196168456,-1.5860083206317939,nan
1740793794.9613879,1.3319019111531167,1.930789639232426,-4.141833593797615,2.154395866163792,nan
1740793794.965294,4.530226452953494,-2.0874100681118826,-3.1803669208750875,5.381540286536706,nan
1740793794.9692025,4.703114959438752,-4.370340546957678,-0.19183477933158752,4.500588997644665,nan
1740793794.9731085,0.5940335647670454,-2.9723183707087326,2.8865342071701248,-0.6474279656315628,nan
1740793794.9770145,-4.8773052034795406,0.6673878506409173,4.210680457262762,-6.034476228415156,nan
1740793794.9809203,-6.978114855838248,3.2968416743779447,3.2133483463403505,-7.016526760768917,nan
1740793794.9848263,-3.74745464417979,3.033374685519634,0.7560985066775113,-2.8241734041520257,nan
1740793794.9887323,1.9473110809107346,0.820902326977323,-1.6220857856332034,2.717645848267134,nan
1740793794.9926383,5.17325218467251,-1.073291690438255,-2.704344909608261,5.0504382274384785,nan
1740793794.9965444,3.7013168323901495,-1.5171240030998254,-2.2343916089461424,3.224910768233141,nan
1740793795.0004504,-0.1494758686169625,-1.1927697900154868,-0.9105484295447848,0.20864517298748114,nan
1740793795.0043564,-2.3069883050108575,-1.1252456016455277,0.20545310576313314,-0.8077105879688182,nan
1740793795.0082624,-1.159140517581562,-1.1800325944674122,0.4883710680125658,0.24316218768889242,nan
1740793795.0121684,1.2559531304136873,-0.3976461787973232,0.1821010623746157,0.8901715048676196,nan
1740793795.0160768,1.9347346757096138,1.4145749340046205,0.07277719436374785,-0.49325719238594706,nan
1740793795.0199828,0.17394481662245923,2.975038909289787,0.6358471559764101,-2.692962096231924,nan
1740793795.0238888,-2.0538224975711294,2.7063638948175393,1.4624794775928156,-3.2292882168407044,nan
1740793795.0277948,-2.5464950329499603,0.47364580300835274,1.6087147554053143,-1.335418490825523,nan
1740793795.0317008,-1.113897298110201,-2.122888927399456,0.5990268700701521,1.2661101797345968,nan
1740793795.0356069,0.6655304608339302,-3.221660242228693,-0.9503428645130283,2.4647472265596657,nan
1740793795.0395129,1.3902450668278532,-2.31242238826721,-1.8259856301027197,1.9717489059220037,nan
1740793795.043419,1.068928421145237,-0.3844244244673319,-1.394903005337577,1.074263208127895,nan
1740793795.0473247,0.5594298368944165,1.242136347322641,-0.23218716648523294,0.6453544895040039,nan
1740793795.0512307,0.3516829950605776,1.959140784007994,0.5015714632201728,0.1760765315154459,nan
1740793795.0551367,0.23990655603037137,1.8658028462634262,0.27984657630287196,-1.0328681263422208,nan
1740793795.0590427,-0.046613344575667764,1.1876882602535828,-0.30051359744154293,-2.363175075953412,nan
1740793795.062952,-0.365114527900374,0.06370337466467596,-0.28420793077430245,-2.299069461076276,nan
1740793795.066858,-0.44288268106741774,-1.1693430671679848,0.5042107086766539,-0.3847552893378789,nan
1740793795.070764,-0.3405772622489168,-1.8707613910808838,1.243353550007029,1.842355250834675,nan
1740793795.07467,-0.346903354133579,-1.5537257787146694,1.0578570091484831,2.3381137651898696,nan
1740793795.078576,-0.49525997419255147,-0.41047420260773754,0.038120867928397466,0.8011618642036481,nan
1740793795.082482,-0.4742743350522885,0.7888736982974873,-0.8264615198164066,-1.0172635737223301,nan
1740793795.086388,-0.0954639399869086,1.3587840907915056,-0.727279146161208,-1.3274013729661012,nan
1740793795.090294,0.3811698908235182,1.1815574458483835,0.07878133019297717,-0.22515948607086847,nan
1740793795.0942,0.5826872206969949,0.5637404936620511,0.5534974286103851,0.7013266180411147,nan
1740793795.098106,0.5497107056476631,-0.17562620702213308,0.008400715383728009,0.4354351326875212,nan
1740793795.102012,0.6384118145097183,-0.8165637119896678,-1.134290202890588,-0.33981244912444625,nan
1740793795.105918,0.8665966337203042,-1.081135876982481,-1.728671149004716,-0.3394224581404352,nan
1740793795.1098263,0.6787307809444592,-0.7040292861982647,-1.0096831795411685,0.5353130932848781,nan
1740793795.1137323,-0.3455396219008231,0.17015082332353446,0.6819578752646229,1.0347153024977624,nan
1740793795.117638,-1.6654606229602862,0.8489719038436615,2.1850669960499234,0.20116341597266668,nan
1740793795.1215441,-2.0655128555007014,0.6712837848170738,2.4651795964975287,-1.298675003906324,nan
1740793795.1254501,-0.9794658370304791,-0.1961696978339444,1.37316110432051,-1.8488467730424079,nan
1740793795.1293561,0.6877189892498501,-0.7665894046822149,-0.3350916328576791,-0.7557642681828307,nan
1740793795.1332622,1.4067563406287111,-0.26404014040312257,-1.6173526456667842,0.9436413060554186,nan
1740793795.1371682,0.7221754862715039,0.9040157045651831,-1.8765917249776887,1.6629546927467227,nan
1740793795.1410742,-0.20529117932573315,1.443976401874457,-1.2834862732721541,0.9833873728575764,nan
1740793795.1449802,0.016593317943106103,0.5577747281231996,-0.49350636803046893,-0.07219218208026115,nan
1740793795.1488862,1.2519741653953327,-1.109314125365106,-0.013990415638030638,-0.3694655930601514,nan
1740793795.1527922,1.8386953063931575,-2.071718327903725,0.21506529916137984,0.08055462960353117,nan
1740793795.1567004,0.49033100477283725,-1.51595157649653,0.6076753564283325,0.3374059987903232,nan
1740793795.1606064,-2.041855284605177,-0.03932434982635443,1.2806284866721496,-0.22160378759138188,nan
1740793795.1645124,-3.5146021827555085,1.1348022254306607,1.7005742975102274,-1.1630068469316481,nan
1740793795.1684182,-2.4349609717342773,1.4404209175647438,1.1552410065867813,-1.5179318533207338,nan
1740793795.1723242,0.41912527190286997,1.2563428406707526,-0.3440530098664824,-0.8191325419630767,nan
1740793795.1762302,2.7799068330479733,1.0469886688051349,-1.771657559852118,0.496936584539865,nan
1740793795.1801362,3.0267636129826,0.6287788183025955,-1.9363841749066528,1.5714846129560438,nan
1740793795.1840422,1.4336264618138355,-0.43978538134735745,-0.7057765222202413,1.8143853711803575,nan
1740793795.1879482,-0.4970974866892797,-1.9068841442907687,0.7569946257345911,1.1791149214875103,nan
1740793795.1918542,-1.5514609642082882,-2.68407418588915,1.1403696691874055,0.03185322585888581,nan
1740793795.1957603,-1.5452643840137437,-1.879691013216183,0.33380857035810096,-1.0742013584834695,nan
1740793795.1996663,-0.921240667380841,0.15600861400801644,-0.5374212521240995,-1.6158410815621616,nan
1740793795.2035744,-0.10761440784860316,2.0423160473303197,-0.4570056553459315,-1.3572706409161555,nan
1740793795.2074802,0.6054931554542392,2.6300456535967367,0.3197701626455114,-0.5183778340563084,nan
1740793795.2113862,0.9080923652172913,1.9000101022277656,0.6721184133343387,0.38024776142046024,nan
1740793795.2152922,0.5996104378777614,0.6193878669468741,0.09618298157175882,0.92333902148388,nan
1740793795.2191982,-0.08017655203550123,-0.5925768097673826,-0.5871693188829099,1.0414645458558194,nan
1740793795.2231042,-0.5201806741041807,-1.5762013207002754,-0.25969261352972717,0.850004342709124,nan
1740793795.2270103,-0.33623416259798905,-2.146245047948124,0.9364642468588718,0.3880878189152353,nan
1740793795.2309163,0.18137557841200003,-1.8008325984954188,1.5098158986852255,-0.3148186238514274,nan
1740793795.2348223,0.38972046115542097,-0.3018106373994413,0.31542859415644786,-0.9540780144389291,nan
1740793795.2387283,0.050132853575491756,1.5751755392062983,-1.8836767713301488,-1.0063161824770128,nan
1740793795.2426343,-0.40448897703460346,2.3506434340389677,-2.947278255985118,-0.2935120569920497,nan
1740793795.24654,-0.41820994870732514,1.2385009520164638,-1.576906212667664,0.5994778353438817,nan
1740793795.2504482,0.025960153920531946,-0.8518374082324255,1.2108505203041213,0.7700910941676435,nan
1740793795.2543542,0.44309986792107237,-2.0108867345798496,3.0381428527665006,0.007375138252877161,nan
1740793795.2582603,0.4617162222781186,-1.1709458240944852,2.512792978001841,-0.8177685979585616,nan
1740793795.2621663,0.1839165618629618,0.8339267683433417,0.4219046551594901,-0.6305649885993987,nan
1740793795.2660723,-0.10419195393312544,2.127315482858185,-1.3570004032498313,0.5689423267579165,nan
1740793795.2699783,-0.33942379103912484,1.6196087445284943,-1.7731036713628991,1.5456128621915028,nan
1740793795.273884,-0.5797755702471541,-0.11568095703948818,-1.2053625155424057,1.1198746040286007,nan
1740793795.27779,-0.6247700168220964,-1.6500442450330497,-0.4514184937348659,-0.4875788361524549,nan
1740793795.281696,-0.11127073349443266,-2.0778763208463,0.2741715408994957,-1.81441169941693,nan
1740793795.285602,0.8424260839632443,-1.4912761611027543,1.0704077027074372,-1.6743018579198594,nan
1740793795.289508,1.3667695859253988,-0.40333286047683686,1.5165111493095222,-0.3259360830370363,nan
1740793795.293414,0.6423111883949277,0.8320132922396846,0.8204414334795146,0.9610358343063979,nan
1740793795.2973228,-0.9541147107211991,1.9065060575924424,-0.9669358384318053,1.3035237395846964,nan
1740793795.3012288,-1.8739712927426313,2.253751504616915,-2.3663072352375676,0.9077183272456547,nan
1740793795.3051348,-0.946056889559162,1.367376391782895,-1.7403372234625323,0.439949161104037,nan
1740793795.3090408,1.144711935443181,-0.4486954047054616,0.7359946208879375,0.09484608955910627,nan
1740793795.3129468,2.306811978776976,-1.9645181578760291,2.834145837374319,-0.4089446363444711,nan
1740793795.3168528,1.206148241647166,-2.024633500241535,2.4384117206257594,-1.0688015758577338,nan
1740793795.3207588,-1.1842669956470564,-0.7162441760828608,-0.11645693245072063,-1.2960128715902912,nan
1740793795.3246648,-2.4999693234652245,0.6635605493075584,-2.2688897317732786,-0.6140272146430513,nan
1740793795.3285708,-1.4769316872603535,0.9292007004905115,-1.9525437120656353,0.5602739240647595,nan
1740793795.3324766,0.732118548336024,0.18836060185466647,0.17888428681362953,1.1990099846963898,nan
1740793795.3363826,1.8883144346786847,-0.429817717123309,1.5609091558541521,0.7914668401237939,nan
1740793795.3402886,1.10723747891408,-0.14226398072768986,0.6508354287511395,-0.06653816906683968,nan
1740793795.3441973,-0.35445342890025067,0.6324910289205002,-1.36736306511944,-0.3936789709871875,nan
1740793795.3481033,-0.7475870688935362,0.8806670351891015,-2.0160558429240147,0.019974237597237345,nan
1740793795.3520093,0.12611896226329503,0.2601727762289043,-0.37641836861000016,0.44656683122070207,nan
1740793795.3559153,0.8552071869572694,-0.5108241971612593,1.9216951169194996,0.205382275168835,nan
1740793795.3598213,0.2733253352550351,-0.5664270253953413,2.5949465395623235,-0.4855032927395817,nan
1740793795.3637273,-1.0855928478398817,0.043306443787472254,1.1836879998331875,-0.8431950305462221,nan
1740793795.3676333,-1.6466333677919154,0.42798207055371307,-0.690079032255129,-0.5290428383149794,nan
1740793795.3715394,-0.6890140156587348,-0.03932923399748233,-1.3446795786734214,0.004860164009408919,nan
1740793795.3754454,0.8209414938582263,-0.9233272540273084,-0.8116418990734252,0.21378642886955504,nan
1740793795.3793511,1.3870124118783766,-1.1782862175697717,-0.38647992925186947,0.17802996698729964,nan
1740793795.3832572,0.6748644457535052,-0.3233167956012284,-0.7800358672313444,0.35237197643491336,nan
1740793795.3871632,-0.24741501577687391,0.9924390093242671,-1.2507764016537888,0.7529742789421497,nan
1740793795.3910718,-0.2836254736032822,1.6347910968544312,-0.6800840913090815,0.7993824751591587,nan
1740793795.3949778,0.4150900729927779,1.0980060922356845,0.8923769984520361,0.117019690335617,nan
1740793795.3988838,0.7337171595194366,-0.08218833997136332,2.202047466930454,-0.7940314212800711,nan
1740793795.4027898,-0.013733783523364525,-0.9394689576606272,2.16297982686283,-1.0400614550029044,nan
1740793795.4066958,-1.2523380735303997,-0.9730612432970513,0.9728319443039016,-0.4382112791835781,nan
1740793795.4106019,-1.762502485639058,-0.44310545982120003,-0.3244664021563005,0.21996864591606383,nan
1740793795.4145076,-0.954850508476651,0.06682611198103484,-1.0824348984861172,0.1806429279733896,nan
1740793795.4184136,0.586069265024142,0.23343239605842758,-1.4932447434511222,-0.2711012019280574,nan
1740793795.4223197,1.7190375198615901,0.1552104184374422,-1.83783173557158,-0.1954699277777515,nan
1740793795.4262257,1.7367712054977886,0.07900077736227382,-1.7584432056509307,0.6531081564831638,nan
1740793795.4301317,0.7849667690611375,0.09231971523368876,-0.6630639121184345,1.3028884033061034,nan
1740793795.4340377,-0.4489686073932925,0.0955360378614583,1.2334930975526193,0.7019854290934822,nan
1740793795.437946,-1.2782610134668864,0.001693268454250565,2.68930927914265,-0.826098283854371,nan
1740793795.441852,-1.3500514002437738,-0.11277150401378622,2.533600544361353,-1.7235334404507123,nan
1740793795.445758,-0.7204954136691932,-0.08587002577430185,0.9019658625893239,-0.9391402723065329,nan
1740793795.449664,0.2213436855548572,0.11552641926698795,-0.8465224873380075,0.7844911216341608,nan
1740793795.4535701,0.9521890918239372,0.30298865157895205,-1.485786290263948,1.6820657428856431,nan
1740793795.4574761,1.0944481950048799,0.24199795798636323,-1.0495984793042212,0.9174049363295238,nan
1740793795.4613822,0.6097413635692118,-0.06306867778823202,-0.5356055455039962,-0.589333639454885,nan
1740793795.4652882,-0.2295531136257172,-0.3156081644198365,-0.6410515811417345,-1.3495493203431361,nan
1740793795.469194,-1.006514485569262,-0.24138511605159008,-1.0065438223182803,-0.94829904412289,nan
1740793795.4731,-1.295675499331394,0.04308994798764144,-0.7412166695611735,-0.17890382427800106,nan
1740793795.477006,-0.7906738479217887,0.09473100625315248,0.4707761339174097,0.2362683298705685,nan
1740793795.480912,0.44383598588807444,-0.3110941397207921,1.9237821787313385,0.4820115388578498,nan
1740793795.4848204,1.7400435305358148,-0.7564203457038856,2.5075064717706392,0.9868550499011862,nan
1740793795.4887264,2.0639841722410885,-0.511433245418662,1.681022588076126,1.3880448748316294,nan
1740793795.4926324,0.8564349420675037,0.5744094183993276,-0.10865574529770637,0.8004019549959503,nan
1740793795.4965382,-1.2110694784903926,1.635694649178476,-1.8033433063038447,-0.8130414097599561,nan
1740793795.5004442,-2.540359577403529,1.523044456605553,-2.4724371619171053,-2.1087952242689934,nan
1740793795.5043502,-1.9975941218902118,0.09226863645216134,-1.8666177132165576,-1.7043338098096295,nan
1740793795.5082562,-0.08210962309215498,-1.4233433224294858,-0.5000582442845711,0.09582020785961604,nan
1740793795.5121622,1.4868937699661415,-1.6012147132115724,0.7478704401770903,1.455225699433565,nan
1740793795.5160682,1.5005897375791788,-0.40799427844197683,1.2713858149162134,1.0795950447502494,nan
1740793795.5199742,0.463430954905489,0.6793002457997775,1.14796671291578,-0.26385969757347916,nan
1740793795.5238802,-0.1263145570028654,0.34418507058964026,0.9144981357744825,-0.7276365319614692,nan
1740793795.5277863,0.37227245873740794,-0.92776482715453,0.8673370271130799,0.2816864982260146,nan
1740793795.5316944,0.9562883620099484,-1.261576314683134,0.6488713773012187,1.341240813864332,nan
1740793795.5356004,0.2694565907315826,0.3853366916912769,-0.2838086807526279,0.8355761862721581,nan
1740793795.5395064,-1.5321717728419844,2.6930153544467648,-1.7253427832144708,-0.9076211884491737,nan
1740793795.5434124,-2.661696872057514,3.1115005587119464,-2.4996720014392264,-1.913823368072182,nan
1740793795.5473182,-1.6468176035912383,0.6499134039829982,-1.5208530738097317,-0.9865740658309563,nan
1740793795.5512242,0.8701284228877553,-2.760072730360789,0.8301947709833931,0.7837066368595005,nan
1740793795.5551302,2.6513004466022547,-4.026280864226597,2.6659410812539943,1.3664079639037874,nan
1740793795.5590363,2.203104419265952,-2.0248409500185263,2.2869959644747127,0.3105589291639541,nan
1740793795.5629423,0.2827539297128694,1.2768463833487806,-0.0070286785035056955,-0.7704841172241136,nan
1740793795.5668483,-1.1105882229806547,2.9115328757462127,-2.030494245552389,-0.3739066479804269,nan
1740793795.5707543,-0.9897057206701333,1.892045066290433,-1.8567121071711825,0.8736570476632738,nan
1740793795.5746603,-0.22428184310546512,-0.12904353517730882,0.18715270333782066,1.023277594153631,nan
1740793795.5785685,-0.1366875412929311,-1.0062812737094116,1.860328830680196,-0.5315129919436062,nan
1740793795.5824742,-0.7445121464893389,-0.4231725073228706,1.3954723592333194,-2.003210636536272,nan
1740793795.5863802,-0.8528171575583051,0.18951093768768204,-0.6258286826955177,-1.3069472131748172,nan
1740793795.5902863,0.2172929637967925,-0.26338325658067946,-1.9509863105991416,1.198520499485926,nan
1740793795.5941923,1.5458086902563501,-1.1376531025459609,-1.1364818751758339,2.8345907367958314,nan
1740793795.5980983,1.6106602054185963,-0.9691570460652571,0.8926781052598787,1.6520325257352935,nan
1740793795.6020043,0.15130276577337715,0.5518985594188591,1.8857053165835964,-1.215011937758401,nan
1740793795.6059103,-1.4177516044868699,2.031840607256565,0.7281181234573096,-2.785550554905836,nan
1740793795.6098163,-1.567809939275758,1.8986768290373772,-1.3614987031970018,-1.6245917661058342,nan
1740793795.6137223,-0.3096895154123767,0.1469937521181325,-2.1380886761018036,0.653638284560928,nan
1740793795.6176283,0.9770361250780005,-1.7038634199541298,-0.6785372891701572,1.4872990684046052,nan
1740793795.621534,1.1760287721913933,-2.236324429020118,1.6946105405474257,0.41050267685107916,nan
1740793795.6254423,0.4862711033866171,-1.3845900722480364,2.760644841123177,-0.6542310877130896,nan
1740793795.6293483,-0.20350577633842423,-0.06630652225226559,1.5296126694494705,-0.04491071920894872,nan
1740793795.6332543,-0.5280783875720297,0.9925167249472623,-0.9426969539671378,1.4708973647674022,nan
1740793795.6371603,-0.791070516965644,1.6844555560742849,-2.6460076608050076,1.7021535206612433,nan
1740793795.6410663,-1.0521498877913722,1.949961856454757,-2.37596274975032,-0.12099401605576139,nan
1740793795.6449723,-0.7031101927769884,1.3812343048428308,-0.5596223610528378,-2.2541239985975046,nan
1740793795.648878,0.6412973168778573,-0.20814121344650216,1.3351970933687305,-2.4388959138866917,nan
1740793795.652784,2.1212646257521524,-2.0271068955929423,2.037290200155827,-0.5143734243545245,nan
1740793795.6566901,2.1478671728645122,-2.659491177346415,1.305381213739125,1.4903577697647306,nan
1740793795.6605961,0.2159635628993121,-1.45414237964175,-0.10243111510931134,1.7408096811708447,nan
1740793795.6645021,-2.1452044691854586,0.6198438610247216,-1.0928734045305102,0.49710166197964695,nan
1740793795.6684082,-2.7207244731084703,1.8123222244963109,-1.00953629098992,-0.5809690705320142,nan
1740793795.6723168,-0.9632128844031523,1.3229302366392803,-0.04618353540292871,-0.5422581777519702,nan
1740793795.6762228,1.3466764052906603,0.012893274611399164,0.931506722389732,0.02477984089641604,nan
1740793795.6801288,2.0026193295745935,-0.6573147692006914,1.0459085801847554,0.1822300654420829,nan
1740793795.6840348,0.7150166213452055,-0.1877467838212189,0.0972604757831304,-0.028045021632743947,nan
1740793795.6879408,-0.771070557177987,0.639556914493018,-1.2437739354230881,0.09410945473138688,nan
1740793795.6918468,-0.8253546992566274,0.8373726745342253,-1.9181311993377599,0.5906521746474102,nan
1740793795.6957529,0.2512374879560842,0.25966598581415334,-1.2772738808766875,0.5699820977808953,nan
1740793795.6996589,0.8330792269194501,-0.5215330037302023,0.4097889260736168,-0.5092628627132526,nan
1740793795.703565,0.10419517248079552,-1.0498762448491945,2.1053468677893954,-1.7634115214307864,nan
1740793795.7074707,-0.9627518644530543,-1.307276633457242,2.6802400182780257,-1.6737888538649877,nan
1740793795.7113767,-0.9258486351937687,-1.253468044011437,1.6585613289793801,0.05406036410028355,nan
1740793795.7152827,0.24561626109466758,-0.5260991979101639,-0.43577996031216926,1.9125717249249996,nan
1740793795.7191913,1.1102357941512433,1.0105926007113477,-2.3578145773776202,2.1666400329271305,nan
1740793795.7230973,0.5689712957053124,2.558898806373944,-2.919307866814694,0.7553237304264141,nan
1740793795.7270033,-0.734358712120281,2.738708000733749,-1.7916555309826037,-0.758479832158873,nan
1740793795.7309093,-1.1781909397436336,0.9747372835223789,0.2547112970888381,-1.0663847520144516,nan
1740793795.7348154,-0.14612477443829983,-1.6047034126509163,1.917485023553285,-0.47779527529035537,nan
1740793795.7387214,1.2101767089962963,-3.0025576395296567,2.3162150557926644,-0.1824637557068376,nan
1740793795.7426274,1.3412260772465652,-2.2261084521681394,1.5292681875440215,-0.5342789279503942,nan
1740793795.7465334,0.11402812299912439,-0.2031053364766005,0.2887665979332896,-0.6496336232180165,nan
1740793795.7504392,-1.100113207844073,1.2580905561198463,-0.7547960941776111,0.20350828652135058,nan
1740793795.7543452,-1.0849687898724547,1.2823046138695322,-1.397832008403954,1.3475258319244883,nan
1740793795.7582512,-0.12825984501278578,0.5381618193890619,-1.613835395486439,1.346954543520161,nan
1740793795.7621572,0.502893280095614,0.15392938161943726,-1.2124808385087558,-0.14888127142330673,nan
1740793795.7660658,0.18361187932602582,0.3751880981161515,-0.053622414821159134,-1.7200036280399822,nan
1740793795.7699718,-0.3878992018489646,0.5039722819001315,1.4025048926837065,-1.640382330801386,nan
1740793795.7738779,-0.20971114874573266,-0.020808796797275198,2.091639132064494,0.1664481260746837,nan
1740793795.7777836,0.6692210334567883,-0.8540849127888442,1.2535160706204964,1.97975616509149,nan
1740793795.7816896,1.168180627564877,-1.1736692743367398,-0.6052627650848937,2.100445971713815,nan
1740793795.7855957,0.5164605286741237,-0.6497080463290061,-1.9244565087958336,0.5362535785962281,nan
1740793795.7895017,-0.7550802496827977,0.24903706473164455,-1.5322603396578005,-1.236608542593222,nan
1740793795.7934077,-1.3755005374192917,0.8407131654954435,0.13095590687481953,-1.907318524122434,nan
1740793795.7973137,-0.7590876501295438,0.8595425393881203,1.419672305941517,-1.406877240166324,nan
1740793795.8012197,0.3808718428468491,0.4494189988321453,1.1881982728014917,-0.4770515859641609,nan
1740793795.8051257,0.8813202091675117,-0.18325989630717704,-0.05627332595279225,0.3355322828642882,nan
1740793795.8090317,0.3929045499759976,-0.8255951077492086,-0.8417092667929013,0.952058053505807,nan
1740793795.8129401,-0.3595005787033837,-1.0711486869863678,-0.4509371601989338,1.296167893494981,nan
1740793795.8168461,-0.48598259815290024,-0.4903722923337929,0.3350871376154284,1.0893449412257254,nan
1740793795.8207521,0.10829432831634253,0.7616649859851072,0.31515928976170526,0.3033306823605348,nan
1740793795.8246582,0.7262536938255432,1.709715813915439,-0.5701431626006196,-0.5008694778725391,nan
1740793795.828564,0.6882432343714937,1.335646567007804,-1.115062255527772,-0.6688231582762385,nan
1740793795.83247,-0.005142053764977295,-0.26875150511339996,-0.3425804130295264,-0.26610922976794393,nan
1740793795.836376,-0.7639115407232516,-1.7611321387435863,1.192142312138729,-0.05994624947869013,nan
1740793795.840282,-0.9947472547651832,-1.8193424497174928,1.9087477969534643,-0.5245944910012865,nan
1740793795.844188,-0.5539398602698761,-0.5104084852734523,0.9751923066085183,-1.1055552478525688,nan
1740793795.848094,0.23212124780244442,0.8288522831040177,-0.7317053822607636,-0.805918988549777,nan
1740793795.852,0.8378582028021431,1.0958813403143268,-1.606203267965072,0.5060270080349903,nan
1740793795.855906,0.8646802906344784,0.5408978275186738,-1.0688657588909463,1.711828422753513,nan
1740793795.8598142,0.2921349148462081,0.1994114351845693,-0.05548921002744788,1.5961748343814743,nan
1740793795.8637202,-0.463444683854739,0.43870350672618286,0.24202018400943234,0.243892233850236,nan
1740793795.8676262,-0.8060976460630158,0.5231888446642993,-0.20704880846908075,-1.0019903761797126,nan
1740793795.8715322,-0.4416172159412334,-0.2377813484501724,-0.38163820848743846,-1.0148164786211589,nan
1740793795.8754382,0.3182032525892486,-1.313197253822824,0.3874422784029718,-0.07344482493056737,nan
1740793795.8793442,0.7895335068656731,-1.4270050516283832,1.496524649942551,0.5849845189434768,nan
1740793795.8832502,0.541025661332105,-0.22368470359228812,1.7386520598323811,0.23327317409945542,nan
1740793795.8871562,-0.19677055697742898,1.0469822082845959,0.7016704101685822,-0.6121871312495422,nan
1740793795.8910623,-0.7681679917451948,0.9266300308268159,-0.7938616767473071,-0.9408869556703079,nan
1740793795.894968,-0.7285084336937282,-0.3557363054535885,-1.65278108976345,-0.4333303777518573,nan
1740793795.898874,-0.2135486352095033,-0.9610731531583196,-1.6065525143497001,0.3319730482663626,nan
1740793795.90278,0.29898841406718435,0.31439825934090093,-1.1663725870196764,0.7068370361844906,nan
1740793795.9066882,0.4997344070455188,2.251800051156082,-0.6869726849635526,0.6591953278382917,nan
1740793795.9105942,0.45592448287175813,2.282036085327004,0.09614176341674767,0.530758845696573,nan
1740793795.9145002,0.3722317612077818,-0.49309250302200197,1.4191341775618225,0.40248013609425204,nan
1740793795.9184062,0.28335322782307,-3.7976001440591602,2.661465115740649,0.0368765054053027,nan
1740793795.9223123,0.0586275039515938,-4.2287729812715895,2.617091701778841,-0.5752488907165628,nan
1740793795.9262183,-0.3452028639916317,-0.8756790605200165,0.7831128880864798,-0.9565651818643617,nan
1740793795.9301243,-0.7393305324573223,3.454823004732533,-1.8009839505037242,-0.665454657012252,nan
1740793795.9340303,-0.840612356150756,4.895275117529014,-3.2747867136251965,0.06278840632171269,nan
1740793795.9379363,-0.5141371129960777,2.3150949191974317,-2.6131435746587357,0.4900336697257732,nan
1740793795.9418423,0.12709270546813423,-1.7150719044268399,-0.513311896694392,0.2472137091168345,nan
1740793795.945748,0.7949751448758328,-3.6520465371047766,1.3588802098251411,-0.19965774962995025,nan
1740793795.949654,1.150703379017216,-2.3645903871974787,1.8913129929876262,-0.1419152486907678,nan
1740793795.9535623,0.9383885634806001,0.26558375691883174,1.2672111924016636,0.4356352264771104,nan
1740793795.9574683,0.16204259103676255,1.7102985292910673,0.395664936105821,0.7875409021089299,nan
1740793795.9613743,-0.7885118086653354,1.2602484938749248,-0.10104537592022594,0.34485427342460007,nan
1740793795.9652803,-1.289723434950394,0.12073438265151352,-0.253102564199218,-0.5116511664954065,nan
1740793795.9691863,-0.9489303801834337,-0.3921760805744188,-0.3375158212948788,-0.8497959266835214,nan
1740793795.9730923,-0.006113669888818501,-0.19474210890011753,-0.42192744083294886,-0.30257544806505954,nan
1740793795.9769983,0.7968005336638089,-0.012593965859092619,-0.38997543134982154,0.47095667109517125,nan
1740793795.9809043,0.8613008666370296,-0.17450059790118586,-0.2290520337026407,0.5609650383818479,nan
1740793795.98481,0.2797459262944536,-0.2813711487363933,-0.08703864195145593,-0.1198492171832231,nan
1740793795.9887161,-0.29871925303151653,0.029116109460677476,-0.04620364805862364,-0.7546316945070995,nan
1740793795.9926221,-0.3545717169598582,0.4530842889114664,0.0026678455615260104,-0.5970547648910491,nan
1740793795.9965281,0.0042661611098146505,0.41132865884566,0.17658967482941174,0.18887567987164566,nan
1740793796.0004363,0.25590267643160314,-0.1275130431425125,0.3771113556012708,0.7814023939218522,nan
1740793796.0043423,0.09886992963829032,-0.5497015359032839,0.37491171531659956,0.6550629920125521,nan
1740793796.008248,-0.23844798853406698,-0.3687191938780154,0.11613834287253322,0.08001853230950463,nan
1740793796.012154,-0.3318174692886921,0.15973983556040217,-0.16585593791492337,-0.3186869349921304,nan
1740793796.01606,-0.08535578292412473,0.38398158700374185,-0.20803610212246806,-0.28124493088105723,nan
1740793796.0199661,0.1904973292834865,0.09393214438438849,-0.026613092194805787,-0.05605694572159653,nan
1740793796.0238721,0.19507043986689312,-0.24554371981233636,0.117502291832081,0.04489937665871047,nan
1740793796.0277781,-0.00428425421140799,-0.14452527132113563,0.0467162187253459,-0.0018885935548458028,nan
1740793796.0316842,-0.10404441443898754,0.25579516740522323,-0.1362576341168931,-0.06106035029373851,nan
1740793796.0355902,0.023089211229166056,0.38253391166520306,-0.21879754313463345,-0.1139715250880011,nan
1740793796.0394962,0.17792722283507142,0.010387019579021859,-0.16297745730608781,-0.2233913916105384,nan
1740793796.0434022,0.11858565409383455,-0.41429812334239,-0.11578969218351634,-0.2959827741650418,nan
1740793796.0473108,-0.11303929837298309,-0.34021777174609563,-0.14760319980992384,-0.10643329374349356,nan
1740793796.0512168,-0.24537002851503234,0.16123066425734106,-0.10503797837376061,0.3536196820887152,nan
1740793796.0551229,-0.12574170872652188,0.4560113840485875,0.18271042225943848,0.7042292759594987,nan
1740793796.0590289,0.09449389083232806,0.1382390551934762,0.5959552975457603,0.5400859201790137,nan
1740793796.0629349,0.1640631022488353,-0.4423317378926438,0.7475401008407108,-0.051396544580695265,nan
1740793796.0668406,0.043945183496644086,-0.5858968388722411,0.3786165009308976,-0.5083545074411941,nan
1740793796.0707467,-0.07226012271960494,-0.08465332966086142,-0.3124394325141494,-0.4153248787921284,nan
1740793796.0746527,-0.03136495730347533,0.5312303881490731,-0.8084721427949022,0.007684560618476644,nan
1740793796.0785587,0.08535987226096647,0.6268840987162992,-0.7537003394389818,0.1789058863734118,nan
1740793796.0824647,0.09056709085050431,0.18375248348863557,-0.2671260513122051,-0.12089330242534006,nan
1740793796.0863707,-0.04890108001925138,-0.25090518972656733,0.21779019980032713,-0.4750721963391512,nan
1740793796.0902767,-0.1689127730525506,-0.2656556246398725,0.375027192281649,-0.3594408184630474,nan
1740793796.0941854,-0.12565713110599816,-0.04001638501596387,0.22635148926836654,0.1900887216038685,nan
1740793796.0980914,0.02511020514534654,-0.02180462788928321,0.021622308178360854,0.6117129396534757,nan
1740793796.1019974,0.11579557868838744,-0.2919430660370908,-0.033490920527204315,0.5030176271347498,nan
1740793796.1059034,0.08510973354312874,-0.4449377268245464,0.08013112243818618,0.08597589263781749,nan
1740793796.1098094,0.03037536086577336,-0.12603459386460755,0.24195386890310658,-0.12050595821387566,nan
1740793796.1137152,0.04284471792773995,0.4692219520546601,0.3030086337425169,0.02742511884080926,nan
1740793796.1176212,0.07245311411713974,0.7689085932149368,0.1691467031684602,0.1518258478075156,nan
1740793796.1215272,0.012496428555508404,0.4649055892649999,-0.1384262499888804,-0.10173479834080358,nan
1740793796.1254332,-0.12345189912362689,-0.1489720203344477,-0.45683214536818084,-0.5565643943336236,nan
1740793796.1293392,-0.19234277641439473,-0.5206663016053709,-0.560540307820826,-0.6968704840392543,nan
1740793796.1332452,-0.10434643093522332,-0.42816210188154197,-0.3451437842558397,-0.3042091025624177,nan
1740793796.1371512,0.05155558554979801,-0.13233209312590008,0.04583007530231093,0.2773442942851792,nan
1740793796.1410599,0.11628208937908474,0.013721558827744685,0.3213695998767801,0.5600799681728145,nan
1740793796.1449656,0.06014249598716637,-0.02857450407416474,0.3114991147451974,0.45234204619434376,nan
1740793796.1488717,0.0034677740052207534,-0.030019897522911045,0.12840490628451995,0.24988653953603096,nan
1740793796.1527777,0.03528966004962336,0.1407805051325665,0.03332792361627561,0.16735709098715792,nan
1740793796.1566837,0.08742374007099762,0.3323694088749345,0.14676729822037193,0.08268839926233963,nan
1740793796.1605897,0.04333888421706859,0.3180062661621573,0.31984760028299253,-0.18187132681181947,nan
1740793796.1644957,-0.07357212116402909,0.09271540783336976,0.30021196593352933,-0.48774699207906946,nan
1740793796.1684017,-0.11167601111366218,-0.1274199270246116,-0.0017467050101765199,-0.4889159174436435,nan
1740793796.1723077,-0.006784633026941852,-0.18122945207942387,-0.42599906496601575,-0.10840379077663043,nan
1740793796.1762137,0.0982032729278943,-0.14296652279669872,-0.7083226651518372,0.2802144538737576,nan
1740793796.1801198,0.025658131920935946,-0.18190318058571417,-0.6751056009790964,0.2695233528769774,nan
1740793796.1840255,-0.17778571334826782,-0.2983960388203386,-0.32203391915818586,-0.07187812403197626,nan
1740793796.1879342,-0.25616143293856714,-0.2882178542722083,0.21204003012319225,-0.2684512843079648,nan
1740793796.1918402,-0.05623043104186834,0.005798178973615249,0.6947574105071455,-0.027804267485200942,nan
1740793796.1957462,0.25025773578352684,0.4557290125921747,0.8770256444908195,0.389296680586783,nan
1740793796.199652,0.3440258572009221,0.7154206883533087,0.6359169759945622,0.49093054137029846,nan
1740793796.203558,0.1402181480707267,0.5353059977913842,0.10207523405161482,0.15637155596283897,nan
1740793796.207464,-0.10715147237985141,0.00036342359173779134,-0.39772029532696324,-0.24278180869341054,nan
