timestamps,TP9,AF7,AF8,TP10,Right AUX
1740536462.0073502,-0.12536043848678494,-0.13993685278869267,0.9533460455579006,-0.32366511471673676,nan
1740536462.0112557,0.07457975588528636,0.10861361057481654,0.3054196946967502,-0.5556028790579259,nan
1740536462.015161,0.12015526511125217,0.29461281750767193,-0.6320660562609632,-0.5644996915492618,nan
1740536462.0190666,-0.0028014134974063366,0.2671496494990283,-1.0451368946018058,-0.2342653047992283,nan
1740536462.022972,-0.10627423494228293,0.11023055355226004,-0.6452336155776827,0.27666130721906057,nan
1740536462.0268774,-0.04899438653029728,0.014935506231747574,0.10626367095995527,0.620335492616968,nan
1740536462.030783,0.10098929661115533,0.03072823037221282,0.5208629282472337,0.5792602229795765,nan
1740536462.0346882,0.16566532171562495,0.02621513651185753,0.36004202300500054,0.2645117304686463,nan
1740536462.0385938,0.0697498610499746,-0.1078131517955199,-0.02320602530736938,-0.03771063213794387,nan
1740536462.042499,-0.08656890525054077,-0.2954926790121346,-0.1513197953926852,-0.17837744055665716,nan
1740536462.0464046,-0.15076313426336413,-0.35914742707655256,0.05886609281869595,-0.24168357607236654,nan
1740536462.05031,-0.0731845816890669,-0.22301712241134855,0.2721647275195099,-0.3398387989109034,nan
1740536462.0542173,0.06387455941414476,0.02157514624785286,0.1736854842101337,-0.4061984922681887,nan
1740536462.0581229,0.13591839153328347,0.237228808262536,-0.1543893436905026,-0.2702295975356451,nan
1740536462.0620282,0.07654957082946216,0.3599926610368058,-0.3337630392154128,0.08680467968312303,nan
1740536462.0659337,-0.08024727665100599,0.3818413313417073,-0.13394462689763081,0.44028032516676113,nan
1740536462.069839,-0.21756116982298224,0.28323609302254743,0.24936771787120046,0.5286070655897949,nan
1740536462.0737445,-0.2053038677085118,0.05690073071959445,0.3919784265749461,0.31122890641965634,nan
1740536462.0776498,-0.006949434393082651,-0.21323102147186557,0.0957993004440601,-0.022194447647805367,nan
1740536462.0815554,0.2521850351541911,-0.37402646187901256,-0.39265453934402833,-0.26773204967578607,nan
1740536462.085461,0.35590833855986814,-0.34594832420570504,-0.6253895015318056,-0.3629969695824909,nan
1740536462.0893662,0.19230045992798542,-0.20793538717863777,-0.3878903142615695,-0.3295708018736325,nan
1740536462.0932717,-0.11102948066117001,-0.09410125942571508,0.12288321114227933,-0.16105898008280337,nan
1740536462.097177,-0.28741465759578944,-0.027256547980424366,0.5211631004523705,0.13680439806336636,nan
1740536462.1010942,-0.19907425427870895,0.0828625579122875,0.580328555361634,0.42060671021521756,nan
1740536462.1049995,0.014499355410478294,0.26816900231272717,0.357441647612789,0.4482608660137465,nan
1740536462.108905,0.09392921102743884,0.4017475689631811,0.04628517358755706,0.12895729543043172,nan
1740536462.1128104,-0.03884506985569375,0.33250130825716784,-0.20688800187024162,-0.30530002059776457,nan
1740536462.116716,-0.18583137529601335,0.09060655539542961,-0.33881201579306863,-0.47828042928124154,nan
1740536462.1206212,-0.10900861140767178,-0.12471500721434679,-0.31803156850223463,-0.2561777287476966,nan
1740536462.1245267,0.17305364195654088,-0.18294121928516413,-0.1580710815855782,0.09929936800609307,nan
1740536462.1284323,0.38367572999181543,-0.1719523358331347,0.022570188625191046,0.21920539963590815,nan
1740536462.1323376,0.29348071309629054,-0.24268181707976394,0.05395595450303433,0.04282060048808892,nan
1740536462.136243,-0.021896837434106232,-0.3511175015629354,-0.0936967768214715,-0.12495304200513571,nan
1740536462.1401484,-0.27006162850979987,-0.27430471609567153,-0.20792749490458126,0.012242093514991502,nan
1740536462.144054,-0.263104073487623,0.07370228110683182,-0.028396412571400433,0.37202469177131525,nan
1740536462.147969,-0.09363314733167874,0.4388818862265912,0.41238334615117855,0.5573348910796163,nan
1740536462.1518745,0.0182285131598562,0.4627251464898121,0.7163466872696761,0.2798657408196382,nan
1740536462.1557798,-0.00783899085593493,0.11875572055465111,0.4943161371904909,-0.32876214047176805,nan
1740536462.1596854,-0.05583007114508016,-0.20570047200358146,-0.1713498567889706,-0.8325764114872939,nan
1740536462.1635907,-0.002589908034707729,-0.14377374154006314,-0.7250630847615411,-0.8711090757398197,nan
1740536462.1674962,0.11556620556686242,0.19859274527148543,-0.6767115551541062,-0.41447658505585966,nan
1740536462.1714017,0.16654577269662268,0.3455907772419735,-0.1214020583550435,0.27734955595154576,nan
1740536462.175307,0.10699789634941931,0.023303381318518356,0.3549542178376169,0.8483046451952625,nan
1740536462.1792126,0.03022788151413756,-0.48295852053348964,0.30648708833793503,1.010114245676781,nan
1740536462.1831179,0.02208076900545032,-0.6355224853000365,-0.106075438678678,0.6558695045970938,nan
1740536462.1870234,0.03483379864417598,-0.26093664873393374,-0.3368524323798053,-0.04912163543568978,nan
1740536462.1909287,-0.04013491446144856,0.25952629446562053,-0.09404157264580101,-0.692793063218977,nan
1740536462.194843,-0.19815496151839437,0.4396278260590437,0.3494366735080236,-0.865137091177529,nan
1740536462.1987484,-0.2898996953814897,0.21912010157096937,0.5109127461083115,-0.4972945841950741,nan
1740536462.202654,-0.19183773677362725,-0.046934368121323636,0.26033865383938853,0.05165358679019817,nan
1740536462.2065592,0.034963748704257815,-0.06515635478422048,-0.0847711144452194,0.3205916355093738,nan
1740536462.2104647,0.20602845998103922,0.08240066491028777,-0.19952317192989677,0.18947629588252551,nan
1740536462.21437,0.22173989087678533,0.14176338436035194,-0.1363622494734235,-0.039244928732608805,nan
1740536462.2182755,0.15985831491488378,0.06294372802572686,-0.1739602786826126,-0.020521558622130426,nan
1740536462.2221808,0.14072631859604162,0.016615441835538907,-0.36655196175947774,0.2285950032649465,nan
1740536462.2260864,0.14963872443833887,0.0656793278897421,-0.4217383849003591,0.3736472437103989,nan
1740536462.2299917,0.05596147158057245,0.011728361971642804,-0.0936824792011972,0.19339154097000932,nan
1740536462.2338972,-0.18933174849575726,-0.308545629545889,0.42265532429681957,-0.13678127505176874,nan
1740536462.2378027,-0.4338317969626201,-0.6720522079586683,0.6481897073023102,-0.2591770428010808,nan
1740536462.2417147,-0.44990151266298134,-0.6139559355341255,0.3766412524601056,-0.07878970225334297,nan
1740536462.24562,-0.17372318724460567,0.01314594309058385,-0.06529798255114153,0.11570651517000845,nan
1740536462.2495255,0.21401608668780966,0.7555461176626306,-0.21123552734274187,0.008531942371347922,nan
1740536462.2534308,0.4505603259898071,0.9755609508556793,-0.029355108854679828,-0.34477043633924725,nan
1740536462.2573364,0.41243953699830566,0.5290258475992267,0.055779180683096466,-0.5600320952370605,nan
1740536462.2612417,0.17817664274798198,-0.10216324683031032,-0.2507678073815217,-0.3508233237365567,nan
1740536462.2651472,-0.08153995981427348,-0.3829802626588079,-0.6552239439886027,0.1672901541562952,nan
1740536462.2690525,-0.23462039761575162,-0.2982422626323135,-0.5658853517779184,0.6199972264271173,nan
1740536462.272958,-0.23410086177920217,-0.2375059574369398,0.16475885977816834,0.7462451420026692,nan
1740536462.2768633,-0.1103088029068205,-0.3917178623731643,0.9477497190175775,0.5620214236751174,nan
1740536462.2807689,0.03912184475318324,-0.47936830782935763,1.024685365074823,0.2104853714972167,nan
1740536462.2846744,0.08827490977495232,-0.16543235175793064,0.28150580347617055,-0.2121642898769179,nan
1740536462.2885852,-0.016371161867432687,0.39921077375606645,-0.6190777074575099,-0.6212587868121332,nan
1740536462.2924905,-0.17261398659173177,0.6738528645402286,-0.9315136883435569,-0.8363636956744447,nan
1740536462.296396,-0.18687854713746047,0.3842096691020792,-0.5501194769894973,-0.6683087504624384,nan
1740536462.3003013,0.02748795010254805,-0.1049911963988303,0.019642421460535537,-0.15993764241391722,nan
1740536462.3042068,0.32300728539810086,-0.22080810823061364,0.3060220985191765,0.35644980272452903,nan
1740536462.3081121,0.4345773972133915,0.09881338056674524,0.31764037386971883,0.5465156232621914,nan
1740536462.3120177,0.243043428460576,0.32100055508014486,0.3245811347370622,0.40927106295477006,nan
1740536462.315923,-0.10163533765714518,0.008818137297013534,0.3766332235105658,0.24387313917938078,nan
1740536462.3198285,-0.339132515393324,-0.5743254291771228,0.24066288890116047,0.26386694292206025,nan
1740536462.3237338,-0.353994310026428,-0.7349928967373293,-0.18329633738781168,0.33098567681148794,nan
1740536462.3276393,-0.2363605524963888,-0.1938062800665585,-0.5815391157247239,0.15209077938741652,nan
1740536462.3315449,-0.10978358080966423,0.5361833313254969,-0.5300475311905122,-0.30159110044166654,nan
1740536462.3354545,0.02265651538457622,0.7186278910577182,-0.03952125355105763,-0.6933238158899134,nan
1740536462.33936,0.2109464246427897,0.22748127959351294,0.376318348734732,-0.6880355746693956,nan
1740536462.3432653,0.38703117756146976,-0.3522404011314925,0.2683497962737245,-0.33825703302912896,nan
1740536462.3471708,0.3678632922799176,-0.4379726185224568,-0.1993585130730802,-0.0016624655215744294,nan
1740536462.3510761,0.07907933892578815,-0.07916421856608205,-0.4078043775242529,0.10656868821182709,nan
1740536462.3549817,-0.2824275311946311,0.22483454339959721,-0.0056987953167362,0.15290207907113393,nan
1740536462.358887,-0.40149547635253996,0.1956765374792774,0.6418121221290459,0.4043784877540753,nan
1740536462.3627925,-0.1802616502946072,0.04681307471164149,0.8223790154804714,0.789253978448086,nan
1740536462.3666978,0.13918893057332746,0.06870896162659682,0.26050633484716035,0.8858034874118943,nan
1740536462.3706033,0.23531572104414894,0.16886079594801393,-0.566554221754039,0.39863789400449007,nan
1740536462.3745089,0.05849161233859501,0.02530762521700743,-0.9238615541127533,-0.44210990845674375,nan
1740536462.3784142,-0.14156818813018066,-0.37037986411097656,-0.5598713022607793,-1.0548458651726325,nan
1740536462.3823225,-0.13717016911727117,-0.5768654972983229,0.10129597764873287,-1.0661163724074971,nan
1740536462.3862278,0.010092527981291777,-0.23893131292908354,0.4561655083817306,-0.6165985494960997,nan
1740536462.3901334,0.06548321261977733,0.3797607229159009,0.311804849112135,-0.10397067895276824,nan
1740536462.3940387,-0.0405600284104433,0.6182150420359834,-0.030827711584987746,0.2670740351012791,nan
1740536462.3979442,-0.1022833299149393,0.19775873759895488,-0.17599617147457078,0.5757095620992919,nan
1740536462.4018497,0.08155779684870942,-0.3987844185671519,-0.014083945800995284,0.8746875647131507,nan
1740536462.405755,0.3884244884182708,-0.46359472905405374,0.2670709518055284,0.9595312166869606,nan
1740536462.4096606,0.44677602858019494,0.10096958992654168,0.42343701055724847,0.5693840601267709,nan
1740536462.4135659,0.06342623344257592,0.6591924206601152,0.3351513965347852,-0.21974020915869213,nan
1740536462.4174714,-0.4953477356492142,0.5811854553569877,0.0189788323814218,-0.9307582626885353,nan
1740536462.4213767,-0.7313317000155091,-0.050715673586718864,-0.4049782637138379,-1.0853337166756118,nan
1740536462.4252822,-0.42484206275597364,-0.5939358943843647,-0.7197722119087118,-0.6402253662474031,nan
1740536462.4291887,0.13829219836967846,-0.6104289934413826,-0.6856441566300837,0.009833403519531946,nan
1740536462.4330943,0.4735884601079684,-0.28647092035319,-0.23581106629649556,0.42856044480750316,nan
1740536462.4369996,0.38849913572321765,-0.05881396374894929,0.37875909521739687,0.48263195209645177,nan
1740536462.440905,0.1209935680559252,-0.02094443860153686,0.7282335473528689,0.32300066377473646,nan
1740536462.4448104,0.013213128680164282,0.10264688408067002,0.5772802599018158,0.1417564879182759,nan
1740536462.448716,0.12368240524029235,0.4440659393771364,0.1248478537249269,0.02638195377583882,nan
1740536462.4526215,0.20558768416023507,0.7003353200376188,-0.18316700889061363,-0.003364831284925835,nan
1740536462.4565268,0.03034211268181249,0.4980339468163352,-0.1102404989426887,0.05144289640707144,nan
1740536462.4604323,-0.336796572818086,-0.07022433192473462,0.12929342304784872,0.12320568906158903,nan
1740536462.4643376,-0.5993846733434292,-0.4889482681577587,0.12186448757431853,0.06717078336015578,nan
1740536462.4682431,-0.5232265883863383,-0.43279409371116223,-0.2611421141494008,-0.19200223516368445,nan
1740536462.4721484,-0.13693125180652074,-0.15741833437338212,-0.6790098087418698,-0.4980540108270332,nan
1740536462.4760547,0.3245491371286089,-0.13411897945196533,-0.6569863929005758,-0.5462100716406442,nan
1740536462.4799602,0.6149842094847058,-0.38789795328496335,-0.09771512416831228,-0.2027411094193356,nan
1740536462.4838655,0.6123450849764396,-0.42525168445520656,0.5752557190436621,0.2941069255116822,nan
1740536462.487771,0.336242013833945,0.10166326783132695,0.8065229408503598,0.5382353816893375,nan
1740536462.4916763,-0.08440781161531768,0.8306975232231154,0.4412140156655302,0.3798357182680756,nan
1740536462.4955819,-0.450428781002183,1.001687363348596,-0.13666467520024522,0.0806194196011948,nan
1740536462.4994872,-0.5690614624941194,0.3393547745989508,-0.39459037910661493,-0.004746953449809803,nan
1740536462.5033927,-0.37318919964991876,-0.5563757765546316,-0.17223185908444402,0.1419420882834404,nan
1740536462.507298,0.006695537301681512,-0.8288720347178049,0.18983428009812747,0.18235576419250896,nan
1740536462.5112035,0.3150479423736286,-0.2977994191815047,0.2333109542136809,-0.14436175925177955,nan
1740536462.5151088,0.3578170076888636,0.3767311181694061,-0.12331771630133138,-0.6422828783363355,nan
1740536462.5190144,0.14771360370668424,0.4695727276041736,-0.4941706794367042,-0.8036834485102456,nan
1740536462.5229294,-0.11953351718062037,-0.02219176970628121,-0.44077319115849706,-0.3478875635485339,nan
1740536462.5268347,-0.23142029999890443,-0.4715020124486586,0.03806645056124986,0.43691730574164195,nan
1740536462.5307403,-0.12116393524405643,-0.4042820766985473,0.4715621737371266,0.9304864093671648,nan
1740536462.5346456,0.09884775457388713,-0.0014243781513388716,0.40420768834798726,0.7521497320203507,nan
1740536462.538551,0.2412437670716772,0.2271618637673131,-0.09610716471413243,0.0887417928692582,nan
1740536462.5424566,0.19393168667837107,0.1086001007237962,-0.4714467235510181,-0.511895544772721,nan
1740536462.546362,0.003249100323596859,-0.030743613394476392,-0.2551810309056072,-0.6311738451655047,nan
1740536462.5502675,-0.17140672787408037,0.14395975441332437,0.4002766995209961,-0.2860556468866606,nan
1740536462.5541728,-0.1983882450853726,0.4994108880547796,0.8360683608868993,0.16494546270454932,nan
1740536462.5580783,-0.09167334935129172,0.5742176945051483,0.5566462908970631,0.35617857262526487,nan
1740536462.5619836,0.010601210004409044,0.14169030332863558,-0.24428315461562813,0.18910749681171274,nan
1740536462.5658891,-0.0005624299431565611,-0.5011340844026279,-0.8709212651545131,-0.13241169481831266,nan
1740536462.5698028,-0.07604167345680085,-0.843158542497309,-0.8281539966311483,-0.2924484275549213,nan
1740536462.5737083,-0.06012756567942268,-0.6722243552260931,-0.28313408373005505,-0.13285346762378158,nan
1740536462.5776136,0.11293547623900786,-0.21408522486687562,0.1906636336248585,0.19801475972269503,nan
1740536462.5815191,0.3012094694535447,0.17986575556760706,0.2592350319251614,0.36160517103760337,nan
1740536462.5854244,0.2823658679328597,0.3702198570081316,0.12625974921492852,0.1509691940480415,nan
1740536462.58933,0.012110000263260989,0.4391373516951639,0.18730376099809246,-0.2683549312714889,nan
1740536462.5932353,-0.2851801232904665,0.47049286306311927,0.49811215159944455,-0.4740480298950134,nan
1740536462.5971408,-0.3306883887355608,0.42558017074510945,0.6957739289667579,-0.20201028288849887,nan
1740536462.601046,-0.09249334987218576,0.22990526997028507,0.43691859413299083,0.3462862243423071,nan
1740536462.6049516,0.17164303499533465,-0.09759003054786523,-0.193408679976498,0.6569785416954803,nan
1740536462.608857,0.19455410595161202,-0.4367387305045707,-0.7697237342640768,0.40088368511594275,nan
1740536462.6127625,-0.010329920944554457,-0.6444062557869417,-0.9555573979121165,-0.23093142692743668,nan
1740536462.6166747,-0.1817625636127793,-0.6114696966284611,-0.7479594627011998,-0.7066361591057517,nan
1740536462.6205802,-0.12156473685933537,-0.29977865265675674,-0.3204882320749613,-0.6552386918026982,nan
1740536462.6244855,0.08613965984618979,0.19132128275022436,0.21812233091625366,-0.17055261204382943,nan
1740536462.628391,0.19638082052280342,0.5977314017035384,0.7898580832275972,0.3498014508503729,nan
1740536462.6322966,0.09960949114169113,0.635218833033354,1.1523622552493356,0.5881232778161104,nan
1740536462.6362019,-0.06989549560483908,0.264099822404949,0.9590684448327695,0.49996262577280726,nan
1740536462.6401074,-0.12225561600266587,-0.20923859127188113,0.15370825146195138,0.2121112662377523,nan
1740536462.6440127,-0.03633029357254085,-0.38373594903122926,-0.7739537437480569,-0.13672154928893102,nan
1740536462.6479182,0.05701883472966161,-0.15627369858196738,-1.1205954717154798,-0.41586539249985555,nan
1740536462.6518235,0.07371927599092555,0.1796593694728425,-0.6531520465908497,-0.4748327939506592,nan
1740536462.655729,0.06604456651214467,0.26466012413232404,0.11491303024394685,-0.2391011146447359,nan
1740536462.6596344,0.08877122770353464,0.05944932192845179,0.4415942661092937,0.14307014688771538,nan
1740536462.6635454,0.06190447013130497,-0.16680593856645384,0.14189714880219606,0.3560138949364212,nan
1740536462.6674507,-0.1306832934097464,-0.20971785039850294,-0.24827394673265102,0.21672987944545458,nan
1740536462.6713562,-0.409900739547625,-0.1711205905051765,-0.13226437906807878,-0.10078217978767112,nan
1740536462.6752615,-0.4801801130449651,-0.25039150855339265,0.42577375083615765,-0.22996653049362306,nan
1740536462.679167,-0.13354988469942927,-0.37482221350579875,0.7666811035682408,-0.026086023504921476,nan
1740536462.6830723,0.44762520998530236,-0.20886127772240562,0.41458717406132584,0.255179005169513,nan
1740536462.6869779,0.7901050170338847,0.3916063297862596,-0.3499048727226863,0.2561993155353151,nan
1740536462.6908832,0.585836909571688,1.037388865332314,-0.7924023266782391,-0.047707803348382795,nan
1740536462.6947887,0.012761765354307834,1.0842579430713974,-0.5366556103154411,-0.30930963928361166,nan
1740536462.698694,-0.4501517600776607,0.3096980046496529,0.06279624778429167,-0.22601804785869925,nan
1740536462.7025995,-0.5096399257471025,-0.7671103377360285,0.3825401975780394,0.094546939979211,nan
1740536462.706505,-0.3001942168625112,-1.3279489188231346,0.2310537277302618,0.2690015614494607,nan
1740536462.7104151,-0.13948078672851702,-1.013008561437514,-0.03726271395099842,0.10120729556292749,nan
1740536462.7143207,-0.13118200398898683,-0.19409580514070687,-0.054694616186838727,-0.19952712827835165,nan
1740536462.7182262,-0.0961342733804109,0.4753749060835771,0.10147596467297315,-0.2952223535593183,nan
1740536462.7221315,0.12615368303195265,0.680675145975135,0.08925778343609445,-0.116556377077639,nan
1740536462.726037,0.42100276216863797,0.5802897960005244,-0.16518109836747025,0.11458580163313516,nan
1740536462.7299423,0.515398705667681,0.4360529196932137,-0.31604519234295086,0.21333872552318178,nan
1740536462.7338479,0.30564787239048014,0.2787312393994884,-0.05035436192528665,0.23286232093645073,nan
1740536462.7377532,-0.023828707082135258,-0.010243120709848345,0.4370979264338278,0.277050523718099,nan
1740536462.7416587,-0.22452334366139837,-0.4040620499076646,0.5913841450100538,0.2418253420416306,nan
1740536462.745564,-0.24952729778758684,-0.6640389959417976,0.14171945336329808,-0.07395121925200455,nan
1740536462.7494695,-0.23568475738637676,-0.586995371073199,-0.5289858408964653,-0.5830054620453087,nan
1740536462.7533748,-0.26664397897041026,-0.22962991828481613,-0.7650719752608887,-0.8163012682665102,nan
1740536462.7572837,-0.25496647786167437,0.16681612695222744,-0.352629092359909,-0.39007165368800595,nan
1740536462.761189,-0.09140529743638104,0.41991176802321456,0.2579948283632694,0.4583225668508489,nan
1740536462.7650945,0.1646620856201876,0.5030444650274293,0.47486758729888695,0.978077328911513,nan
1740536462.7689998,0.3276014457244312,0.4369678210690958,0.2167045642488368,0.6595157814139311,nan
1740536462.7729053,0.3045472220611361,0.2079472982514756,-0.056422203604100975,-0.18551218297806293,nan
1740536462.776811,0.18958483706337667,-0.14420553925764124,0.05758085765451696,-0.7217599197574918,nan
1740536462.7807162,0.10910272996042297,-0.4363590573851096,0.39747165229893877,-0.47464875892936315,nan
1740536462.7846217,0.04555723136205067,-0.46543389457441586,0.4242783274749598,0.19088419995979325,nan
1740536462.788527,-0.1018510457487377,-0.2423559831817494,-0.11899142679923773,0.5247419587952662,nan
1740536462.7924325,-0.3039872078138066,-0.00996446832577814,-0.8378952798584366,0.22502391555275275,nan
1740536462.7963378,-0.3623588368985188,0.04033083682866996,-1.0415186206581173,-0.30539064958820283,nan
1740536462.8002434,-0.15084338216187307,0.012669754997130099,-0.44864610225040213,-0.5001999812532988,nan
1740536462.8041499,0.16325412360726846,0.1613869605731937,0.5054200893700386,-0.2538187077821772,nan
1740536462.8080554,0.2530364198455202,0.4979430291523265,1.073113535488175,0.0902174447779261,nan
1740536462.8119607,0.01519892424005524,0.6666907855833877,0.8793963501779891,0.24899678177553045,nan
1740536462.8158662,-0.26437979539538903,0.32267282908582945,0.20381858627575328,0.28649112432192464,nan
1740536462.8197718,-0.21139561455175815,-0.4003414220507168,-0.36779625707359276,0.3533793038550695,nan
1740536462.823677,0.191180373644699,-0.927752449574322,-0.5102383608101541,0.34226154919690444,nan
1740536462.8275826,0.5462075407957897,-0.8124732319362687,-0.36847856794203154,0.016893759999229464,nan
1740536462.831488,0.4670065403514052,-0.2003927015369593,-0.2626008365776575,-0.5358032269478524,nan
1740536462.8353934,0.001971195258726019,0.3519290149003679,-0.2742282405685392,-0.8116214530019812,nan
1740536462.8392987,-0.4263322288064261,0.4889614584794759,-0.1858841865662121,-0.4156898404086728,nan
1740536462.8432043,-0.4800086323303769,0.36995497963875495,0.1790246897347904,0.38635894185454417,nan
1740536462.8471096,-0.22498083787135983,0.3398046028007391,0.6327570772102172,0.8383112343460899,nan
1740536462.8510156,0.022389899793153863,0.4155368052333236,0.7329035999048304,0.49070982193603496,nan
1740536462.854921,0.07946366980435719,0.26585930993856116,0.2593471111566119,-0.2793385623637461,nan
1740536462.8588264,0.04122827938732681,-0.2826638707945003,-0.4590613734551584,-0.6645989232329031,nan
1740536462.862732,0.06955023673698335,-0.8762201866904603,-0.786205849888505,-0.3090992130486411,nan
1740536462.8666375,0.1578071912628977,-0.9270359781430565,-0.40685169142216027,0.33518040160722673,nan
1740536462.8705428,0.17407278103955948,-0.27582552019151607,0.31088135986752335,0.5619260651632209,nan
1740536462.8744483,0.07727454843329105,0.559582186699632,0.6520617297825997,0.1950801761872704,nan
1740536462.8783536,-0.019058989838017012,0.876269012528165,0.2852766268666131,-0.29641437971669155,nan
1740536462.8822591,-0.017682977275111002,0.486076608354535,-0.38473124535653785,-0.40878529269338243,nan
1740536462.8861644,0.016250998956193287,-0.1440478520262576,-0.6453440856383893,-0.15255452149604162,nan
1740536462.89007,-0.045716759536765635,-0.4263574705730057,-0.23863275687997984,0.08025650845507783,nan
1740536462.8939753,-0.18745406841282966,-0.23182544218833748,0.3768282006948821,0.06579657172325394,nan
1740536462.8978908,-0.236488248738461,0.09379858046872436,0.5539584373510477,-0.017609274347162016,nan
1740536462.9017963,-0.08870004965737778,0.19357204915907925,0.17408762996122534,0.08016065042814556,nan
1740536462.9057016,0.12903560587480842,0.05510566382708141,-0.2607859272979245,0.2843262108734898,nan
1740536462.9096072,0.19482526934753067,-0.09620865404786362,-0.24684243791869856,0.27743040280813097,nan
1740536462.9135125,0.06612935848535025,-0.1277102915311773,0.13208632053903657,-0.05639120374571689,nan
1740536462.917418,-0.06685745199871515,-0.10941741445545015,0.3365889396735746,-0.4221333520810955,nan
1740536462.9213235,-0.02782565865565109,-0.12445884115707925,0.04944131224709386,-0.42794547920992915,nan
1740536462.9252288,0.1176402897570847,-0.10296742331951257,-0.42646759448531946,-0.04126066370787152,nan
1740536462.9291344,0.15336671134994298,0.07077889092458682,-0.5278369272123193,0.3652967106544295,nan
1740536462.9330397,0.004259906035100518,0.33238271103213907,-0.10676840706529064,0.4189367270929471,nan
1740536462.9369452,-0.15791533850354444,0.42717723142239344,0.3931626619983197,0.1191565636541976,nan
1740536462.9408505,-0.13671521389938546,0.17693357560937753,0.4602441609886772,-0.21732182554034665,nan
1740536462.944765,0.0315519077444115,-0.2804628410377037,0.09496277046234465,-0.3109161418766308,nan
1740536462.9486704,0.12471566727147804,-0.5752935632662834,-0.23760522073747264,-0.15463037931889184,nan
1740536462.952576,0.02169488081427957,-0.44611040253904327,-0.1856788717495048,0.06176639450566866,nan
1740536462.9564812,-0.14950316043901007,0.015214863873792926,0.10380906599588485,0.16424332173261275,nan
1740536462.9603868,-0.18841719199936807,0.4521767583881184,0.22969566289663523,0.10897634294460563,nan
1740536462.9642923,-0.0737163347719038,0.5561872607073662,0.05180849368026926,-0.03182859035666232,nan
1740536462.9681976,0.046343154450359234,0.29861778221100355,-0.17853224500630768,-0.12484283689479271,nan
1740536462.972103,0.08640646055483282,-0.09768191524950075,-0.18883608556711096,-0.054379702233048624,nan
1740536462.9760084,0.12969549613344783,-0.3692642047890445,-0.031139058932257498,0.1597549763123063,nan
1740536462.979914,0.24865662276931627,-0.3997227185749369,0.04183341805070995,0.3110931953372308,nan
1740536462.9838192,0.31468852576010925,-0.25109593515686085,-0.04107903213877362,0.16888497550543247,nan
1740536462.9877248,0.12272748026503084,-0.05904293849487208,-0.07856484559049379,-0.2343497545100411,nan
1740536462.9916368,-0.2854928004858529,0.09085798959150657,0.07699844522992982,-0.5350710548787782,nan
1740536462.9955423,-0.5547715735214818,0.19806418124662242,0.24962365797457114,-0.37993722574803557,nan
1740536462.9994476,-0.3828201252212448,0.2805676153898977,0.14477309933917334,0.1415840705691343,nan
1740536463.003353,0.09036262134173699,0.3003627688620643,-0.20941087255137167,0.5157718921494183,nan
1740536463.0072584,0.3882348484841669,0.1883547978013724,-0.3991563089449888,0.3519241572601839,nan
1740536463.011164,0.23143789700089232,-0.04262997203521116,-0.10277993688552664,-0.1421048520638708,nan
1740536463.0150692,-0.13395809008315257,-0.24462973832296234,0.4561653686772709,-0.36701411735577444,nan
1740536463.0189748,-0.2364729012814405,-0.256472854202243,0.6849661243349017,-0.04278019739117277,nan
1740536463.0228803,0.04414540415641939,-0.09985480497297854,0.2757993812255735,0.42188567907135727,nan
1740536463.0267856,0.33961022987000333,0.0014283196420323352,-0.4287269669621329,0.3987711166881824,nan
1740536463.0306911,0.27031636123142716,-0.12930421434714506,-0.8017686344890087,-0.17690218602239863,nan
1740536463.0345964,-0.07023453659728275,-0.35770662505029316,-0.5935407394276134,-0.6754720633760274,nan
1740536463.0385072,-0.24802385697638732,-0.3160225984481818,-0.11310495507872592,-0.5024880043037228,nan
1740536463.0424125,-0.06822865189415081,0.17629573996519976,0.22370407363872,0.17392428896980686,nan
1740536463.046318,0.1589043776550674,0.8014582224561421,0.35704546304014734,0.6005863823462024,nan
1740536463.0502236,0.03275113238227854,0.9669945204078497,0.48576171621844455,0.33002553244562705,nan
1740536463.054129,-0.36982866235025513,0.4108977604428622,0.6225360252507505,-0.25622060237361627,nan
1740536463.0580344,-0.5335268576255456,-0.4608713006298886,0.48048570431382864,-0.43004564869930273,nan
1740536463.0619397,-0.1461493560816776,-0.9307790219299535,-0.10183695506229612,-0.0020725964921622163,nan
1740536463.0658453,0.460884534532971,-0.6819976570125398,-0.7724299183606983,0.48038195774418496,nan
1740536463.0697505,0.6630644037243949,-0.09320770904710128,-0.9199226186680866,0.43617399485612035,nan
1740536463.073656,0.2818986443847631,0.2140288103627472,-0.3599670515178086,-0.05455523412188424,nan
1740536463.0775614,-0.20478294207603887,0.060183857405456405,0.3773882635072257,-0.4175290483916318,nan
1740536463.081467,-0.25562547410962144,-0.15140597347980128,0.5766379312660788,-0.3369777135104505,nan
1740536463.0853763,0.07331425783042203,0.026562059923130703,0.11506914967940687,-0.0897891492624562,nan
1740536463.0892818,0.22888618548751508,0.5202656396861584,-0.4117158676919787,-0.06450733221040213,nan
1740536463.093187,-0.10427114784925437,0.8041965108548391,-0.3667759677998359,-0.17758403041630091,nan
1740536463.0970926,-0.5661643029954284,0.5025416592150933,0.23186899658253105,-0.01998716432562343,nan
1740536463.100998,-0.545749892908141,-0.1888437578349457,0.7700137896566553,0.46370282070278007,nan
1740536463.1049035,0.05020989631960772,-0.7209622089812169,0.7222712628291998,0.744826894445065,nan
1740536463.108809,0.6378580857990285,-0.7518492649622077,0.15387429534874394,0.34472800503691275,nan
1740536463.1127143,0.6103848447183584,-0.4065648873549895,-0.4557382250749773,-0.4548333210794462,nan
1740536463.1166198,0.019325524076831743,-0.024081223416781306,-0.7363545174997571,-0.8238937525156034,nan
1740536463.1205251,-0.5107567318089374,0.21641879221018684,-0.6665970224966613,-0.36136874830884536,nan
1740536463.1244307,-0.4851016371786138,0.3521387625651234,-0.38985695003031,0.3755950389986927,nan
1740536463.128336,-0.012828078283266065,0.4197116111807139,-0.0016974581242136222,0.5191273415429954,nan
1740536463.132245,0.4277607507520178,0.3399520996699002,0.40310364463820797,-0.04400968718396151,nan
1740536463.1361506,0.53197193016891,0.06454236027768652,0.6217545475429465,-0.5338282632403861,nan
1740536463.140056,0.3517848029284329,-0.2600822326186439,0.4780802814408822,-0.27203792053904874,nan
1740536463.1439614,0.03925707203142996,-0.3835546902430751,0.08274465962164895,0.43782751123218283,nan
1740536463.1478667,-0.358412577406651,-0.2095365881832338,-0.19440169828318224,0.681917880862735,nan
1740536463.1517723,-0.759035987771417,0.098806878271546,-0.11900121879933033,0.1084055577905146,nan
1740536463.1556776,-0.8747255011476013,0.2856986682916504,0.1126293726741752,-0.5965445876814014,nan
1740536463.159583,-0.42300643448422254,0.22895149090692565,0.10353807301179582,-0.5595018801906445,nan
1740536463.1634884,0.4476414407191705,-0.008715671114210757,-0.2275234115156404,0.17248088127738018,nan
1740536463.167394,1.116228935967976,-0.27528874618999294,-0.5071100350293467,0.6839083481557519,nan
1740536463.1712992,1.0351406210514242,-0.4072685312253324,-0.36681185138847966,0.343221607562384,nan
1740536463.1752048,0.29866097105267325,-0.27161928852542166,0.06692951196570752,-0.41509620491326393,nan
1740536463.1791115,-0.4459511258173654,0.12617761090956855,0.30799740672701315,-0.6689425575327371,nan
1740536463.1830168,-0.6681079781781171,0.5280907375017595,0.13127764520192883,-0.18088921534594604,nan
1740536463.1869223,-0.43207868985024844,0.5472267550692652,-0.12505306487644863,0.3553509959776855,nan
1740536463.1908276,-0.1674013866313894,0.06460524136613625,-0.0036429466237124838,0.2825920582270587,nan
1740536463.1947331,-0.09474650396670307,-0.5138930697671351,0.4337945092826542,-0.14903174374138337,nan
1740536463.1986387,-0.046171252794539486,-0.5768485267319093,0.6276328517945768,-0.17561375626640519,nan
1740536463.202544,0.1622513522553109,0.005317377963505796,0.22491424404009058,0.3617129628280643,nan
1740536463.2064495,0.38358040778817426,0.6227714394812883,-0.42601738457065147,0.7149723752739663,nan
1740536463.2103548,0.31551160425606306,0.5458688735334108,-0.6633925096240129,0.2165827748366724,nan
1740536463.2142603,-0.05573766200828634,-0.19371098089715322,-0.32274806233722764,-0.7323582435158361,nan
1740536463.2181656,-0.3746380566979763,-0.7507901033758793,0.07245109002371045,-1.0480178943176308,nan
1740536463.2220712,-0.32705875069103624,-0.4424752819972139,0.009796227756700079,-0.3162435910217854,nan
1740536463.2259874,0.00342458431940549,0.3663051731997638,-0.32319395491870956,0.631294703187685,nan
1740536463.229893,0.29057946382088057,0.634431495954534,-0.2848097409937395,0.7249685529726513,nan
1740536463.2337983,0.37565255583849444,-0.050206169245355654,0.3271092797163411,-0.0048190393738368545,nan
1740536463.2377038,0.3530742995641309,-0.8335953480377108,0.9108384788821765,-0.49671143362837583,nan
1740536463.241609,0.2724534311677454,-0.5646088173341745,0.7628263074257006,-0.06668942242996757,nan
1740536463.2455146,-0.008944281890973472,0.6885946033828706,-0.016385776307453588,0.6848986703295253,nan
1740536463.24942,-0.5260044279666012,1.5047507259394612,-0.602718657842401,0.6786632000767095,nan
1740536463.2533255,-0.9180638985820804,0.7380109974898894,-0.46219887520904507,-0.18576205007662025,nan
1740536463.2572308,-0.7313803226227819,-0.9612571600551997,-0.003028287260225049,-0.8861086760372415,nan
1740536463.2611363,-0.04747426654333631,-1.7070706509736877,0.007238991195497799,-0.6695129048603897,nan
1740536463.2650416,0.47413477196774273,-0.5647732615060854,-0.4808492682132575,-0.07132463399285319,nan
1740536463.2689471,0.4027347329999524,1.2081170248380435,-0.6750786998557387,-0.0758738925727055,nan
1740536463.272863,0.19239629183080842,1.5086512228391424,-0.011437259494546832,-0.5166344820570234,nan
1740536463.2767682,0.6166289489166502,-0.12198247216690727,0.9652905132897412,-0.09155708594125878,nan
1740536463.2806737,1.4820798695384576,-1.8438907680620409,1.1580592804685994,1.6613275709085404,nan
1740536463.2845793,1.4095985421931272,-1.6121224015261424,0.30530557653912693,3.0001126777445295,nan
1740536463.2884846,-0.5429474310885247,0.39736650067375284,-0.6089137994592099,1.5610852775217592,nan
1740536463.29239,-3.1347006838490556,1.9666750786720337,-0.5824448691675417,-2.447001451977964,nan
1740536463.2962954,-3.5816500453929385,1.4706740178348996,0.056222834611972576,-5.429561598408264,nan
1740536463.300201,-0.5764302394450179,-0.2097252970452131,0.04383386845324318,-3.775458889256516,nan
1740536463.3041062,3.5575314193702234,-0.8680485159631489,-0.9867511834534815,1.8418527353909893,nan
1740536463.3080118,4.605172221279329,0.17639015635432487,-1.6167296905383217,6.332755635084821,nan
1740536463.311917,0.9210087246919757,1.13852692694041,-0.1996699595886816,5.1195012133813025,nan
1740536463.3158226,-4.190696645106046,0.05621929703703111,2.710541514251137,-0.8816054268555156,nan
1740536463.319736,-5.372999380658717,-2.433823549308566,4.182886851641311,-5.851029191490519,nan
1740536463.3236415,-0.8487605208811018,-3.4126998374384376,1.824644163071004,-4.96616718867429,nan
1740536463.3275468,5.271533420690872,-1.041161916847348,-3.1497057298604654,0.6233779609345905,nan
1740536463.3314524,6.906537402237213,2.919530481258724,-6.387363311394613,5.131894953525274,nan
1740536463.3353577,2.2580461354943946,4.623981975232356,-4.486575435183289,4.2706224329402005,nan
1740536463.3392632,-4.3020956842662965,2.2590388880874146,1.3701154860751548,-0.5309603565867261,nan
1740536463.3431687,-6.798156043555329,-1.8506980945681164,6.216043873284791,-4.175653560076356,nan
1740536463.347074,-3.6942714262975023,-3.633096415850199,5.959811629192871,-3.5198783515334364,nan
1740536463.3509796,1.090567164412128,-1.5749179945699616,1.210551208974581,-0.2058090618895233,nan
1740536463.3548849,2.953001093871661,1.7946969069968843,-3.5696427035488925,1.9887181231750273,nan
1740536463.3587904,1.4963441298228852,2.7750233728077434,-4.5267574112091085,1.6123398188138574,nan
1740536463.3626957,0.11326716060172429,0.42635615906416524,-1.8262507859033197,0.535065629791002,nan
1740536463.3666081,1.2456994931941077,-2.6873542073921435,1.2042702073456018,0.8234883290907848,nan
1740536463.3705134,3.2626561606734032,-3.4391583681713023,1.794952870903962,1.8174823647190985,nan
1740536463.374419,2.6596868351060556,-1.287725788138981,0.2251600623558408,1.1259174033729464,nan
1740536463.3783245,-1.2682273144681904,1.6298550743228406,-1.1589208883338666,-1.8597977983921332,nan
1740536463.3822298,-5.088881215189681,3.0276833066754643,-0.7650934158954988,-4.5352223879023725,nan
1740536463.3861353,-4.955480478290683,2.519098595022854,0.793426163589186,-3.7635374041823386,nan
1740536463.3900406,-1.0028220801684855,1.2303992595855384,1.7995183774124879,0.3924999347391414,nan
1740536463.3939462,2.775996678717425,0.09315306057073648,1.393297885377735,4.343121574903211,nan
1740536463.3978515,2.9957102271832627,-0.8987269961082539,0.17993499979410285,4.577670688144401,nan
1740536463.401757,0.4526874400303676,-1.9137160247288432,-0.788374121982955,1.2133002818692853,nan
1740536463.4056623,-1.2198897918379255,-2.4806743028113254,-1.1307079203684807,-2.3510554968788564,nan
1740536463.4095678,0.014082174924888068,-1.9224707038289057,-1.128087673784396,-3.0636798658712014,nan
1740536463.4134793,2.365631413766921,-0.38747678364946264,-0.9753379001401902,-1.0508146292671212,nan
1740536463.4173849,2.6230082892990314,1.0515977044138147,-0.4761524629804479,1.1376172695526374,nan
1740536463.4212902,0.07615838291186003,1.5059731643742356,0.4604498880202368,1.503636050749722,nan
1740536463.4251957,-2.7210825256985713,1.2100358670111808,1.3325679015309972,0.33467082205228843,nan
1740536463.429101,-3.0382297968629377,1.0791957149102933,1.3722206367453968,-0.7931129700566948,nan
1740536463.4330065,-1.0471588299238395,1.4323910777935096,0.4075297541290539,-0.9969079024855291,nan
1740536463.4369118,0.6868720829759383,1.5004168126755049,-0.770942316075185,-0.6488841359558961,nan
1740536463.4408174,0.4241305071540432,0.37297880916184906,-1.0728738280467214,-0.3194169410692041,nan
1740536463.444723,-0.8096467436479435,-1.7360262418757857,-0.18703229873565946,0.11038629101112603,nan
1740536463.4486282,-0.7463486316658895,-3.418789086468849,1.0309588676284902,0.9753917875117811,nan
1740536463.4525337,1.198056166603279,-3.3190679341223674,1.3027205256069576,1.8603991144427539,nan
1740536463.456439,3.159318535313551,-1.3650573258286494,0.1388909093617961,1.712240413512093,nan
1740536463.4603493,2.9924552468940293,1.2096360565148023,-1.606143493851373,0.10484125841255024,nan
1740536463.4642546,0.6668404096552689,2.9074323710408336,-2.3884299549190064,-1.9221311549273,nan
1740536463.4681602,-1.8433672216465802,2.991614484584915,-1.3221583559014292,-2.664950285334957,nan
1740536463.4720654,-2.773760886987211,1.7419872158085947,0.9443338322732104,-1.4558129266447342,nan
1740536463.475971,-2.164761328179836,0.052689593438571866,2.6583889749005074,0.6169951438041259,nan
1740536463.4798763,-1.2127638297392689,-1.151191773909389,2.42650293715219,1.7872581369824414,nan
1740536463.4837818,-0.5800934837288629,-1.395507984259888,0.45479387345749855,1.3190748827480838,nan
1740536463.4876873,0.1309490120108626,-0.8975840571094191,-1.6073518148162993,0.05378063615635724,nan
1740536463.4915926,1.322501169652871,-0.3658232512676703,-2.1515657319956003,-0.6458037370693622,nan
1740536463.4954982,2.412854872618108,-0.35119863110436556,-1.0367093358333461,-0.298820809884824,nan
1740536463.4994035,2.3255975142722654,-0.676167064280437,0.444798642590679,0.39638993351755203,nan
1740536463.503309,0.8360863461896856,-0.6252533371975639,0.9965371924935359,0.5008317446822051,nan
1740536463.5072176,-0.9720768407047463,0.16245796696394102,0.5928405833613869,-0.12829378637834957,nan
1740536463.5111232,-1.7541170489728322,1.1019163662524312,0.21634726511736227,-0.7670437227963594,nan
1740536463.5150285,-1.2219329213594337,1.2233939707755728,0.43594960323533416,-0.6645946866338869,nan
1740536463.518934,-0.25055136006953305,0.3844516367984017,0.5964377846626335,0.1497651440598258,nan
1740536463.5228393,0.19218601313848419,-0.35879175343483394,-0.2909894449289984,0.8830243222491292,nan
1740536463.5267448,-0.040352835671640816,0.09026265197286777,-1.9673827504221495,0.7467906863772024,nan
1740536463.5306501,-0.4254655902726798,1.378532849084807,-2.7048472004974995,-0.27148997788877816,nan
1740536463.5345557,-0.5129104897659126,1.761131605394099,-1.0555937516712914,-1.3342278447719071,nan
1740536463.5384612,-0.25387756103143005,-0.028422199414010897,2.235500990751421,-1.4467397019182566,nan
1740536463.5423665,0.2679181737080077,-3.0496486267662006,4.474890821973855,-0.3321275867594199,nan
1740536463.546272,1.0274381370538046,-4.662468901755281,3.5021627221400746,1.2680263628018182,nan
1740536463.5501773,1.7834259272500619,-3.016412884085012,-0.09408183469111099,2.1605990244576017,nan
1740536463.554084,1.8666729003490439,1.0028057064857374,-3.4398119477573252,1.677139603480597,nan
1740536463.5579894,0.6797779154999422,4.446887238028982,-4.101363212249125,0.20649542918459549,nan
1740536463.561895,-1.430873176425251,4.933398305205633,-2.215367346391053,-1.1910421616743632,nan
1740536463.5658004,-3.0506486385468734,2.5736361308560927,0.11223567408021155,-1.7069470468069634,nan
1740536463.5697057,-2.804789255749677,-0.5482338316363188,1.2195325001308543,-1.3605024668322618,nan
1740536463.5736113,-0.7221281136919911,-2.464259094500786,1.3186027389717625,-0.7311380069623742,nan
1740536463.5775166,1.6320455582458442,-2.7283640848862305,1.535595088005121,-0.23928794164105982,nan
1740536463.581422,2.532871340570682,-2.0562645702847253,2.0553683258437823,0.20124012132359184,nan
1740536463.5853274,1.6273254258263476,-1.1495706545179514,1.805716163270977,0.8302329480917706,nan
1740536463.589233,0.07621936074439326,-0.18246640313651696,0.05159561627189353,1.4973033416803825,nan
1740536463.5931382,-0.7442131882352793,0.7989998785907594,-2.209940550246355,1.6485500541741276,nan
1740536463.5970438,-0.5388594344179896,1.4807982322322333,-2.995447090643972,0.9132528697981473,nan
1740536463.60095,-0.08604131028747164,1.520958030703219,-1.5253629265426591,-0.3788422355698492,nan
1740536463.6048553,-0.13557699765081602,0.9963741617009311,0.7329474555341939,-1.378570750533817,nan
1740536463.6087608,-0.5536982478554364,0.3431208986731024,1.5494399875210587,-1.4578990649750594,nan
1740536463.6126661,-0.6170417786233615,-0.1361315374217492,0.364566333723589,-0.7581108543844991,nan
1740536463.6165717,0.011511766681687425,-0.4895328448443564,-1.1079801332343409,-0.004749623005025274,nan
1740536463.620477,0.8040203720099786,-0.7885112386103696,-0.8505703023285179,0.19302489038947473,nan
1740536463.6243825,0.9146680641244195,-0.8273413009693648,1.1250259860986205,-0.13294534378201406,nan
1740536463.6282878,0.11389915347355832,-0.40077619781284646,2.72841765527474,-0.4100950988298824,nan
1740536463.6321933,-0.9144453731769144,0.19759012460677863,2.0866326821364365,-0.090015494148785,nan
1740536463.6360989,-1.2141366235148106,0.2957024214585847,-0.39355640185989377,0.8380933330506214,nan
1740536463.6400042,-0.46539854988282675,-0.3399410733068009,-2.47005821307919,1.7786901893724016,nan
1740536463.6439097,0.7288881930744973,-0.9888542476126055,-2.448507014807918,1.9355824158142347,nan
1740536463.6478255,1.410876376923936,-0.6155118419783364,-0.8276135754872008,0.9152746139764657,nan
1740536463.651731,1.1096981851621965,0.8809553101424199,0.5145909787052027,-0.8833058882404077,nan
1740536463.6556363,0.1801096612884848,2.2867421785735145,0.5035298949813859,-2.4241027133171063,nan
1740536463.6595418,-0.6154794187294037,2.194677411918699,-0.10405846319057488,-2.7242566810756066,nan
1740536463.6634474,-0.8270503332714251,0.4935194426094724,0.1012819761135222,-1.603814162423396,nan
1740536463.6673527,-0.6394404749326998,-1.4547129519302209,1.3111684306560807,0.154398315652031,nan
1740536463.6712582,-0.5190027520344833,-2.192419127005402,2.1638501217430384,1.446891363864655,nan
1740536463.6751635,-0.5950615750518958,-1.566597572012177,1.317968948272177,1.7459686110537491,nan
1740536463.679069,-0.4745579620591119,-0.6185317093137054,-0.8987239359660797,1.397128512088379,nan
1740536463.6829743,0.25428670142831683,-0.21146390929588546,-2.6599553198179144,1.0436722206523055,nan
1740536463.6868799,1.3527034039324908,-0.08311753979377653,-2.455410411654879,0.8340669603628454,nan
1740536463.6907852,1.9114045812170892,0.584135911727185,-0.5689260302778841,0.3178671869369345,nan
1740536463.6946998,1.179160560828717,1.8489781174723132,1.3166004860546086,-0.8403154002644767,nan
1740536463.698605,-0.5341749750642645,2.620146438397915,1.8396689599041065,-2.1708871446114344,nan
1740536463.7025106,-1.9126860538263943,1.7504210886946812,1.110417059274063,-2.6158512243334493,nan
1740536463.706416,-1.7871059981346098,-0.5821797861257506,0.2013795062571776,-1.5381488406637087,nan
1740536463.7103214,-0.3124755076425048,-2.77387505392569,-0.2041319346922051,0.522994317065586,nan
1740536463.7142267,1.0931271998341467,-3.160086649742602,-0.38075439727061877,2.196058736822774,nan
1740536463.7181323,1.1176887177457995,-1.4944097775649399,-0.8260691373915326,2.426146731840823,nan
1740536463.7220376,-0.109853436347227,0.8713107855278417,-1.3112991243889833,1.3065021515957809,nan
1740536463.725943,-1.1371536653077507,2.1904192311027635,-1.0123164589875224,-0.16198758280472242,nan
1740536463.7298486,-0.7113880666174941,1.740386397055551,0.3774283946695142,-1.0283628035860586,nan
1740536463.733754,0.852551491724733,0.2538934841886537,1.941173540110675,-1.0785704317136129,nan
1740536463.7376595,1.9283565837235639,-0.8596065666532934,2.2461837635839346,-0.7048869568557244,nan
1740536463.7415826,1.2512497879663034,-0.7400785003472817,0.821381074209736,-0.3154795573597202,nan
1740536463.745488,-0.716163651352757,0.2577521533988448,-1.2269055951101708,0.0028405978184360137,nan
1740536463.7493935,-2.1707457223882134,0.9581880714415923,-2.2231321147666088,0.31696664984650136,nan
1740536463.7532988,-1.7430624259114569,0.47900801695483997,-1.5306667733974546,0.5462496405314994,nan
1740536463.7572043,0.1481391168923537,-0.8802409909333884,-0.06044611920196193,0.46968590527640625,nan
1740536463.7611096,1.7279140803352637,-1.8189296423796097,0.805864137016312,0.02336035622975733,nan
1740536463.7650151,1.6098686857286122,-1.2371141363510436,0.6369816762615075,-0.510522201778614,nan
1740536463.7689204,0.07614039339801443,0.6092488671381241,0.18158922709453376,-0.6940423938946477,nan
1740536463.772826,-1.3320839258851325,2.1842627771670067,0.2900048884270806,-0.3342370803709687,nan
1740536463.7767315,-1.3818219563613767,2.0458304265984872,0.8698570695464981,0.316372667863627,nan
1740536463.7806368,-0.2413369097123043,0.23185663999002618,1.0615055742131974,0.7707198544402831,nan
1740536463.7845423,0.9038829846713992,-1.7430976034110948,0.3249950482432658,0.7326379294372116,nan
1740536463.7884533,1.1355159392563483,-2.2992263737589353,-0.8934970049930425,0.3318693852118374,nan
1740536463.7923586,0.5819043451259932,-1.1783876193895861,-1.6467982186735743,-0.054015497295985884,nan
1740536463.7962642,-0.0042658608365464395,0.5386562529037793,-1.457382192911549,-0.21101831297192977,nan
1740536463.8001695,-0.21117027541483224,1.6124582580187254,-0.6328249885738533,-0.3029347502776184,nan
1740536463.804075,-0.31956707234601756,1.6529367216022475,0.28128094750815286,-0.6256205155253464,nan
1740536463.8079805,-0.7148079364923277,1.0278265038129712,1.0534316093438465,-1.1241935623778823,nan
1740536463.8118858,-1.1738841103252045,0.1445970164123407,1.6267813010528063,-1.2365877466432824,nan
1740536463.8157914,-0.9789933649198291,-0.8382405627523168,1.6801716729914646,-0.3878835774220343,nan
1740536463.8196967,0.19717514715358128,-1.6620168936188124,0.7658508996955572,1.2474368218964391,nan
1740536463.8236022,1.6661965172468678,-1.7766247337629422,-0.9417103926451482,2.561110610359572,nan
1740536463.8275075,2.1888388303304414,-0.8499987152014229,-2.312391922587626,2.3314188219946006,nan
1740536463.831413,1.1626430644508117,0.6220486197308434,-2.1095358785526344,0.4250040575299795,nan
1740536463.8353226,-0.6982343126663957,1.5773642812752535,-0.3240730068502624,-1.8391981994148099,nan
1740536463.839228,-1.9546627423906233,1.4284170682390893,1.5644901133847533,-2.7193849761404256,nan
1740536463.8431334,-1.745504979063031,0.6532815707744161,1.9408955565348138,-1.617189873937253,nan
1740536463.847039,-0.4966738828014234,0.1319482947093986,0.6843663176772719,0.3571898140446957,nan
1740536463.8509443,0.6270888291088608,0.025840074766224404,-0.7421410652073869,1.4491435369266925,nan
1740536463.8548498,0.8783473077375642,-0.3134854295828628,-0.9074618372663453,0.9247439155847328,nan
1740536463.858755,0.4865893561701936,-1.2155314351982134,0.058835277980001176,-0.3328368913857233,nan
1740536463.8626606,0.16447743218025349,-1.8671953372112986,0.7462923472487563,-0.8522086828665109,nan
1740536463.866566,0.24946561307291815,-1.1156232934275183,0.18943473084348966,-0.09525279533947947,nan
1740536463.8704715,0.4407488053199226,0.8900507984353853,-0.9940294786155043,1.1016996794797556,nan
1740536463.874377,0.29272177800758886,2.375486392869462,-1.3620799914505486,1.503057030359605,nan
1740536463.8782823,-0.22593756526993208,1.722506647969612,-0.3599620618152166,0.7147547307270062,nan
1740536463.8821912,-0.740520964467771,-0.5407831064860795,1.050192219985772,-0.5802310836860629,nan
1740536463.8860967,-0.9109571904524266,-2.0489193109967845,1.5284926480769756,-1.4333441402264655,nan
1740536463.8900023,-0.7030646266680894,-1.1638384507050281,0.8378846332940824,-1.459603145072253,nan
1740536463.8939075,-0.2424956275795042,1.0748069466523127,-0.08214661001026377,-0.8884178646195304,nan
1740536463.897813,0.3926542619242396,2.028682532423835,-0.4012303714952205,-0.08360855259847005,nan
1740536463.9017184,1.0742953445042762,0.49820176386863224,-0.3478965563723598,0.7246110824051553,nan
1740536463.905624,1.4188623903385937,-1.7982019275535004,-0.6536056338167623,1.290652637440068,nan
1740536463.9095292,0.962553824285561,-2.146819600607933,-1.3057335499308511,1.2687489569927763,nan
1740536463.9134347,-0.27724612793313286,-0.017762816514340994,-1.3372838508089206,0.5334188866563627,nan
1740536463.91734,-1.5170547126757497,2.2261142525946402,-0.05271998055799996,-0.47758419290463067,nan
1740536463.9212456,-1.7456921049400798,1.995725491293437,1.8177461968694029,-1.0017205740182504,nan
1740536463.925151,-0.7007537487538432,-0.540459809293374,2.6015960216192773,-0.6816136101730357,nan
1740536463.9290576,0.7599458827757283,-2.617478026149018,1.427538572283136,0.03231194820987229,nan
1740536463.9329631,1.409843371900892,-1.981832645218954,-0.7443582083521997,0.3566452868050662,nan
1740536463.9368684,0.821328564888529,0.6491120727026946,-2.046799806600925,0.039804297160092206,nan
1740536463.940774,-0.2719502335223265,2.5256603219717744,-1.5907287483549661,-0.3915262852753436,nan
1740536463.9446795,-0.7886238151421461,1.9594465366384055,-0.2287325393863804,-0.3043679654077214,nan
1740536463.9485848,-0.384093759337806,-0.04013057235783245,0.5636047607065339,0.26008154730227107,nan
1740536463.9524903,0.33911534159704804,-1.2663352459667447,0.3104762018989309,0.6429319088820007,nan
1740536463.9563956,0.6035439505857298,-0.9029386970012592,-0.16749971255408233,0.3796713701952246,nan
1740536463.9603012,0.2540783636718428,-0.11007305057579082,0.044177461993766765,-0.2363150296051868,nan
1740536463.9642065,-0.25870650040183063,-0.19553226680527952,0.7971045990096909,-0.5183470375359917,nan
1740536463.968112,-0.5043947374413374,-0.8852611313642634,1.1112724649560273,-0.2044584630908029,nan
1740536463.9720173,-0.46209712524770885,-0.8437866361931734,0.40757656596735176,0.2812909254494013,nan
1740536463.9759235,-0.3006358956882785,0.3847049786524944,-0.7710580759287825,0.4014422090612807,nan
1740536463.979829,-0.029024980619601008,1.610315642160331,-1.345260711308032,0.1437926023318105,nan
1740536463.9837344,0.4185918618861343,1.4203021176852473,-0.8367919662323959,-0.07328869351649904,nan
1740536463.98764,0.8307186344743951,-0.0171793397017347,0.2211063432687825,-0.03995633593639959,nan
1740536463.9915452,0.7432655574611212,-1.0696674160199136,0.9201779644002899,-0.04161919255526601,nan
1740536463.9954507,-0.009131280574826832,-0.5784554651702041,0.830677291223354,-0.38891612972773243,nan
1740536463.999356,-0.8917395101055756,0.7415014876440644,0.20780091434220216,-0.8309652923024267,nan
1740536464.0032616,-1.0753273929093814,1.1413450017936926,-0.42863627842901975,-0.7088407167005678,nan
1740536464.007167,-0.329593198466054,-0.0908988693349478,-0.7203099900885104,0.22850181953672172,nan
1740536464.0110724,0.637547522565506,-1.775624690799509,-0.5570413151035787,1.3364115016327753,nan
1740536464.014978,0.8926942732041869,-2.152713501788614,-0.021776006829476564,1.6042653167577896,nan
1740536464.0188832,0.2881416364152477,-0.7814960256906557,0.5865278911487595,0.6921560602915202,nan
1740536464.0227983,-0.405395218980615,1.0995907114483696,0.8099207294305428,-0.6791242392316528,nan
1740536464.0267038,-0.41969797777960544,1.9806022616561254,0.3750895953485616,-1.4291150545558169,nan
1740536464.0306091,0.12221487888957142,1.5288837757449885,-0.42867205619091386,-1.1345821235546836,nan
1740536464.0345147,0.40919851517683586,0.5670721327442804,-0.869701567312473,-0.29074751902336476,nan
1740536464.03842,-0.019958685817035315,-0.07785344562688358,-0.4609672157848751,0.3408187825991599,nan
1740536464.0423255,-0.6761781422490346,-0.35777512167755077,0.46334854566752554,0.470838219760245,nan
1740536464.0462308,-0.6979971276243324,-0.6641980201524548,0.9941612362311548,0.344624996720642,nan
1740536464.0501363,0.0890663282135294,-1.0673276815115185,0.5567633634080121,0.2585293352842532,nan
1740536464.0540419,0.9170370053115572,-1.1778175290553416,-0.4760513253218652,0.22686930567407698,nan
1740536464.0579472,0.9363399534727473,-0.7010248152681545,-1.1535018274420752,0.13084915337859068,nan
1740536464.0618527,0.16655251932720597,0.13058890777204582,-0.901271520683638,-0.003691812240996051,nan
1740536464.065758,-0.5725128325106915,0.788749185102645,-0.0272585902711918,-0.041673855580129385,nan
1740536464.0696719,-0.6197547061864528,0.9838005751912875,0.7054297806458701,0.003179997054718848,nan
1740536464.0735772,-0.16026526751278944,0.8327047944332071,0.866703369427588,-0.07080987010904488,nan
1740536464.0774827,0.1233122648134824,0.5622508380394942,0.6239312356422628,-0.3550032022310703,nan
1740536464.0813882,-0.07378819775628873,0.23226448390447693,0.323265054556111,-0.6028606377056493,nan
1740536464.0852935,-0.3616170291341728,-0.18447197536523152,0.03596108680842132,-0.4504766673646025,nan
1740536464.089199,-0.2201456733495556,-0.5860775873529762,-0.36475192748998997,0.12449038502081064,nan
1740536464.0931044,0.31845133012572663,-0.7638386012386005,-0.8042710407119643,0.6820465212659231,nan
1740536464.09701,0.7103386380697567,-0.6357592632614661,-0.9181349906013846,0.742322797323313,nan
1740536464.1009152,0.5589330022440885,-0.34080942626333216,-0.46002603754475946,0.2890071728243363,nan
1740536464.1048207,0.051437816487253894,-0.05842991975166353,0.3082496469897038,-0.22779851260873363,nan
1740536464.108726,-0.3198836677247232,0.176381438078848,0.7878609471470146,-0.38279290549805955,nan
1740536464.1126316,-0.33611459508946284,0.4027641010158692,0.6351233874982755,-0.1859165951996626,nan
1740536464.1165438,-0.2083417121303478,0.5504515941573054,0.10525783404886463,0.02633234216714735,nan
1740536464.120449,-0.19949441024918488,0.4685274582502418,-0.24163163163139012,0.021642513995380995,nan
1740536464.1243546,-0.26950512775473656,0.1654277441762991,-0.12861118759532947,-0.10962961797770557,nan
1740536464.12826,-0.19102142298327657,-0.105910452684789,0.20251440662082695,-0.15167818602114422,nan
1740536464.1321654,0.08388397818591221,-0.11786800554956302,0.31203854175506396,-0.057002143536156145,nan
1740536464.1360707,0.33306686633579274,0.023542254079166467,0.0318434681660898,0.039066892192980415,nan
1740536464.1399763,0.356527520855387,-0.018030563424286824,-0.40762230709903224,0.043959129652323924,nan
1740536464.1438818,0.2264915416889907,-0.3563955815846008,-0.6414448833386063,0.03256087938326615,nan
1740536464.147787,0.15030397564977144,-0.6555782712105721,-0.4889799015428185,0.11229382755516606,nan
1740536464.1516926,0.15450596490844634,-0.4863485272240382,-0.049002632675039876,0.24127037696210107,nan
1740536464.155598,0.04924739101389184,0.11909635749515199,0.4114910489395927,0.2612589324858307,nan
1740536464.1595035,-0.2634685176884477,0.6182209275542787,0.6225125694760331,0.0976173096386418,nan
1740536464.163415,-0.5684840883956244,0.5404589097809255,0.4563190466532182,-0.1446570885493269,nan
1740536464.1673205,-0.5411372084283849,0.03214062355688651,0.02797023005641389,-0.3034689270950607,nan
1740536464.1712258,-0.14495191555999287,-0.3029139541963874,-0.3383994123445957,-0.3216254728643455,nan
1740536464.1751313,0.289697539033531,-0.09740525666964159,-0.34535886798321724,-0.24585337905557686,nan
1740536464.1790366,0.42442494878942166,0.3697326428811827,-0.009319846625603454,-0.11231108508047957,nan
1740536464.1829422,0.267756536437128,0.5208614714479051,0.3119657037484039,0.08326876674040284,nan
1740536464.1868474,0.0959542625714254,0.14665757540972274,0.25876195678164554,0.29390606290843535,nan
1740536464.190753,0.07443540646459275,-0.39648397738620955,-0.1419298512532649,0.3860133289958743,nan
1740536464.1946583,0.0857392360074677,-0.6369707105767234,-0.48192009733819474,0.2693009915900051,nan
1740536464.1985638,-0.03491666895445206,-0.4894153811286911,-0.40609161919371695,0.034269304395783656,nan
1740536464.2024693,-0.21495494902733622,-0.22492426703134932,-0.0011159862664804454,-0.12229264538728246,nan
1740536464.2063746,-0.22595657136054878,-0.04724204384377283,0.3127597256808797,-0.1273549174750633,nan
1740536464.210285,-0.025989228203948545,0.12301795191530678,0.26443413433417223,-0.11469362495850594,nan
1740536464.2141905,0.12834627634530177,0.40639715539183724,0.019498603248157557,-0.22015406950320554,nan
1740536464.218096,-0.0008302196293152912,0.6617453430979511,-0.06029705174245316,-0.3459740254934399,nan
1740536464.2220013,-0.2843433978239799,0.5883659394274287,0.12455234148699548,-0.24099407463750075,nan
1740536464.2259068,-0.3356321146190468,0.12449230695278471,0.3024627889190102,0.1526316280204998,nan
1740536464.2298121,0.010794638812450581,-0.3940803950323618,0.19166875066239622,0.5290105199704916,nan
1740536464.2337177,0.45019449234998976,-0.5580242819704315,-0.13671627265047992,0.5051397297264597,nan
1740536464.237623,0.5351935337311273,-0.31308433597112884,-0.3504469278839876,0.07178912661572737,nan
1740536464.2415285,0.20153835683978005,0.017596256372652674,-0.2725882093547346,-0.3468025748902067,nan
1740536464.2454338,-0.16109597770294376,0.11569349529719396,-0.08237849623927233,-0.34622526670648446,nan
1740536464.2493393,-0.19162308931937302,-0.02433038980643079,-0.04874933007298707,0.003233798184091638,nan
1740536464.2532449,0.006750490317905513,-0.1860103186181169,-0.15563894892548638,0.24747759224373228,nan
1740536464.2571533,0.027852910234585658,-0.21662615195805543,-0.12144653300429525,0.0889131527492621,nan
1740536464.2610588,-0.2805527314618278,-0.11921085081518944,0.19837932983149326,-0.2668734026390234,nan
1740536464.2649643,-0.5744162042662695,0.08308403442318552,0.5491465058012788,-0.3697479609354018,nan
1740536464.2688696,-0.4115705783366449,0.40384832649842967,0.5255549624088398,-0.06787124094036306,nan
1740536464.2727752,0.18628387857821377,0.7368406612937968,0.06137056850883194,0.319987205103651,nan
1740536464.2766805,0.7014870164569371,0.7668282946978318,-0.43587620971647134,0.3909639120179063,nan
1740536464.280586,0.6723037110486703,0.23282519759032294,-0.4970074505427738,0.116895119011062,nan
1740536464.2844913,0.1814207884454599,-0.6685627940478098,-0.09449087797998026,-0.16568735853164424,nan
1740536464.2883968,-0.2739279344865835,-1.2816813589008889,0.32927786499184114,-0.17760855185970031,nan
1740536464.2923021,-0.33965995184691405,-1.0548878705441018,0.3301781344517343,0.0063048441290418054,nan
1740536464.2962077,-0.1275223379768908,-0.12528842771816917,-0.09354661896257324,0.1125762033486576,nan
1740536464.3001132,0.018001197834271367,0.7528155143327325,-0.5312344841085225,0.02253001471012277,nan
1740536464.3040202,-0.04771738802118231,0.9221355025127049,-0.573967943444446,-0.12840746932923475,nan
1740536464.3079255,-0.1653130286113715,0.4292643562794246,-0.16279511385220002,-0.1723817711378911,nan
1740536464.311831,-0.14612039164416915,-0.11620851003248607,0.41589265239333084,-0.1078942328342603,nan
1740536464.3157363,-0.01329340587868143,-0.2280699918474035,0.7833201418573253,-0.028626036907151216,nan
1740536464.3196418,0.08320014882816809,0.007816811643128257,0.7095528217470927,0.05127636937943975,nan
1740536464.3235471,0.09907645065021621,0.16415953593749819,0.22165809967819453,0.18323482282291753,nan
1740536464.3274527,0.128968411957294,0.019418341809745724,-0.40461217297913865,0.3131091669273326,nan
1740536464.3313582,0.21692607545004888,-0.23783965346541278,-0.7721835330617293,0.26211846839615977,nan
1740536464.3352635,0.24858983194935466,-0.3103831316249168,-0.6184170527156743,-0.03563792901804526,nan
1740536464.339169,0.10211951796211811,-0.15538650871155807,-0.057583617976756006,-0.35296908466195714,nan
1740536464.3430743,-0.15257765484187719,0.022744519743582634,0.45152869345761626,-0.36682679468316565,nan
1740536464.3469799,-0.3053402749573606,0.06149255123249472,0.48448182764980396,-0.058770373095604414,nan
1740536464.3508854,-0.260286550070022,0.006754033935915349,0.05715052582702612,0.20352468424290035,nan
1740536464.354791,-0.14608869854412151,-0.008852875661428065,-0.3782674546040329,0.0887198589951719,nan
1740536464.3586962,-0.11689229962980066,0.051884769445413245,-0.3889925342947932,-0.2513897193028689,nan
1740536464.3626018,-0.11361076671035503,0.13107979121136604,0.0009613403718137351,-0.30915678122564877,nan
1740536464.366507,0.06058121270634055,0.19073797943058893,0.37081079927613014,0.15247343516094689,nan
1740536464.3704126,0.4151868001459857,0.22873967773180148,0.3839107773062874,0.7205799691435008,nan
1740536464.374318,0.6402803049673955,0.19309666005627776,0.13125621464506726,0.7280059313078177,nan
1740536464.3782234,0.41122096527452573,-0.0032734016797264917,-0.04384798348164114,0.028133041679073552,nan
1740536464.382129,-0.19246944658455523,-0.31684976913736856,0.007304700456515193,-0.763683784161952,nan
1740536464.3860343,-0.6833151601312223,-0.5027811285992587,0.08030353804390834,-0.8979667399240161,nan
1740536464.3899398,-0.6429685917975393,-0.33817558883934656,-0.07524367643707752,-0.2990049872694112,nan
1740536464.393845,-0.15675789313341343,0.07211150923788502,-0.39537797752719367,0.3748264223241182,nan
1740536464.3977604,0.29464016035828505,0.3317302957474055,-0.554371707326295,0.48320415715327275,nan
1740536464.4016657,0.35720194269883004,0.18580791795533483,-0.35720617860157117,0.08963621940750163,nan
1740536464.4055712,0.1354818466348159,-0.14158912318967337,0.0342722111687124,-0.1963620180654485,nan
1740536464.4094765,-0.016908061620424433,-0.17433668540182343,0.3197381357550829,0.012548979755982426,nan
1740536464.413382,0.05321010091840451,0.2264293117498868,0.41698696711024746,0.43379661542479003,nan
1740536464.4172873,0.16014989104980729,0.6237115316085242,0.4792810387454445,0.4901199651335278,nan
1740536464.421193,0.07445369443646087,0.47353632939142737,0.5678603229392949,0.015940964138774383,nan
1740536464.4250982,-0.1628926324517361,-0.207006715859541,0.4647717863332562,-0.5514783098282974,nan
1740536464.4290037,-0.30097976973964297,-0.787032681533095,-0.051809128229484164,-0.6806865155872284,nan
1740536464.4329093,-0.2016255746645604,-0.7014622319545974,-0.7871953465278719,-0.3153210305518182,nan
1740536464.4368145,0.00727836419647955,-0.08568530153386027,-1.1603105049147264,0.13951113492154057,nan
1740536464.44072,0.12250753763293064,0.39292447391568935,-0.7726672960708042,0.3159834948838325,nan
1740536464.4446342,0.11663850582551158,0.3134522740573485,0.10254321850811873,0.23369958946053768,nan
1740536464.4485397,0.11520476016941607,-0.041183612122057865,0.7300472700736044,0.14278302765144077,nan
1740536464.452445,0.16340258302502067,-0.08953201144997869,0.6552882272606481,0.15444276227897183,nan
1740536464.4563506,0.1363420739602453,0.29081875379727246,0.15962241759753135,0.148645761860622,nan
1740536464.4602559,-0.06415486875499954,0.5907393359076379,-0.10106796219102314,0.014127108163629975,nan
1740536464.4641614,-0.3023408661071861,0.2982375548452807,0.1350660223489299,-0.15936908239770914,nan
1740536464.4680667,-0.31312270844009477,-0.4375281702915319,0.45255194818310346,-0.20042740275640963,nan
1740536464.4719722,-0.02977072120939724,-0.9167425134508721,0.29011265615689324,-0.09826472395832567,nan
1740536464.4758778,0.2828661047203376,-0.6510802707036211,-0.3440957068663802,-0.020688962653944758,nan
1740536464.479783,0.29869153724271286,0.11087612668704235,-0.8291411744671647,-0.08375433324948021,nan
1740536464.4836886,0.006836605858075406,0.6766751849378393,-0.6302567869557406,-0.18990772290344649,nan
1740536464.487594,-0.2628662785709004,0.6393387674172833,0.06716091075974416,-0.15170427305937043,nan
1740536464.491506,-0.21284971541423997,0.20959384764816102,0.5358857587359526,0.06690537666319514,nan
1740536464.4954114,0.0859081814979538,-0.140955482422174,0.3127877067689328,0.3043373599047032,nan
1740536464.499317,0.28784366697183916,-0.2127439445795609,-0.27876597177640994,0.3904224697251627,nan
1740536464.5032225,0.17571022381703355,-0.1703204961482715,-0.4873835173924059,0.30927201016369316,nan
1740536464.5071278,-0.10644852927264994,-0.19965674301143901,0.020733664216031684,0.14501094854508992,nan
1740536464.5110333,-0.24601643769578144,-0.24495807141843168,0.7671175370442544,-0.0634429813433214,nan
