timestamps,TP9,AF7,AF8,TP10,Right AUX
1740792685.6407647,-0.02371414843910973,0.0611187719307057,0.4537308923445115,-0.25375350640863215,nan
1740792685.6446705,0.36192401089272475,0.2768084049678071,0.3837949342562132,0.12940896860745432,nan
1740792685.6485763,0.3964446666054261,0.5218928971034433,0.0582302808020965,0.5165410060514155,nan
1740792685.652482,0.04159576024292355,0.46554619646954626,-0.2594378524192481,0.5472534110367189,nan
1740792685.656388,-0.3280854412399699,0.01665248498440969,-0.3205713721535465,0.1942506363386033,nan
1740792685.6602938,-0.29990232355616564,-0.4907513433048326,-0.11492236679319436,-0.17753668515886975,nan
1740792685.6641996,0.11695994286581307,-0.6138944678923687,0.13172617621815133,-0.23618341554378208,nan
1740792685.6681054,0.4830922082655351,-0.27535042549327204,0.17524513247084017,-0.06366502022008919,nan
1740792685.6720111,0.4067295250430148,0.1570263873731949,-0.022228670793948795,-0.0038844470692133933,nan
1740792685.675917,-0.03288429391157902,0.28005571075170016,-0.26131787991473865,-0.1805492692635812,nan
1740792685.679823,-0.39726915397367984,0.07990662010235784,-0.28810151880454987,-0.3237618229352885,nan
1740792685.6837287,-0.38304725795086364,-0.10636578902227206,-0.02839372424415781,-0.13910556685487616,nan
1740792685.6876383,-0.11213682327984423,-0.016721680899120055,0.3291921809547627,0.26739028096226364,nan
1740792685.6915443,0.08533157646921583,0.2359054724968097,0.48125785521500253,0.4780850983196186,nan
1740792685.69545,0.0759104922584539,0.32118409156116867,0.27448411958966146,0.2660825615968258,nan
1740792685.6993558,0.013693112588383757,0.08951206439906059,-0.1419962948066931,-0.13127031369361128,nan
1740792685.7032616,0.06245371124533892,-0.2597773631336761,-0.42950877329111187,-0.3115323487349512,nan
1740792685.7071674,0.16078652552583003,-0.4059015456537596,-0.3576161338398888,-0.1818089488363151,nan
1740792685.7110732,0.13522911261397827,-0.23948289500379116,-0.01689262493992537,-0.005131304721112968,nan
1740792685.7149792,-0.0286570935958276,0.06316721560996102,0.2658009843421322,-0.00027319950593470186,nan
1740792685.718885,-0.1501722469979982,0.25260653050247517,0.2395562877328354,-0.0602087804702234,nan
1740792685.7227907,-0.09979926618947935,0.23166031449296948,-0.03516513236932139,0.039143363184336685,nan
1740792685.7266965,0.024832114429302526,0.0783516132109329,-0.26206299781594,0.2588084399623264,nan
1740792685.7306023,0.04543538461836397,-0.07841782911774554,-0.21189323639061355,0.3033369069957338,nan
1740792685.7345119,-0.035162338388195324,-0.15301658576985444,0.06074355635799655,0.03044389320900878,nan
1740792685.7384176,-0.03719784000436411,-0.11127126466438679,0.2950518801274798,-0.3012314909723251,nan
1740792685.7423236,0.11341092440326755,0.029420195948353222,0.2889160071542587,-0.32180215545438806,nan
1740792685.7462294,0.2238646123194402,0.17457840109397538,0.06984965282267526,-0.024632937355798957,nan
1740792685.7501352,0.062352687144430256,0.18168279914143792,-0.17070435545302012,0.20924937460767223,nan
1740792685.754041,-0.29232301543980904,-0.010316439039219704,-0.2637234909377071,0.09674414108667626,nan
1740792685.7579467,-0.46472995423215446,-0.2697920337761868,-0.17289571480952662,-0.17866942758467821,nan
1740792685.7618525,-0.20840583321295333,-0.3479130107817237,0.02588788817299295,-0.21133971074544933,nan
1740792685.7657585,0.26480235516944717,-0.1193542084854464,0.20826597702425909,0.07888373068824621,nan
1740792685.7696643,0.49067607681510267,0.2560628124326979,0.24641683461751626,0.3248003089715281,nan
1740792685.77357,0.27853899078622124,0.45423972948711544,0.06979698438918545,0.19681921077431072,nan
1740792685.7774758,-0.07888472662067937,0.29485732349576305,-0.24472392991978487,-0.13903744607619423,nan
1740792685.7813852,-0.17539007168593548,-0.07978824794989842,-0.4574565041298887,-0.21811586480284145,nan
1740792685.785291,0.015304495827150872,-0.3462216314245236,-0.3297848542224545,0.09768381573651944,nan
1740792685.789197,0.13685529139749983,-0.31148279451451993,0.12724292409834131,0.38830320491816905,nan
1740792685.7931027,-0.06447895985026433,-0.07143572755602794,0.5860277685142573,0.18480539786503963,nan
1740792685.7970085,-0.3874998070061352,0.12702347250999207,0.6568968897376851,-0.3988797353562037,nan
1740792685.8009143,-0.411545126645118,0.1442305800978556,0.2550738401532372,-0.7341243300696643,nan
1740792685.80482,-0.03072710969545116,0.04949632572741921,-0.29964687647981475,-0.40822273898435324,nan
1740792685.8087258,0.3844518940350257,-0.008530726671411859,-0.5779021726173569,0.2692157543672054,nan
1740792685.8126318,0.4086859987777819,0.016249906590083657,-0.43393297472954123,0.6175628366331151,nan
1740792685.8165376,0.055590167674057105,0.04001475429674928,-0.09234739949993706,0.37145884559438647,nan
1740792685.8204434,-0.24965876588203195,-0.016225267926870235,0.13204715587515523,-0.05421839867676761,nan
1740792685.8243492,-0.169571719193169,-0.1058321081781904,0.1441889103409677,-0.12015842041805098,nan
1740792685.8282585,0.17875768662371105,-0.09813604929866263,0.08043168283810279,0.17402325274970162,nan
1740792685.8321643,0.39447415403689423,0.05969699497964249,0.07410744652462595,0.3334258491888763,nan
1740792685.83607,0.24810887620760597,0.24354931650389489,0.10052148794735892,0.025978407480683204,nan
1740792685.8399758,-0.1209378867707669,0.24407629757941557,0.07365512386787,-0.4889793247224354,nan
1740792685.8438816,-0.42352640099187117,-0.018458521178291235,0.015485114249504592,-0.6774371618012096,nan
1740792685.8477876,-0.5124667135654952,-0.36837862060941157,0.035837922675631746,-0.36365228974892694,nan
1740792685.8516934,-0.4099080624096101,-0.4921171193632511,0.14402373377019964,0.10557381944455978,nan
1740792685.8555992,-0.15429219721368673,-0.22523627155328158,0.17208198418811416,0.3163209979966764,nan
1740792685.859505,0.23371134292875165,0.25700282609636566,-0.037894066863731105,0.24874750023864423,nan
1740792685.8634107,0.6238851675894846,0.5598301202622867,-0.39162872254498926,0.1923596767990822,nan
1740792685.8673165,0.7542073784083969,0.4251780141530913,-0.572502041688028,0.3001739736820713,nan
1740792685.8712225,0.4598640986768898,-0.01171818376746433,-0.3605471917387376,0.39153510058713065,nan
1740792685.8751314,-0.09511337155904016,-0.34218741826949073,0.11016210471867191,0.22426750285987573,nan
1740792685.8790371,-0.5205676171331979,-0.2879970492885636,0.4655341299909807,-0.16696888014764255,nan
1740792685.882943,-0.575245522479802,0.019009759760419916,0.46476194393865444,-0.5054069626196507,nan
1740792685.8868487,-0.3779018856258632,0.18872595571316464,0.22004097610983359,-0.587439952958337,nan
1740792685.8907547,-0.19759027929887954,0.009131948403991032,0.030814337352058817,-0.44468803126194967,nan
1740792685.8946605,-0.10089383630198154,-0.30651809385544704,0.042243740574485496,-0.19613055911765395,nan
1740792685.8985662,0.07830865633448143,-0.3489990969544329,0.11628277367996931,0.12008626464230916,nan
1740792685.902472,0.41244915093474277,0.01916832845999004,0.031011128140703743,0.47275892701718575,nan
1740792685.9063778,0.6591789388558911,0.47784202522884517,-0.2499467509727176,0.6849572315886115,nan
1740792685.9102838,0.4949351978648817,0.5672106445631419,-0.5364323662675148,0.5307633050886964,nan
1740792685.9141896,-0.05339290498571919,0.1720359440898597,-0.6040618259405561,0.03816502700970691,nan
1740792685.9180954,-0.5442326332443878,-0.3538141390352311,-0.38099543861492247,-0.4234011656885859,nan
1740792685.9220042,-0.5639233852827757,-0.549457456784688,0.03930486112411304,-0.4838470625922375,nan
1740792685.92591,-0.17152303241593433,-0.29328339571502005,0.49514321644270864,-0.17866528580385177,nan
1740792685.9298158,0.19008020656692662,0.13078432124060163,0.8192915122962253,0.0968219030316438,nan
1740792685.9337215,0.20733437829104626,0.363420633585434,0.8532630276314394,0.06133086290070631,nan
1740792685.9376273,0.010612596125653134,0.29667001442954705,0.5061186942141045,-0.13407121306358666,nan
1740792685.9415333,-0.06494483688528072,0.07547126523986246,-0.13361188596949203,-0.14517279846384099,nan
1740792685.945439,0.07189218253429557,-0.12944565698924324,-0.7683019106569392,0.08818913136232868,nan
1740792685.9493449,0.18881055251788612,-0.2572295014175853,-1.0484024156163323,0.2624384190073165,nan
1740792685.9532506,0.08506035897991945,-0.2880480528595511,-0.8181897192482704,0.13520228980863253,nan
1740792685.9571564,-0.12324134275677447,-0.16440848275604214,-0.22783064348012555,-0.12312742797844117,nan
1740792685.9610624,-0.17222388002299907,0.12150767743084892,0.3891932965123203,-0.14520840850727643,nan
1740792685.9649682,-0.026365307844928736,0.3980394473112328,0.74646360672613,0.12263659924853701,nan
1740792685.9688768,0.07108688768899088,0.39830866107597407,0.743904452961826,0.3135720175411509,nan
1740792685.9727826,-0.04484124366666607,0.05168352179024534,0.4538995629881571,0.11812778200270496,nan
1740792685.9766884,-0.19273966384557376,-0.3567096943252104,0.04046479272283134,-0.2723793489605494,nan
1740792685.9805942,-0.06893264829645626,-0.42228668824690296,-0.30866244936175374,-0.37491298060179634,nan
1740792685.9845,0.302277019749303,-0.05602213479597895,-0.44724620606343973,-0.04375488132868268,nan
1740792685.9884057,0.510375834712854,0.3736337980994904,-0.34931842124655915,0.3043365255207531,nan
1740792685.9923117,0.23456979730263178,0.4029275832704803,-0.13694788857393914,0.20413773215883205,nan
1740792685.9962175,-0.3208141819583587,-0.025825646890385953,0.014193494751583964,-0.2427464720231435,nan
1740792686.0001233,-0.6114409449899018,-0.48259043286192943,0.03146367763626065,-0.4645656305643427,nan
1740792686.004029,-0.37373263686541786,-0.4980604569377482,-0.0015797185063628459,-0.14003044279826415,nan
1740792686.0079348,0.07660954234312659,-0.0579962116300529,0.034017749524966605,0.3750610464134807,nan
1740792686.0118408,0.24725100819299256,0.39587589798148876,0.13764818892847946,0.4847649601559341,nan
1740792686.0157506,0.07181014513309018,0.44653392271858905,0.19393119933525038,0.10854799020407999,nan
1740792686.0196564,-0.04939503375196346,0.12574998532488016,0.13311696176931329,-0.22485872202717372,nan
1740792686.0235622,0.18090138779098835,-0.16829806474524203,0.0338375405044086,-0.08168626055824511,nan
1740792686.0274682,0.5181935166223008,-0.13268703196028456,0.018873043221594218,0.28927312123952764,nan
1740792686.031374,0.4570511490297514,0.12601885990334305,0.070848415668648,0.274725753478749,nan
1740792686.0352798,-0.1026425839462534,0.248003904224958,0.02516800244104218,-0.2675069270836015,nan
1740792686.0391855,-0.6579381864817487,0.03597235949030572,-0.2135588749977735,-0.7512067988141214,nan
1740792686.0430913,-0.6609384918201414,-0.3356687087998675,-0.48932852599640037,-0.5626718128727514,nan
1740792686.046997,-0.16405308008241706,-0.5172657603946336,-0.502520446194321,0.14937784571524065,nan
1740792686.050903,0.24992504888906145,-0.34115788254578466,-0.12512304727402687,0.6215664260595418,nan
1740792686.0548089,0.17739310089587768,0.0379654812769517,0.42700214297049,0.40706355213688566,nan
1740792686.0587146,-0.13072326906088505,0.32702555770112846,0.770028650786684,-0.08498880041091356,nan
1740792686.0626242,-0.11608881802777168,0.3749335398708623,0.6873755123222138,-0.14212436618160695,nan
1740792686.0665302,0.34992061436434796,0.2663602064853986,0.2698296701835394,0.3032992536904601,nan
1740792686.070436,0.7581742057152158,0.1741931676254186,-0.23928124060529582,0.5586044477484065,nan
1740792686.0743418,0.5520286907383639,0.1564896582271002,-0.6533130122117722,0.07119972414155235,nan
1740792686.0782475,-0.19311872072078645,0.10928195884617298,-0.8655506959899225,-0.7847038615210464,nan
1740792686.0821533,-0.8157572691103783,-0.08948536542081796,-0.7557165474947908,-1.0641386056947812,nan
1740792686.0860593,-0.7789734277833641,-0.4015495076400631,-0.22803617839016632,-0.36274131993690734,nan
1740792686.089965,-0.21286501042619022,-0.6088085185862859,0.5821796288935915,0.6636192627968356,nan
1740792686.0938709,0.29998923928041277,-0.49786359499449423,1.2178195729074064,1.0123760102161377,nan
1740792686.0977767,0.3771236182706662,-0.08607619481008309,1.173988551079353,0.4317097633230264,nan
1740792686.1016824,0.1558425080165319,0.3467189985360619,0.36558486375264143,-0.37834159751727625,nan
1740792686.1055882,-0.004227601173274111,0.49330269162183776,-0.6925953851701896,-0.6222719509771532,nan
1740792686.1094978,0.025909177035277235,0.31548914287249163,-1.2531659008306482,-0.24555202376108504,nan
1740792686.1134036,0.08762255814469078,0.08833181627748982,-0.9535478974505905,0.18405112658992692,nan
1740792686.1173093,0.04329060560062575,0.10532529376751446,-0.1050702026615435,0.2503617820431121,nan
1740792686.1212153,-0.02645251513932974,0.3303660005642173,0.609523620331819,0.09484211799162501,nan
1740792686.125121,0.014557039976071521,0.3922913240508755,0.721462043123273,0.04927349703894808,nan
1740792686.129027,0.11217737473796467,-0.01573286446167408,0.30484453976544107,0.12258427438506575,nan
1740792686.1329327,0.06875827758548182,-0.7311945265965787,-0.18763497184518677,0.05656470970411746,nan
1740792686.1368384,-0.170428552927575,-1.178110596885268,-0.35214942423367696,-0.20486409918546003,nan
1740792686.1407444,-0.3912649988446936,-0.8904923276592233,-0.12734246099210667,-0.3638911988408879,nan
1740792686.1446502,-0.33937086856137677,0.008636430581070881,0.23523198252117666,-0.17684591844103778,nan
1740792686.148556,-0.024202774382058184,0.8783958961530706,0.4178501453792449,0.16334767891774477,nan
1740792686.1524618,0.2848440166307045,1.1283548578939702,0.27614770140712347,0.24541459798001378,nan
1740792686.156371,0.3587490062382433,0.7161097375446169,-0.08306443236810876,-0.008177869313581259,nan
1740792686.160277,0.22791888083445486,0.09712332014593263,-0.40855151991801797,-0.21891898881308663,nan
1740792686.1641827,0.07507552844022802,-0.26467806175422853,-0.504554115137465,-0.058160519231209365,nan
1740792686.1680887,-0.012570049840144022,-0.28966443154901356,-0.36680046518582765,0.2935135390777308,nan
1740792686.1719944,-0.09560781620384227,-0.2181099211712981,-0.1382147011350751,0.3759511264135306,nan
1740792686.1759002,-0.20739614743847648,-0.25576645367267276,0.06640115641844119,0.07719787777197357,nan
1740792686.179806,-0.24107344381562754,-0.36279538265689626,0.2654526343524549,-0.20312942206192608,nan
1740792686.1837118,-0.08598233555400614,-0.37207265831191255,0.5076490775228119,-0.10902982414348875,nan
1740792686.1876178,0.1715365013259193,-0.21905424791085182,0.6862661284249053,0.1461105216571437,nan
1740792686.1915236,0.28633427715213755,0.009994928661382105,0.5508669527184282,0.046117688202615054,nan
1740792686.1954293,0.12423513307749201,0.22013561366416737,-0.008009454277563272,-0.46950908869808317,nan
1740792686.199335,-0.16809818047704142,0.40707070819022534,-0.7045032585437611,-0.7921593790712719,nan
1740792686.2032444,-0.3174823164794834,0.5778151435462645,-1.005465989908947,-0.3645739393031406,nan
1740792686.2071502,-0.21840021537092943,0.6298932904488482,-0.6310145914569079,0.534802790465374,nan
1740792686.211056,-0.009389910680816465,0.39941418037384985,0.1099079958837187,1.0070340100363089,nan
1740792686.2149618,0.13663856076971048,-0.13363428672015748,0.576496386989506,0.5794871822182183,nan
1740792686.2188675,0.21029893424967355,-0.7221244557266884,0.43435558746209596,-0.2015350008954957,nan
1740792686.2227736,0.29554094467160846,-0.9906307020025672,-0.01061185307717779,-0.42366063880705,nan
1740792686.2266793,0.36004452851825786,-0.7354385742377397,-0.17402888684059606,0.06482118304169919,nan
1740792686.230585,0.23630809367834024,-0.10585619211497041,0.14000981889783035,0.4724611415228461,nan
1740792686.2344909,-0.14036954985254912,0.5008669845823202,0.5230268499137655,0.0867698953678534,nan
1740792686.2383966,-0.5506971891200743,0.7340979198280474,0.4447053214697277,-0.7760488605597118,nan
1740792686.2423024,-0.6529812438118875,0.5287326878877342,-0.12578991264181272,-1.1144723471408717,nan
1740792686.2462084,-0.3433878393707007,0.11693455853469362,-0.6740239006473203,-0.47295735350758517,nan
1740792686.2501173,0.11239796926549835,-0.17235356131625104,-0.7048635593491461,0.48668082150587233,nan
1740792686.254023,0.3541939020118422,-0.16719039084172116,-0.2531195355070337,0.8015320152314975,nan
1740792686.2579288,0.2974966299320701,0.02743016364880177,0.2201208664623556,0.37619312888473544,nan
1740792686.2618346,0.1691253090110979,0.13907388452361866,0.3608661433020698,0.016175262531868115,nan
1740792686.2657404,0.1859764003837535,-0.011494638010084067,0.23492847287086974,0.2971256554549251,nan
1740792686.2696462,0.28321925681889376,-0.32326848455193014,0.11335379429843315,0.7526807966832678,nan
1740792686.2735522,0.22023770742599066,-0.49344582084470445,0.09033957168411169,0.47196127114769365,nan
1740792686.277458,-0.08418278837919038,-0.3129707166814775,0.03699333307356902,-0.6272866550470261,nan
1740792686.2813637,-0.4140520820217845,0.10754920367831558,-0.11315774408215734,-1.5087137020672572,nan
1740792686.2852695,-0.4874214357381044,0.42867973965129647,-0.2008419128329055,-1.1724317822215526,nan
1740792686.2891753,-0.2721506343469064,0.41276884006622844,-0.055265444999903365,0.12079478027254857,nan
1740792686.2930813,-0.008124178133608953,0.1477851596354442,0.21237434783572395,1.0804005123512699,nan
1740792686.29699,0.0770171437253205,-0.07442322037777865,0.2774447384484477,0.8340061670933153,nan
1740792686.3008957,0.011112813523001247,-0.07966296610646992,-0.0026835542265878755,-0.13154712418737843,nan
1740792686.3048015,0.004855152863260247,0.031514956362554164,-0.36691728027434256,-0.6274554319045418,nan
1740792686.3087072,0.1758821583453631,0.04788932432480991,-0.4209106855744836,-0.16641152736176562,nan
1740792686.312613,0.4040088118510804,-0.08976484799434936,-0.09753722994582652,0.5797577831059592,nan
1740792686.316519,0.46773199531295195,-0.2396863067381244,0.2563858727530054,0.715468678076294,nan
1740792686.3204248,0.27954319926509796,-0.24622010349687276,0.2825784093056538,0.19369687770451138,nan
1740792686.3243306,-0.04536169352070008,-0.10372340386157382,0.01857526171473735,-0.27800525347235955,nan
1740792686.3282363,-0.3277136187227196,0.08382940968171862,-0.17308249032443532,-0.2431898622075978,nan
1740792686.332142,-0.4804357590105331,0.23377600026886636,-0.04668421274555582,-0.044799341921350426,nan
1740792686.3360481,-0.5166719694246005,0.30463143618294675,0.25338451747323615,-0.2472238420183117,nan
1740792686.339954,-0.44876947206689805,0.22795886404381477,0.38604353326689683,-0.7737685629379684,nan
1740792686.3438623,-0.2377100144846745,-0.05125818693995101,0.2007141324887136,-0.9368235160018573,nan
1740792686.347768,0.1350646345374176,-0.40755441398899167,-0.1374374944718793,-0.32053799492187957,nan
1740792686.3516738,0.5652980287136603,-0.5114813081436982,-0.36707588110634337,0.6485925340090762,nan
1740792686.3555799,0.8312333214256652,-0.13369520938207485,-0.3808249643876466,1.1778320459021643,nan
1740792686.3594856,0.7355462597495104,0.4986179016429762,-0.24747466029149087,0.9956088287482369,nan
1740792686.3633914,0.271936643161091,0.7914207988787709,-0.08315316016095958,0.5236840421842337,nan
1740792686.3672972,-0.3329016561105668,0.3735224088052317,0.028790853940394674,0.2014937715460298,nan
1740792686.371203,-0.7553236174520083,-0.42832906216203137,0.051733613952110874,-0.05800675397312653,nan
1740792686.3751087,-0.7926414285363628,-0.8514761962337561,0.040794591777219565,-0.5542453063445949,nan
1740792686.3790147,-0.4878568454755304,-0.502184270909247,0.16185578073259757,-1.137750004885806,nan
1740792686.3829205,-0.05872809658140598,0.20190882625336984,0.5192943185345069,-1.2238402393882342,nan
1740792686.3868263,0.29293512202572264,0.5114362732771905,0.8827619610449187,-0.561513639798838,nan
1740792686.3907363,0.5002866659196283,0.21188629047100344,0.7251572625392625,0.28919684336213625,nan
1740792686.394642,0.5737588280099015,-0.17143088544617432,-0.23019868479421218,0.5432760336774073,nan
1740792686.398548,0.47716891228345715,-0.09198033042462703,-1.457113113696771,0.19551208879343934,nan
1740792686.4024537,0.13926215479385434,0.28838280613635847,-1.863933989565652,0.10375952297754801,nan
1740792686.4063597,-0.37497788899518997,0.32697936399202865,-0.8566209068840496,0.877613039783426,nan
1740792686.4102654,-0.7641542101876373,-0.17387221341381126,0.8474783652634164,1.883698871611645,nan
1740792686.4141712,-0.6799798897414094,-0.5824575603768531,1.7465958429884598,1.7278284398449404,nan
1740792686.418077,-0.08815703272089245,-0.21908027217387216,1.0904791160345761,-0.1403949078650301,nan
1740792686.4219828,0.5980723172114168,0.6249011744205984,-0.24354699176458164,-2.5168087688132585,nan
1740792686.4258885,0.8381150303927666,0.8443917648210145,-0.6889708550101244,-3.4098750664729254,nan
1740792686.4297945,0.4632271991520212,-0.12286665092587194,0.16754813100969487,-1.9763258374016697,nan
1740792686.4337003,-0.17099825745045108,-1.367254803436263,1.0009754293317565,0.6234395030249787,nan
1740792686.43761,-0.5554609249989972,-1.354247564004074,0.30265998287036927,2.351604107977279,nan
1740792686.4415157,-0.5142763626086108,0.22831332668125526,-1.6059824297075764,2.18366048288514,nan
1740792686.4454217,-0.2759623115660588,1.8377859117926012,-2.587165656778827,0.8329564536885009,nan
1740792686.4493275,-0.1028998311877558,1.658932226141977,-1.0252610337776207,-0.24839929463415153,nan
1740792686.4532332,0.022232978141420445,-0.2567085859521912,2.0495075714724114,-0.3514516670553671,nan
1740792686.457139,0.2641778265088738,-1.8530423878044064,3.6633306747280034,0.0432658364747772,nan
1740792686.4610448,0.5735973820985384,-1.3130356468398805,1.963260962071908,0.067387291979604,nan
1740792686.4649508,0.6301391233280745,0.7957656602953807,-1.6424568856974857,-0.5396822009812056,nan
1740792686.4688566,0.22372177820471179,2.0385907134828543,-3.755291146976362,-1.241672014452854,nan
1740792686.4727623,-0.4022843364899801,0.8555954659081831,-2.4381345891819053,-1.312561628080443,nan
1740792686.4766681,-0.7294234465037986,-1.5730116620699368,0.8523137837488325,-0.5120973397310591,nan
1740792686.480574,-0.5028945333122111,-2.5551776972238125,2.9095461158788667,0.733182406096241,nan
1740792686.4844835,0.007450070528790606,-0.8929210813760665,2.1205914798981236,1.6443144956783053,nan
1740792686.4883895,0.33452788916233794,1.7400027262886573,-0.1382275051466294,1.6010824045439216,nan
1740792686.4922953,0.3118019035801832,2.6246900122841703,-1.3682126485924182,0.5683818701425529,nan
1740792686.496201,0.13848457551284274,0.9550732685495521,-0.7378752570006812,-0.7990492766514252,nan
1740792686.5001068,0.008410714123164315,-1.3845014941313312,0.34486655330796845,-1.5416776643149406,nan
1740792686.5040126,-0.1274957837759688,-1.9844217841480734,0.2413066411780201,-1.123480234373994,nan
1740792686.5079184,-0.33429700218203856,-0.47744434947788733,-0.9113751886733465,0.06749082590073642,nan
1740792686.5118244,-0.3952331759022771,1.2996272221180922,-1.5152365336771483,0.9983264315281729,nan
1740792686.5157301,-0.003924243598779503,1.4800321004022614,-0.5592214662934915,0.9151614114652638,nan
1740792686.519636,0.6997479132481048,0.07493389959160666,1.1560471755196893,0.04995985440111324,nan
1740792686.5235417,1.031827946116192,-1.3575667171526857,1.9858395260665933,-0.6371198704755966,nan
1740792686.5274475,0.4579567805387726,-1.5355568821466798,1.2933929277155687,-0.4554910203147633,nan
1740792686.5313568,-0.6545018927311694,-0.5609295719208162,-0.017302493451118218,0.30808042617362286,nan
1740792686.5352626,-1.2554327475257072,0.6316971888048984,-0.7233693033422209,0.7151613914599609,nan
1740792686.5391686,-0.7425970817359813,1.3697046269222206,-0.6158342054955441,0.18339388593805594,nan
1740792686.5430744,0.2872643954375072,1.5010261248240524,-0.4053396891508096,-0.8790383889359777,nan
1740792686.5469801,0.6768027191496558,0.9427313914020212,-0.5803216629238781,-1.4417170997844566,nan
1740792686.550886,0.0878750846266443,-0.3726911578047307,-0.8019352731716799,-0.8206321692428364,nan
1740792686.5547917,-0.5570014974832943,-1.9146797337876167,-0.5175926353334325,0.685907338644253,nan
1740792686.5586977,-0.2195932445369636,-2.42244984061447,0.18008824091079795,2.0165655653837664,nan
1740792686.5626035,0.8619161662200397,-0.9923516893048006,0.6523037868061131,2.1564921584594696,nan
1740792686.5665092,1.3280605246580632,1.605739661227369,0.5950922070954565,0.8775768099299939,nan
1740792686.570415,0.36503951522228856,3.1720622976777926,0.4489911789484942,-1.0778247573301987,nan
1740792686.5743208,-1.1232794925274323,2.101209022601514,0.7338863312584324,-2.4556432850511,nan
1740792686.57823,-1.4209819012620397,-0.8397823276736966,1.1878266846018324,-2.3249005361068957,nan
1740792686.5821357,-0.06374392975617257,-3.070158650570474,0.9215348562908293,-0.7714031704035506,nan
1740792686.5860417,1.4265702403468599,-2.6889508222945984,-0.4792990919539368,1.0963931068409625,nan
1740792686.5899475,1.185711472880723,-0.2768394761720897,-2.2263567673963185,1.9648692355485469,nan
1740792686.5938532,-0.7841981161760486,1.8921796546768683,-2.919913450483888,1.3711896399838104,nan
1740792686.597759,-2.4644325028190965,2.233826148782242,-1.860163339699513,0.0556979580237311,nan
1740792686.6016648,-1.996844606848545,1.160426712274026,0.3261716786176563,-0.7723327856519826,nan
1740792686.6055708,0.29893778863197185,0.08915761215710438,2.301857927260875,-0.5671314945190412,nan
1740792686.6094766,2.365394979135257,-0.34963979861215433,3.0746809625722458,0.15464831628531459,nan
1740792686.6133823,2.672686424033022,-0.6937671135207827,2.449741022982819,0.5079145318866237,nan
1740792686.617288,1.5872735671304359,-1.4067204455613225,0.7894758683177409,0.19984448618015596,nan
1740792686.621194,0.40089488728350764,-1.8762451765918433,-1.2634310335513035,-0.3050832456854377,nan
1740792686.625103,-0.44952017383332693,-1.0889551864872975,-2.812899809536957,-0.48404983121848816,nan
1740792686.6290088,-1.5601934632890007,0.8683855064644652,-2.926263030675591,-0.3715981615824216,nan
1740792686.6329145,-3.026374201783704,2.4990248488280984,-1.3329250235839336,-0.34701180756747363,nan
1740792686.6368203,-3.527966837104444,2.3518015292104777,1.0168165685262063,-0.47482431141476955,nan
1740792686.640726,-1.6620045732155173,0.5895957901585631,2.4464276574939747,-0.35808910005322653,nan
1740792686.6446319,1.9290048650860503,-1.1864048577479924,1.9682435630685444,0.26373541212556706,nan
1740792686.6485379,4.521483061422731,-1.6425700098823757,0.24117256668997744,1.0040989537689642,nan
1740792686.6524436,3.9232297498361355,-0.955536693653864,-1.0676590260148213,1.1839514648699876,nan
1740792686.6563494,0.8877916817249846,-0.2587617939894117,-0.9545632914204729,0.6666628437583302,nan
1740792686.6602552,-1.6311904891242013,-0.1567373897143886,0.005608800867715538,0.05668142120712044,nan
1740792686.664161,-1.714738453489805,-0.17202077090851853,0.4904449719716202,-0.08892775664184838,nan
1740792686.668067,-0.4574675594095978,0.3363241869843391,0.006112510660193955,-0.0373122572185731,nan
1740792686.6719756,-0.3259661350285372,1.1198526161476785,-0.6328686751702874,-0.5297408102719499,nan
1740792686.6758814,-1.8883103731941575,1.2643722881994732,-0.42785710209203837,-1.6220515706985257,nan
1740792686.6797872,-2.9617981251245595,0.3857520356984406,0.491185063333034,-2.2387970757193836,nan
1740792686.683693,-1.336558359833653,-0.7694366658186874,0.9820768756670405,-1.255725607286933,nan
1740792686.687599,2.2007509621475077,-1.1211542776572356,0.29992356211481724,1.0109364390620643,nan
1740792686.6915047,4.353449495277251,-0.48549780301717665,-0.9173528494065931,2.781226804902533,nan
1740792686.6954105,2.955120599859969,0.2623374759559004,-1.3067381746605213,2.5486346679773475,nan
1740792686.6993163,-0.485824172164253,0.26545450085789596,-0.3365507452958703,0.7119932625224894,nan
1740792686.703222,-2.4255017818813047,-0.3184972415217291,1.0527546871160613,-0.834890499547662,nan
1740792686.707128,-1.265787062264789,-0.5705859576209863,1.462091067340959,-0.7962484687215662,nan
1740792686.7110338,0.9685342307970219,0.04778398832609279,0.5330272114261897,0.12811499051826655,nan
1740792686.7149396,1.1847441257720848,1.0326609480952502,-0.7364157090400025,0.1869780353740415,nan
1740792686.718848,-1.064702930201186,1.3742298597398668,-1.1226985785415178,-1.2174208187205506,nan
1740792686.722754,-3.0954963983180575,0.6162873925534968,-0.4233872540191553,-2.666254518089594,nan
1740792686.7266598,-2.3200656361575684,-0.7157066827154206,0.4950321506119713,-2.2727955713279115,nan
1740792686.7305655,0.7037520455968649,-1.6424645528630692,0.7231212783313243,0.11073025117765617,nan
1740792686.7344713,2.96541545809141,-1.543767192008059,0.18152996176199884,2.5781966070466984,nan
1740792686.738377,2.4797279809926835,-0.515045211337509,-0.49765552803540386,3.1276868975357504,nan
1740792686.7422829,0.3787463858250719,0.8213840489724136,-0.7220465084794894,1.683760339189104,nan
1740792686.7461889,-0.720255599650461,1.7042020526161985,-0.4173049052855824,-0.0391573808890806,nan
1740792686.7500947,0.08463050863876925,1.6020292629339372,0.1200755354047089,-0.5510299887501066,nan
1740792686.7540004,1.0814289973629023,0.5330702647196808,0.589271567662575,-0.12536629492585735,nan
1740792686.7579062,0.2703180563789441,-0.8329438865826572,0.8159543719644644,-0.1963433195225689,nan
1740792686.761812,-2.037186756135865,-1.5605072608678747,0.6918392461424331,-1.4551432162506923,nan
1740792686.765722,-3.466500651869374,-1.1951045102388123,0.20702530245915518,-2.8841444462980586,nan
1740792686.7696278,-2.281502404291011,-0.19131058208928156,-0.4300290908714453,-2.7829586873594523,nan
1740792686.7735336,0.6867600804326054,0.5278434403626227,-0.8582968665816904,-0.5965805444890948,nan
1740792686.7774394,2.9979321944956916,0.5148610529784838,-0.8631452972921416,2.408601232860967,nan
1740792686.7813454,3.1201047701625937,0.20859853313264862,-0.5605807625635908,4.215229905470334,nan
1740792686.7852511,1.6125181098078731,0.29968262308444055,-0.19555586876585618,3.6909195180877847,nan
1740792686.789157,-0.013480045755718213,0.7809106701484948,0.19096644064215215,1.290875864244197,nan
1740792686.7930627,-0.9978260262152051,0.8707918499925656,0.7322650301261845,-1.5182582908434195,nan
1740792686.7969685,-1.5795638675366124,-0.005895199837251045,1.3244049038342156,-3.316406863327875,nan
1740792686.8008742,-1.9409403668720804,-1.3312515701398269,1.4291690975017837,-3.4127685068763367,nan
1740792686.8047802,-1.6151356514099104,-1.8561656910029716,0.5478621124760129,-1.9642318327619432,nan
1740792686.808686,-0.2286331757856067,-0.9249048078941977,-1.0439920238486649,0.22317512294353775,nan
1740792686.8125956,1.5438215281009764,0.7255102488988658,-2.2334006176703767,2.0539946131679025,nan
1740792686.8165014,2.3096922681333316,1.6568260368271455,-1.9882239692176846,2.6506202239544345,nan
1740792686.8204072,1.3781670449900287,1.187889447119557,-0.40048543363545386,1.8342732479681407,nan
1740792686.8243132,-0.42266839182730065,0.016249437963874236,1.3048882182783015,0.22402851074956467,nan
1740792686.828219,-1.5611918233632383,-0.6378848341741065,1.8994905920024057,-1.1936778450066907,nan
1740792686.8321247,-1.317765939678365,-0.3454041005294863,1.2516754174603613,-1.7081057913472129,nan
1740792686.8360305,-0.28685382232939993,0.21387909581616446,0.24443301124078343,-1.2394941397254287,nan
1740792686.8399363,0.5353534742881672,0.1678623057881858,-0.3071039444145326,-0.22026947944208725,nan
1740792686.8438423,0.8075394074076537,-0.5300349448835944,-0.44603857858578794,0.7591464552070997,nan
1740792686.847748,0.8168715894473155,-1.0964488229820022,-0.7045248390721323,1.2297975596943824,nan
1740792686.8516538,0.6899969357790426,-0.8108738253657259,-1.1514292688874235,0.982566710282998,nan
1740792686.8555596,0.11685436858105198,0.23995198965931389,-1.1431429831066962,0.15161582369108467,nan
1740792686.8594692,-0.982812285021042,1.2822811011692326,-0.16352493500306373,-0.7841172734373801,nan
1740792686.863375,-1.8613813978723688,1.5620276878451171,1.2828862659395672,-1.2193289972997694,nan
1740792686.8672807,-1.4780305300100216,0.894654500876177,1.939527604905236,-0.8343797730395314,nan
1740792686.8711865,0.25180660142971417,-0.3011485163865431,1.0890430050901165,0.11008308738925836,nan
1740792686.8750923,2.0218290112834754,-1.3106666546112296,-0.5704415466715199,0.9150735970177446,nan
1740792686.8789983,2.262626989630177,-1.5121506150511168,-1.5449796287238373,0.9745709247396032,nan
1740792686.882904,0.7407946911396911,-0.7489519494211391,-1.0635232736806213,0.2690566652888987,nan
1740792686.8868098,-1.1391600756544369,0.46578877817175895,0.16606737169161448,-0.6011463150754109,nan
1740792686.8907156,-1.730054202549981,1.2035673779671403,0.8013197025045868,-0.8840243051364356,nan
1740792686.8946214,-0.762295877130127,0.8588025200794513,0.34618198801106465,-0.28610995889065277,nan
1740792686.8985271,0.5176244344053987,-0.21732069458326064,-0.40175505986887333,0.7443464264913722,nan
1740792686.9024332,0.7578889955064242,-0.9374858944288781,-0.3996914934697909,1.3093056984440572,nan
1740792686.9063425,-0.10877111243863248,-0.5276673585751939,0.3611602895250075,0.7721207981367877,nan
1740792686.9102483,-0.92859899667201,0.6177662359693101,0.855003816424481,-0.6304193194036297,nan
1740792686.914154,-0.6465189116564409,1.2704173314090117,0.29366669642358334,-1.836880248493811,nan
1740792686.9180598,0.5829067839096841,0.6493222828853845,-0.8413302203914944,-1.777350842768949,nan
1740792686.9219656,1.5907927412626213,-0.7085100287370021,-1.2595201533567406,-0.3464173495926695,nan
1740792686.9258716,1.3717073791453127,-1.4780263381750143,-0.33345971114505857,1.385378951575137,nan
1740792686.9297774,0.01485059698061942,-0.9302114064234901,1.1014211938361835,2.050792776257894,nan
1740792686.9336832,-1.431763495247542,0.33626156930757584,1.5735454112207876,1.208948468264846,nan
1740792686.937589,-1.8921985308283702,1.0815623147422404,0.5469752792442055,-0.2846710856897065,nan
1740792686.9414947,-1.0865577081740785,0.7149259538098611,-0.9930473638942723,-1.1564454230218253,nan
1740792686.9454005,0.3732561216302671,-0.21790740311742124,-1.5758954568213304,-0.930192657350723,nan
1740792686.9493065,1.5262891635715665,-0.7498801256251462,-0.7512520325487662,-0.20936916598054914,nan
1740792686.9532156,1.7172572812081732,-0.47969440769121224,0.5531076677726461,0.18309800236714563,nan
1740792686.9571214,0.9197371062019942,0.21816171975500567,1.1121729539896894,0.12384766555308083,nan
1740792686.9610274,-0.36193001355518345,0.7565781289635884,0.6466886283198203,0.09564126173612936,nan
1740792686.9649332,-1.42831866586258,0.8529881747546231,-0.10269335071108351,0.3237815039424488,nan
1740792686.968839,-1.728436562665341,0.5131167275263531,-0.381780175962084,0.3698342149316175,nan
1740792686.9727447,-1.0867288641664887,-0.18220175333655156,-0.2314211462109119,-0.20865967480015865,nan
1740792686.9766505,0.21187429211502906,-1.0207391620477548,-0.19825754341162244,-1.0014095546998958,nan
1740792686.9805562,1.4994360555094157,-1.5045451262116325,-0.44462197801870834,-0.9693289878645139,nan
1740792686.9844623,2.0110383238363303,-1.1108508778163144,-0.4597283059586457,0.295631955909849,nan
1740792686.988368,1.3379643375399133,0.09521686758198564,0.22877061797891515,1.7852098844457007,nan
1740792686.9922738,-0.2059997402096435,1.2704490395861592,1.240661421437058,1.9304051710590335,nan
1740792686.9961796,-1.6642627944583777,1.5012048103595954,1.5222523667923118,0.32731320624173876,nan
1740792687.0000885,-2.062517875645346,0.7557044408596574,0.45354119230300977,-1.649799067933611,nan
1740792687.0039945,-1.1635254356567228,-0.07065067075437508,-1.3298210281775191,-2.197203696628189,nan
1740792687.0079002,0.3180315551323106,-0.19637504220326787,-2.3809095066227486,-0.9647299667065302,nan
1740792687.011806,1.3084083858754048,0.11581873177579313,-1.7644967373977611,0.6530763247098139,nan
1740792687.0157118,1.2729866358334012,-0.06650724508674699,0.08366470514002737,1.13429296104577,nan
1740792687.0196176,0.5761710029400855,-1.036410926024791,1.7940778430069217,0.45640250037470254,nan
1740792687.0235233,-0.016254136301008686,-1.836285203185028,2.276608297517722,-0.1311070710344593,nan
1740792687.0274293,-0.13176031468217658,-1.2588507418608057,1.4938600810162348,0.20029626786016386,nan
1740792687.031335,-0.047169739863531714,0.6069944724427074,0.19785041102842932,0.8285862536461919,nan
1740792687.035241,-0.2098138861640733,2.1853947498847948,-0.8640372096109646,0.5656835166759947,nan
1740792687.0391467,-0.6437976389763342,1.9950501549094657,-1.4075296735787564,-0.690740030817227,nan
1740792687.0430524,-0.92297448023088,0.28315657609316863,-1.471330009736353,-1.6462195559815358,nan
1740792687.0469613,-0.6770953551101473,-1.2018551177092505,-1.1134453437803826,-1.094266733066165,nan
1740792687.050867,0.0033554054520399047,-1.1089235246172433,-0.38104966592611517,0.5770669063174271,nan
1740792687.0547729,0.692896388353582,0.09518831912647248,0.5233081434042719,1.701824706547597,nan
1740792687.0586786,1.0432563093460503,0.7934839779179569,1.2321538067688351,1.1528443034513303,nan
1740792687.0625846,0.9740829894067436,0.1472358456008237,1.445397413522125,-0.43835448742240135,nan
1740792687.0664904,0.5454508034585156,-0.9886244820191833,1.1295748031413702,-1.4280153142639533,nan
1740792687.0703962,-0.14367369127751492,-1.1828077633529106,0.46406590452464946,-0.9503910506819597,nan
1740792687.074302,-0.8430366984346653,-0.16948658028293892,-0.33665334095866445,0.28399500731494426,nan
1740792687.0782077,-1.1141049200735953,0.8816716466631948,-1.0717803930886505,0.9444838445676584,nan
1740792687.0821137,-0.6710069652296624,0.8318377974586089,-1.4821034466835483,0.5446886922653206,nan
1740792687.0860195,0.18271474170464316,-0.05310198420501231,-1.2995721913530887,-0.22195482893812613,nan
1740792687.0899253,0.667595675430362,-0.4841950402343476,-0.49352358781912925,-0.440511251674931,nan
1740792687.093834,0.3011886897236763,0.21631424550592293,0.5622536609553723,0.0287509344716298,nan
1740792687.0977397,-0.47031951691530854,1.2366460337280147,1.2875515441859295,0.5617480035974625,nan
1740792687.1016455,-0.6418729312173357,1.2128853240636475,1.3320030448598223,0.5392611633549362,nan
1740792687.1055512,0.21727230133784178,-0.15286469765354954,0.807191792766894,-0.08582772698649851,nan
1740792687.109457,1.3331615767628424,-1.7058932775979119,0.09152672238987676,-0.8684477580226546,nan
1740792687.113363,1.4561081340302768,-2.086007788950891,-0.5204608746315091,-1.2563682360019197,nan
1740792687.1172688,0.2520532316822333,-1.1075085419530917,-0.9203578244341017,-0.8761731068542836,nan
1740792687.1211746,-1.2279664707156348,0.25868094153361815,-1.0262836737089855,0.26284665712712585,nan
1740792687.1250803,-1.6239440582636506,1.0822424992250603,-0.7135659336549308,1.584417004681839,nan
1740792687.1289861,-0.7201624826412037,1.3124722480471813,-0.0128357586090335,2.09065187950681,nan
1740792687.132892,0.385516059013058,1.3696354907044213,0.716958828877161,1.1029251073128183,nan
1740792687.136798,0.5832738823283502,1.257460317078909,1.0010674082976343,-0.9015682461619878,nan
1740792687.1407077,-0.01791583989919554,0.5005556629798796,0.7040100040447113,-2.379338180459062,nan
1740792687.1446135,-0.36792834364813504,-0.988557491395237,0.17322687821861765,-2.019263719071303,nan
1740792687.1485193,0.13746801475369685,-2.3334362057192872,-0.1687734582413627,-0.09352176693694672,nan
1740792687.152425,0.8983752422133967,-2.347131805484455,-0.3077767694643202,1.6681542830267067,nan
1740792687.1563308,0.9115755697811766,-0.7978630861836247,-0.5556098519890594,1.753278394436513,nan
1740792687.1602368,0.09535707254501691,1.1959660840725113,-0.9671465483262287,0.3757321922701059,nan
1740792687.1641426,-0.5710849955717813,2.1804922386800984,-1.0445947821560608,-0.8510713298372284,nan
1740792687.1680484,-0.3133123349296702,1.6995064114773595,-0.25305872046918615,-0.7339386412758249,nan
1740792687.1719542,0.36666080314407823,0.5101628453752983,1.1706619721232057,0.24195089940756384,nan
1740792687.17586,0.25192258606831197,-0.41788075201256214,2.155696242420484,0.6295794827826364,nan
1740792687.179766,-0.9793213811963045,-0.8445297664946204,1.7468607033532177,-0.1753438021501825,nan
1740792687.1836717,-2.0908687924658222,-1.0965089130508157,0.10275417936733564,-1.1874236688991853,nan
1740792687.1875813,-1.5460858983921086,-1.2267637283013388,-1.5866620782223146,-1.0159109351599036,nan
1740792687.191487,0.6582789618684938,-0.7637110791899754,-2.2020504108454926,0.43207110202432775,nan
1740792687.195393,2.743230728591218,0.524190622627217,-1.6086878336558137,1.7391818869266293,nan
1740792687.1992989,2.8928280464362555,1.8706075599334018,-0.4673484117753395,1.5105827492693549,nan
1740792687.2032046,1.0953455024698338,1.959004452367299,0.6200701641931432,-0.09756606045850437,nan
1740792687.2071104,-0.9542785694788911,0.34196201977448937,1.490233828229124,-1.545878166056657,nan
1740792687.2110162,-1.7126639868665257,-1.756316198235823,1.9959261154139318,-1.5242985158667486,nan
1740792687.214922,-1.2614034304590653,-2.3923675603183265,1.6545432065991048,-0.22432560546940608,nan
1740792687.218828,-0.8074976897746758,-0.8380004413708096,0.1588954866229115,0.9966354673436094,nan
1740792687.2227337,-0.9833756290719242,1.5201667169711495,-1.7918984152139126,1.0409269518544206,nan
1740792687.2266395,-1.0685833224155805,2.408264113719089,-2.654999266118699,0.05964868632436889,nan
1740792687.2305453,-0.04756405423228789,0.901095444980222,-1.4718051316740801,-0.8535260796409951,nan
1740792687.2344549,1.8406629669439427,-1.5885956716065586,0.8991925279300891,-0.7701871890288008,nan
1740792687.2383606,3.014865772334778,-2.623449309154994,2.3548012396962212,0.2540362004937872,nan
1740792687.2422664,2.1514472830229896,-1.0966800310013625,1.5989951117628678,1.2681411476375426,nan
1740792687.2461722,-0.3031487121036043,1.6768340320708934,-0.49843154963737185,1.2399696542085077,nan
1740792687.2500782,-2.4260315061033855,3.1746452487010832,-1.8233349540134884,-0.04153136276640143,nan
1740792687.253984,-2.6313025419485507,1.9848184724577302,-1.260804560354303,-1.6445970703960036,nan
1740792687.2578897,-1.0832696241865312,-0.9556020460582825,0.25125807134686035,-2.11632722715022,nan
1740792687.2617955,0.683734379269207,-3.2520528251176333,1.0051290499992231,-0.7468212785290098,nan
1740792687.2657013,1.3612100997045222,-3.1236171568264886,0.547558214959917,1.553411882447875,nan
1740792687.2696073,0.9323204626529317,-0.7727759386926307,0.011043021688778111,2.784036522612919,nan
1740792687.273513,0.2642898235208696,1.9842300512614892,0.42695244420796385,1.6342891552373964,nan
1740792687.2774189,-0.03695112070546714,3.262440743487189,1.2072948956952454,-1.0849218301493733,nan
1740792687.2813282,-0.13774019976333085,2.427572056621969,0.7993103607752625,-2.967019618016484,nan
1740792687.285234,-0.43430384980681225,0.27077192148495843,-1.197100758829276,-2.252623553373006,nan
1740792687.2891397,-0.8128527853736287,-1.7909988490709354,-3.0966114988594855,0.3930560261714639,nan
1740792687.2930455,-0.694142587295201,-2.673168923686528,-2.740095036448509,2.497359016923179,nan
1740792687.2969515,0.19573892923995653,-2.0997029073589863,0.04746063923393457,2.251856675383389,nan
1740792687.3008573,1.2942421336672252,-0.5225217393584342,3.004781793884136,0.244643980824311,nan
1740792687.304763,1.6135411741861934,1.2322107766683468,3.629534358071587,-1.3732575206002628,nan
1740792687.3086689,0.7153916116121626,2.334953196542018,1.6447198950652073,-1.2735093917616112,nan
1740792687.3125746,-0.7853442008830804,2.258989190530009,-0.929190010381243,-0.1863421239230524,nan
1740792687.3164804,-1.7427577156523695,1.0022961462943236,-2.0198131566795547,0.28840316408083755,nan
1740792687.3203864,-1.512486707218598,-0.8537552177537557,-1.4599065408772294,-0.2827786426842164,nan
1740792687.3242922,-0.46829660268061524,-2.3509325795373672,-0.6153963283789726,-0.7612615276141653,nan
1740792687.3282013,0.4677020059963763,-2.617113875938265,-0.4598953977419523,-0.058595510350577924,nan
1740792687.332107,0.7428486879926163,-1.3886050464508908,-0.5305027487211187,1.3100675990923174,nan
1740792687.3360128,0.5901871172747774,0.7275330262085061,0.12677565920229575,1.7209772560105752,nan
1740792687.3399186,0.5747601101233617,2.501650590980696,1.4201482991984704,0.4191138397615082,nan
1740792687.3438244,0.8370124897895711,2.803171849028959,2.0995694240496476,-1.4301396250868894,nan
1740792687.3477304,0.9005295316821594,1.385995681668745,1.2114997799739642,-1.9317216414467737,nan
1740792687.3516362,0.26511822849367844,-0.8456351154816143,-0.6822579053346006,-0.5436462507646475,nan
1740792687.355542,-0.8885528586923274,-2.401939560239596,-1.9984369678515053,1.327597351032488,nan
1740792687.3594477,-1.718116319414606,-2.2817669365028457,-1.7439010895570646,1.8369021517651842,nan
1740792687.3633535,-1.516971541212828,-0.7338790196047935,-0.40112140559900084,0.5685765162660478,nan
1740792687.3672595,-0.4539725961878491,0.9625638785490541,0.7826909190644946,-1.2114284456698494,nan
1740792687.3711653,0.5751044041260214,1.5645171099886679,1.1111247013172827,-1.9448188456400777,nan
1740792687.3750741,0.8612125596952583,0.8715289123997074,0.8603410434048753,-1.1618819227828527,nan
1740792687.37898,0.5683196916219656,-0.21673075489629465,0.570476685162439,0.4097443030695325,nan
1740792687.3828857,0.4224723066855163,-0.6174445670877431,0.29501462835870945,1.6834246719460604,nan
1740792687.3867915,0.7587408222170489,-0.07378597951013428,-0.27271046775853397,1.9344814602718807,nan
1740792687.3906972,1.050122087089131,0.6862843403504636,-1.1163276643711328,1.005264710292717,nan
1740792687.3946033,0.5259181636230729,0.7361385239652041,-1.6448446804737278,-0.6553723662481055,nan
1740792687.398509,-0.7917575747784092,-0.1258762138977894,-1.2299978677786354,-2.0072724910428477,nan
1740792687.4024148,-1.8780121215412398,-1.1934800640222167,0.10353850643294782,-1.9226378741033194,nan
1740792687.4063206,-1.6929225539570294,-1.518450694835798,1.5985617931329974,-0.22189739187071622,nan
1740792687.4102263,-0.34005095965374627,-0.7453249425760671,2.3222226688371492,1.7571013917785938,nan
1740792687.4141324,0.9377871843024882,0.6236215417366241,1.7883885542121496,2.102375602376345,nan
1740792687.4180381,1.0258097030585955,1.6640482477189549,0.21232003794690477,0.25419522076082307,nan
1740792687.421947,0.1235479664637158,1.7077674367464593,-1.5983674186777108,-2.1075837617110955,nan
1740792687.4258528,-0.4873321405897665,0.7419125513107033,-2.5965845537254775,-2.5213305205929846,nan
1740792687.4297585,0.10470160374945967,-0.649118932643851,-2.0710037618851973,-0.30284213063338045,nan
1740792687.4336643,1.3535577804763192,-1.6591160614693483,-0.24424466125448277,2.543033284750929,nan
1740792687.43757,1.772565997144621,-1.7206644776603066,1.6576912937031192,3.2432007908595906,nan
1740792687.4414759,0.5467466733338952,-0.8324421688346623,2.2380087214567332,1.0857125871289814,nan
1740792687.4453819,-1.499090263888333,0.44065738192971776,1.1412648164966979,-1.8735560812070724,nan
1740792687.4492877,-2.6460893717013865,1.3488576953542757,-0.5446749713555146,-2.9730512746226796,nan
1740792687.4531934,-1.9627859636909368,1.4771955183679968,-1.2860586484414214,-1.5894188998207526,nan
1740792687.4570992,-0.15060308363218966,0.969925978468352,-0.6057342358829146,0.5394348922840293,nan
1740792687.461005,1.2786942699915742,0.2566591205755585,0.49929352764410445,1.415650169501828,nan
1740792687.464911,1.5200014453331239,-0.40612141476698105,0.7236736854774446,0.7888498952370582,nan
1740792687.4688194,1.0416445584808203,-1.0427622816413773,-0.0826489286770558,-0.04466616930772937,nan
1740792687.4727252,0.7173011590992775,-1.6016633673398977,-0.8253132707712215,-0.049844359894603514,nan
1740792687.4766312,0.6715859454678325,-1.6538920258353544,-0.5440439623036142,0.4391278168607536,nan
1740792687.480537,0.2393003519752747,-0.7016116917708501,0.39527586542236204,0.4588321479215919,nan
1740792687.4844427,-0.9473438265777221,1.090968629592977,0.7522987880962926,-0.1942344634840669,nan
1740792687.4883485,-2.1308211627051272,2.6215180909938054,-0.013530610506059125,-0.7420482981221341,nan
1740792687.4922543,-2.012672315906351,2.6056003387468154,-0.9747574046936294,-0.5211374278639945,nan
1740792687.4961603,-0.24594000430866284,0.8082153599431515,-0.7896160450910792,0.13358672135131694,nan
1740792687.500066,1.8649793305319984,-1.5220523993501525,0.6134140436163403,0.35658813528718253,nan
1740792687.5039718,2.4433237696391723,-2.6343143020445754,1.7648954871519897,-0.09742909306673063,nan
1740792687.5078776,0.9311925559540768,-1.8258203156488992,1.2458025272347448,-0.5378352626055647,nan
1740792687.5117834,-1.217636758947966,-0.03015446660448072,-0.6275428752921239,-0.24978184171953507,nan
1740792687.5156934,-1.9193560704395427,1.1552229666574316,-2.0021469693620775,0.5531739838510371,nan
1740792687.5195992,-0.5809909179196441,0.9938719801870304,-1.4427780775035872,0.9470769093794804,nan
1740792687.523505,1.2734828910872171,0.13877530205986202,0.49723080804605424,0.40932282152984184,nan
1740792687.5274107,1.60701537283053,-0.27399487334013845,1.8324154302992453,-0.541557351186944,nan
1740792687.5313168,0.052368446518626134,0.11792917768019522,1.2255912515388394,-0.9256583846138011,nan
1740792687.5352225,-1.6714129629138392,0.6509793811767832,-0.6533183209248531,-0.3791477188206428,nan
1740792687.5391283,-1.6110329903947105,0.5389569010221049,-1.8870485849776755,0.5047348489812219,nan
1740792687.543034,0.2634447451850113,-0.18548333452535398,-1.2883924757853915,0.8597878539795852,nan
1740792687.5469398,1.95598948266743,-0.7471388011139913,0.4981980720215307,0.40344081478885385,nan
1740792687.5508459,1.5728554925854021,-0.5579650651629554,1.7832805962695653,-0.41213055636964946,nan
1740792687.5547516,-0.5883805586907858,0.10511288062436747,1.5210436217417846,-0.924806293156176,nan
1740792687.5586574,-2.277745330959507,0.4261350321660453,0.15992698767461253,-0.797048113815828,nan
1740792687.562567,-1.656113305451861,-0.02220537775312198,-1.006644541420201,-0.13746941531300058,nan
1740792687.5664728,0.7361524366117982,-0.7833803050814381,-1.1161689941424258,0.6589555078861276,nan
1740792687.5703788,2.520150618302602,-0.9700199264830771,-0.36660920785884676,1.1063336562975132,nan
1740792687.5742846,1.9441766706661854,-0.1699171466334169,0.3953941309402518,0.8588406854599632,nan
1740792687.5781903,-0.358350828235064,1.1072516871732203,0.5100377562668571,-0.0020877604491555527,nan
1740792687.582096,-2.1300528384149646,1.8449249944954826,-0.025857942549797192,-0.8842276495565368,nan
1740792687.5860019,-1.84709261345834,1.3816549595031615,-0.690745303709553,-1.083578258186248,nan
1740792687.5899076,-0.12592823005086815,-0.03634643296707951,-0.8843701513309649,-0.4340497283948048,nan
1740792687.5938137,1.180952809427757,-1.4404254564168595,-0.33053593324348973,0.46994593040694926,nan
1740792687.5977194,1.0115535049933995,-1.8823012677397322,0.7357880575636536,0.8216368299612413,nan
1740792687.6016252,-0.0016883820758820066,-1.1490316046185833,1.6540537862148161,0.39781167057769223,nan
1740792687.605531,-0.5353841719085215,0.10194606903511597,1.7083274753951652,-0.2681070352673566,nan
1740792687.6094406,-0.12339217612759074,0.906728226929918,0.6432202671411466,-0.5197225050896265,nan
1740792687.6133466,0.5145041173821719,0.8107088016650486,-1.0257512071074297,-0.2646043597941777,nan
1740792687.6172523,0.5256869933581345,0.22266121770701938,-2.244488486746139,0.06771944395587355,nan
1740792687.6211581,-0.05668682963066529,-0.05141037434356473,-2.1480695335840854,0.15467803446372733,nan
1740792687.625064,-0.5041112437117418,0.3229509780320167,-0.7591506713708399,0.1455580117084421,nan
1740792687.6289697,-0.38887394823095983,0.8219043033694907,0.9587863019775184,0.3145301660199115,nan
1740792687.6328754,-0.06583340718065028,0.620208827572699,1.8282113006370344,0.5291718857638588,nan
1740792687.6367815,-0.09209658663521864,-0.44303656817466314,1.4052842217269224,0.32372535706059646,nan
1740792687.6406872,-0.4148447917509358,-1.5432305996019542,0.31622636560723827,-0.4434436195409966,nan
1740792687.644593,-0.408244576875827,-1.6249554852586638,-0.3682886049094494,-1.2004357162457624,nan
1740792687.6484988,0.27895413767275334,-0.4892903284712509,-0.1803928062085345,-1.139774733164799,nan
1740792687.6524045,1.144759836803079,0.9525716653108255,0.2951486463615419,-0.10114189383542872,nan
1740792687.6563096,1.2851043583126702,1.5571361304862288,0.08811325966769656,1.1520949574748116,nan
1740792687.6602156,0.3867322598763787,1.0262125577131804,-0.9838003595478841,1.6137919912935021,nan
1740792687.6641214,-0.874641813063979,0.05522451096703061,-1.8981484476615635,0.9534908675615612,nan
1740792687.6680272,-1.4757251063738994,-0.5143614580106488,-1.3836720915247567,-0.26292208616589613,nan
1740792687.671933,-1.012376566074496,-0.5182554457401832,0.6029515296077468,-1.1657458631304094,nan
1740792687.6758387,0.009175694174340158,-0.38656041677346764,2.495006666260502,-1.2832526622474922,nan
1740792687.6797447,0.7496532849303892,-0.4142394889589018,2.4825398982795037,-0.7241908146077981,nan
1740792687.6836505,0.789668640014615,-0.37879589685059484,0.3946847634124232,0.09915755914687997,nan
1740792687.6875563,0.3433548837316708,0.03824171729976257,-1.918832925518543,0.7675090843644963,nan
1740792687.691462,-0.1017573986076263,0.6520349864075738,-2.319628658785756,0.9799605543899601,nan
1740792687.6953678,-0.23473588872978485,0.860542119833954,-0.554280550600126,0.6464338630637606,nan
1740792687.6992736,-0.0793674746063517,0.37048922198472284,1.4547713855744693,-0.005490771349789221,nan
1740792687.703183,0.13051418330642803,-0.3650111789868567,1.6220531495080237,-0.5143800258659316,nan
1740792687.7070887,0.1654389409452554,-0.6203868553945588,-0.08661413430594672,-0.5449021346575721,nan
1740792687.7109947,-0.027460358334494676,-0.25518952583660326,-1.6566341697503586,-0.19979026605819925,nan
1740792687.7149005,-0.27395554586796156,0.11696435718555352,-1.2737176630031535,0.1073466289428213,nan
1740792687.7188063,-0.3181577642695203,-0.08418504068919319,0.6584751224016262,0.11130569008898482,nan
1740792687.722712,-0.09906532015778402,-0.601889935078759,1.9837756177232848,-0.060865939069169525,nan
1740792687.7266178,0.12817602829835986,-0.5645023292352568,1.2151465610786492,-0.14435336716479075,nan
1740792687.7305236,0.05608817171771096,0.4294116944271997,-0.8188057023655132,-0.104263668449343,nan
1740792687.7344296,-0.24512497105906186,1.6247676849961719,-1.9374914003114962,-0.08640436619760336,nan
1740792687.7383354,-0.28737334969478723,1.7277069238060392,-1.041466960369934,-0.05356489440095342,nan
1740792687.7422411,0.27511758560114835,0.2700269359969449,0.7564434915923087,0.2590413534604763,nan
1740792687.746147,1.0581524198363181,-1.7386631781047692,1.5068457187796638,0.8524796385475341,nan
1740792687.7500558,1.1463878720429699,-2.628366663093724,0.6195219125246773,1.113384294208045,nan
1740792687.7539616,0.08028149231350995,-1.5812510828611148,-0.650086011054762,0.33746881975668125,nan
1740792687.7578676,-1.4152618727833053,0.6309098831646333,-0.842942125094573,-1.252687689995133,nan
1740792687.7617733,-1.9469206316010366,2.3351760697156614,0.0015458965875986858,-2.30272494854353,nan
1740792687.7656791,-0.8635010463057377,2.3468114811550462,0.5853848801494175,-1.5523486141535112,nan
1740792687.769585,0.9416891311400548,0.8106382307612017,0.1032973000029852,0.6557862994974291,nan
1740792687.7734907,1.836828231567628,-1.080443260321294,-0.727989449872711,2.408291239219099,nan
1740792687.7773964,1.1032237240126477,-2.0570536509611155,-0.6261900554629865,2.069443493557363,nan
1740792687.7813025,-0.3569558474689531,-1.610284313951542,0.5380877054891804,0.04432183574420987,nan
1740792687.7852082,-1.0515272741365096,-0.19782337109307704,1.4325998895329268,-1.5897111057224669,nan
1740792687.789114,-0.5078070670570008,1.1610917885379424,0.8118029685568372,-1.308693992900916,nan
1740792687.7930198,0.34684295317765845,1.5819536552771443,-0.9097659021525933,0.2387965735506454,nan
1740792687.7969286,0.39750691406902355,0.8910414464664626,-1.969325415698799,1.0766944724754735,nan
1740792687.8008344,-0.33341648606278956,-0.28682517758827686,-1.159840690719546,0.23654598131061,nan
1740792687.8047402,-0.7982848978082767,-1.0328243843578968,0.8226483410982487,-1.145294506918406,nan
1740792687.808646,-0.26538954898489076,-0.8754523484540934,2.0897617213805493,-1.2437443922347466,nan
1740792687.8125517,0.7684428320383772,-0.13918112614598996,1.5048695475398444,0.22806588905030903,nan
1740792687.8164577,1.1714308148363783,0.4277627492693127,-0.25888791578558573,1.6395061052975373,nan
1740792687.8203635,0.5071706822322221,0.3843250282176468,-1.55680223678157,1.3556374177464465,nan
1740792687.8242693,-0.511641597640101,-0.042032400465043494,-1.4325718782086228,-0.3396369216415796,nan
1740792687.828175,-0.922296441923649,-0.2912468016346957,-0.3341613568618503,-1.575834626376278,nan
1740792687.8320808,-0.5906983757113677,-0.08534210866614474,0.6236625229146683,-1.05136917709376,nan
1740792687.8359866,-0.17063279033057824,0.34529704991938875,0.8050553457121188,0.53714038942743,nan
1740792687.8398926,-0.12007593912847271,0.5854376061303835,0.41375693037292777,1.3953961103089636,nan
1740792687.8438013,-0.11761303978318656,0.4518665725159332,-0.013055560511205258,0.6945535047599625,nan
1740792687.847707,0.3714685870364539,0.05079006866035477,-0.18055381724874178,-0.6250973329598007,nan
1740792687.8516128,1.1709203149393719,-0.44174993582773975,-0.12059112419892888,-1.0972512205897214,nan
1740792687.8555186,1.3955634012433291,-0.8801747084116678,0.029809399351966828,-0.39890612609199094,nan
1740792687.8594244,0.4791644596262754,-1.0370429912996393,0.1436564984686993,0.48461753239606076,nan
1740792687.8633304,-1.019571355776204,-0.6151122604483944,0.08907699568325055,0.5771058601296141,nan
1740792687.8672361,-1.871927964232199,0.40718691349911346,-0.18202662710873077,-0.007323565602757002,nan
1740792687.871142,-1.419325818418669,1.4639208271476851,-0.47260284951057047,-0.4172513426221771,nan
1740792687.8750477,-0.18394292646636254,1.682746716135452,-0.42721709642686584,-0.1964448344314112,nan
1740792687.8789535,0.7894928850287035,0.6971692006700113,0.06645003903588872,0.26927567215978465,nan
1740792687.8828592,1.0080212707175638,-0.8328671460720445,0.6146594856806338,0.3929042175998269,nan
1740792687.8867652,0.7903012620698653,-1.6907298481892319,0.6380211393610764,0.13256858390781534,nan
1740792687.890675,0.5902429985499478,-1.221425242624486,0.03152773202109883,-0.09625541152666361,nan
1740792687.8945808,0.3882907685380114,0.04193161116406108,-0.6114973797609258,-0.06785624391252101,nan
1740792687.8984869,-0.08826413501242777,0.9339682960446922,-0.5835701455853374,6.023893694845792e-05,nan
1740792687.9023926,-0.7399306558456292,0.8140020977521643,0.13427193779185712,-0.1323022991491141,nan
1740792687.9062984,-1.021902855108928,0.09303204547623456,0.7874795122654813,-0.3203266657820771,nan
1740792687.9102042,-0.5930467796110971,-0.3675631741551973,0.6421314397351567,-0.25131391002630843,nan
1740792687.91411,0.16780634481810344,-0.22206393265602778,-0.2073935462605284,0.054866249278204805,nan
1740792687.9180157,0.5184752541260745,0.12091273308512614,-0.9288577365495534,0.22800470557689145,nan
1740792687.9219217,0.20279306796057345,0.14453439168019777,-0.8355650991743032,0.07795344342435123,nan
1740792687.9258275,-0.255922724864963,-0.12047758844906721,-0.07141580836260177,-0.09027278873284969,nan
1740792687.9297333,-0.20015121237756656,-0.21734468983930744,0.6219011225973817,0.11116282625502248,nan
1740792687.933639,0.36135848763172046,0.07217949090394231,0.7111209354887703,0.5344759150114156,nan
1740792687.9375489,0.7728161151779921,0.40921772752176044,0.3231201337027296,0.5705068314290893,nan
1740792687.9414546,0.527175894686911,0.3256078089293702,-0.06541025430052463,-0.06751913436737364,nan
1740792687.9453604,-0.14563082241449016,-0.16556418769509051,-0.20235842999537945,-0.845939987406579,nan
1740792687.9492662,-0.5867384128740366,-0.5579012079817892,-0.2060296554050019,-0.9335077025497126,nan
1740792687.953172,-0.4830561683595893,-0.4494450258429116,-0.23488302826162213,-0.18737210205748323,nan
1740792687.957078,-0.1512225330470099,-0.0019566091102114695,-0.22220663273495841,0.6218539094752826,nan
1740792687.9609838,-0.04782070104009865,0.29066228566923474,-0.02988740008700047,0.680432575544518,nan
1740792687.9648895,-0.18906853632363704,0.20595029096052658,0.252196421675882,0.062218530347810226,nan
1740792687.9687953,-0.20644754766160742,0.011034312525627046,0.33447461420364244,-0.4152956885269605,nan
1740792687.972701,0.09933156050883354,0.05645124771353763,0.08607247516014566,-0.21414941780093238,nan
1740792687.9766068,0.46445811446967694,0.29566843226714046,-0.2543142383703707,0.303998944112606,nan
1740792687.9805129,0.49789332136847925,0.3468103437512244,-0.32594588727386653,0.4082106807335152,nan
1740792687.9844222,0.18112867576334077,0.005429711985868613,-0.06602887675502944,-0.039451625861147185,nan
1740792687.9883282,-0.12040726434938813,-0.451926854985275,0.22252773594453995,-0.43029062991566014,nan
1740792687.992234,-0.12436113284117775,-0.5616988325144853,0.24236139302391643,-0.2339477154068715,nan
1740792687.9961398,0.043575877821862535,-0.20786083116774165,0.04652883503429347,0.2923974341112781,nan
1740792688.0000455,0.06447694575789287,0.24528908230348015,-0.06739196670918647,0.4353117756021346,nan
1740792688.0039513,-0.14026522194425942,0.3647170023593089,0.03755128804504966,-0.04101396255849434,nan
1740792688.0078573,-0.33296477510987377,0.10647336317635396,0.15829519579358314,-0.5753740876973239,nan
1740792688.011763,-0.30568353702075163,-0.19110804316221472,0.026715753871118585,-0.5170975200448611,nan
1740792688.0156689,-0.1493242678780954,-0.21449711851230585,-0.31258573167963116,0.05685195148441552,nan
1740792688.0195746,-0.08164990794165855,0.015640746538023845,-0.5048565226393574,0.46270043487161683,nan
1740792688.0234804,-0.09552938034046354,0.24191144354459615,-0.2806905819209294,0.29314285261738743,nan
1740792688.0273862,0.05495967897054509,0.28092957635240035,0.2219355958504053,-0.09049593850892346,nan
1740792688.0312958,0.47599168527010316,0.16585219917637822,0.5827248745820038,-0.08269890935557665,nan
1740792688.0352015,0.8686522356938933,0.022162341172479578,0.5189791665689014,0.33104143005293524,nan
1740792688.0391073,0.7793396144110016,-0.09572670564151416,0.13298767818767668,0.5336431649241568,nan
1740792688.043013,0.11479535710473526,-0.20554248034602265,-0.24290538722040128,0.09307364173509775,nan
1740792688.046919,-0.692182800838966,-0.29762955463083457,-0.3773035756447781,-0.6245733795376321,nan
1740792688.0508249,-1.0794443500589879,-0.30994474793485516,-0.28713858418676036,-0.8544327092840492,nan
1740792688.0547307,-0.8661603826866221,-0.20307399849842314,-0.11968648764009547,-0.35577125843737406,nan
1740792688.0586364,-0.32677950815930906,-0.008972164841622516,0.019583911568265295,0.3018158770534221,nan
1740792688.0625422,0.17304609489493636,0.20971413104973896,0.1056174792079625,0.441138472609378,nan
1740792688.066448,0.49467445488599937,0.40318392146359466,0.13609606907348093,0.07895746802582984,nan
1740792688.070354,0.6721090366477399,0.506208113882502,0.1109459212426852,-0.16290997607326502,nan
1740792688.0742598,0.6836871241993665,0.4152181484239431,0.0639490205710563,0.11352068392942297,nan
1740792688.0781689,0.43196289737805216,0.07938529697792357,0.05169091224967269,0.5754125436034192,nan
1740792688.0820746,-0.04427941516683761,-0.3656904920329297,0.07784078455448826,0.5895919727232962,nan
1740792688.0859807,-0.4702304204904247,-0.6299983808739898,0.062392944572381606,0.01759509908906478,nan
1740792688.0898864,-0.556657553148183,-0.5176921507009943,-0.06554567798581591,-0.6154579800047579,nan
1740792688.0937922,-0.3042502546646834,-0.14379253787589075,-0.24770343403289094,-0.7437159811763121,nan
1740792688.097698,-0.007010097196956622,0.16147907675988152,-0.3171161492397345,-0.37259089891602415,nan
1740792688.1016037,0.06725110776286866,0.19576134539609408,-0.16832752843714405,0.032650360961971325,nan
1740792688.1055098,-0.05567620529539448,0.08802107747088646,0.11229577522246471,0.14909719513849695,nan
1740792688.1094155,-0.1385559260683448,0.11010954824284308,0.3182603066374642,0.102089039834029,nan
1740792688.1133213,-0.028311117686520466,0.3143464870416594,0.32228188994422247,0.16575445106156628,nan
1740792688.117227,0.1975504462933665,0.44503370756562366,0.17688353291747705,0.3447941241606876,nan
1740792688.1211329,0.35994039610726997,0.24840991580334798,0.015516221396526175,0.39702309371264755,nan
1740792688.1250417,0.36481780434876343,-0.1919891002632786,-0.10306427474745587,0.20033691702286063,nan
1740792688.1289475,0.22606376284456664,-0.5150496567867073,-0.211297696381714,-0.07887822081234382,nan
1740792688.1328535,-0.017877230700166894,-0.4768909781517232,-0.3119194002037299,-0.2265841280762292,nan
1740792688.1367593,-0.3082580373327697,-0.20406571401928128,-0.3082177742568836,-0.2532438181903656,nan
1740792688.140665,-0.4983603492976991,-0.0029286509701910743,-0.10638021641410443,-0.30540437036018186,nan
1740792688.1445708,-0.4055161849872364,0.02315697179023858,0.22503965185865252,-0.37256170977381614,nan
