timestamps,TP9,AF7,AF8,TP10,Right AUX
1740793642.955622,-0.5076029576745156,-0.17307969172379994,-0.07629861084962299,0.3337383054274275,nan
1740793642.959528,-0.6829171938233891,0.16115638676732363,0.40301761628004185,0.5755957758848558,nan
1740793642.963434,-0.5518166465655695,0.4211674115718318,0.4870283195038689,0.3993236813749061,nan
1740793642.9673398,-0.22148124892637233,0.30758049302885065,0.036003213418105265,-0.08509682443536208,nan
1740793642.9712458,0.12401692183519243,-0.04402700907864537,-0.49754128619508864,-0.48036613072111883,nan
1740793642.9751518,0.35928160735949116,-0.24336425249017418,-0.5400966342860721,-0.4660590361388516,nan
1740793642.9790578,0.465674337903756,-0.13454435667103973,-0.03953637334553868,-0.10447607802681577,nan
1740793642.9829638,0.4561428925062766,0.030957170642473216,0.4636031697035937,0.24074157698981694,nan
1740793642.9868698,0.3066772626865294,-0.050178705789601014,0.44165675123962866,0.2903387805795638,nan
1740793642.9907756,0.010879232859693782,-0.31520958773787594,-0.025560894065009474,0.1151642666661185,nan
1740793642.9946816,-0.3197946335614712,-0.39498456704123963,-0.3599341042767688,-0.006944238277621796,nan
1740793642.9985876,-0.4894239145735833,-0.07661665969523751,-0.17239944051754244,0.04413934639221189,nan
1740793643.0024965,-0.3995626467588075,0.4129383861948629,0.28212969837428514,0.09293891320784847,nan
1740793643.0064025,-0.16501904502900366,0.6474116662169528,0.4202511081484225,-0.07206141253903467,nan
1740793643.0103083,0.0110911482866351,0.45621353082137195,0.03595203859570529,-0.367883463906671,nan
1740793643.0142143,0.07307093080733537,0.05117885542502003,-0.4496013903577865,-0.4518375505917884,nan
1740793643.0181203,0.15377112575937016,-0.2682321149709531,-0.4906095673036572,-0.12149184540906466,nan
1740793643.0220263,0.3439945390460538,-0.411152022754952,-0.06164174094003088,0.39022425811549377,nan
1740793643.0259323,0.4884865330639341,-0.4483529793988358,0.33064105265068294,0.6116089179675769,nan
1740793643.0298383,0.3227925105934875,-0.38352406475560197,0.2705551182670844,0.33508297647639707,nan
1740793643.0337443,-0.16174485202257724,-0.128544192240611,-0.0768274777432964,-0.14646070721495577,nan
1740793643.03765,-0.588191469275238,0.2761443062833157,-0.20371828431883474,-0.3596444047118326,nan
1740793643.0415561,-0.5411631969868738,0.5580465044589784,0.08054723847774482,-0.17152272948381098,nan
1740793643.0454621,-0.0443728585759302,0.45976648048790175,0.3944238166774284,0.08927673068177439,nan
1740793643.0493708,0.4077033584219874,0.06561757531429116,0.2605900678241377,0.0501252101150874,nan
1740793643.0532768,0.36301133970372923,-0.2414694528967779,-0.2671090368116096,-0.24511309910661416,nan
1740793643.0571828,-0.08874336019837738,-0.20120716535371247,-0.6086992061263339,-0.38265347272801287,nan
1740793643.0610888,-0.41728087076484455,0.024936793171485692,-0.3207353955688475,-0.08374152161959966,nan
1740793643.0649948,-0.25445370455333166,0.06554972019137292,0.3575266622789756,0.42753962686461483,nan
1740793643.0689008,0.19845156557822238,-0.1815094748759774,0.726657016911417,0.6364596181075564,nan
1740793643.0728066,0.431309499778455,-0.4010819162221453,0.37727385280964226,0.2991498074115798,nan
1740793643.0767126,0.23051231504794042,-0.24554195505136678,-0.373869513219817,-0.2817053366374,nan
1740793643.0806186,-0.10040160303566367,0.21371347776837674,-0.8251331981638471,-0.5725025934534288,nan
1740793643.0845246,-0.15331818912507558,0.5311088974260891,-0.5965126193057273,-0.3542785472921381,nan
1740793643.0884306,0.06861743890995943,0.3860392074361688,0.059986979623665546,0.09632468146566238,nan
1740793643.0923367,0.17737066721272932,-0.05977953000199847,0.594420726144768,0.3458596108523252,nan
1740793643.096245,-0.07385096082762496,-0.36139724488224,0.6849589915884774,0.24582512103543835,nan
1740793643.100151,-0.43897535444199076,-0.2848082365883361,0.4116854026967736,0.004540472650486485,nan
1740793643.104057,-0.4600321087801377,-0.008239540590721007,0.03488342781780046,-0.11650035704148376,nan
1740793643.107963,-0.04150963638397635,0.15810078292053215,-0.25830874702768447,-0.08174678607809303,nan
1740793643.111869,0.40158955190285206,0.13461194125898931,-0.3956324184117321,-0.03877880136944483,nan
1740793643.115775,0.4223968572022142,0.07604108129558265,-0.3589894240109359,-0.07687773219755414,nan
1740793643.119681,0.06914361836683032,0.08170485811702967,-0.19748934938396498,-0.11711711102569942,nan
1740793643.123587,-0.18644967328323284,0.046082846028631184,-0.05534496264405466,-0.047180601975380744,nan
1740793643.127493,-0.03363832160013377,-0.14790879057235817,-0.05533891005476058,0.10650570531174895,nan
1740793643.131399,0.29603430247407636,-0.3815168614955116,-0.11400986109461986,0.19881164179905472,nan
1740793643.135305,0.317353670127944,-0.37363680954628203,0.023884535448030732,0.14157412084330198,nan
1740793643.139211,-0.10289150479552968,-0.0215268332910418,0.4569678294617307,0.005652965867903378,nan
1740793643.1431203,-0.5597388979627705,0.41880514716351636,0.8679708549597545,-0.06971545020389734,nan
1740793643.1470263,-0.5670178260267026,0.5654620467305326,0.7436426477449138,-0.03535417808444949,nan
1740793643.1509323,-0.10948912579040883,0.3050768605478786,-0.05078313931650178,0.031105401087531744,nan
1740793643.154838,0.35409124543239945,-0.10187158997308625,-0.9808830571725513,0.03054184258245082,nan
1740793643.158744,0.41299536344988724,-0.31045552028430773,-1.265014808264647,-0.0540456695748945,nan
1740793643.16265,0.12491985522408627,-0.23057551659738307,-0.6432216782983852,-0.1627817282489721,nan
1740793643.1665561,-0.12258055370709783,-0.05337207974382722,0.3345318426057415,-0.22783382722329265,nan
1740793643.1704621,-0.08362025075580898,0.006491304494568688,0.8498654725715606,-0.20738416605205262,nan
1740793643.1743681,0.11602581947308618,-0.07457550128745968,0.6176159417907869,-0.07651871581744911,nan
1740793643.1782742,0.2038297860630075,-0.1654769159410744,0.08548628156702542,0.15876234238646922,nan
1740793643.18218,0.09420622369884046,-0.15425276100601576,-0.1415694019663767,0.415323886149885,nan
1740793643.186086,-0.07740461246597616,-0.035145647924477275,0.0399867605803728,0.5373670264640272,nan
1740793643.1899953,-0.1849808179642235,0.1390164546877233,0.21929867633691752,0.4016245227214301,nan
1740793643.1939013,-0.24556484478920115,0.3140303548015492,0.03789576147371437,0.03747668736367209,nan
1740793643.1978073,-0.29295147607592936,0.4242346483327522,-0.38002245885947766,-0.37427151847196966,nan
1740793643.201713,-0.2321747768515342,0.3828871452141306,-0.6092422695994651,-0.6346996983098978,nan
1740793643.205619,0.05296088778049229,0.14510758614364513,-0.4250799319697887,-0.6521938715417472,nan
1740793643.209525,0.454348150444866,-0.21594177658911712,-0.0026442133820358286,-0.4435681276129105,nan
1740793643.2134311,0.6304364222346934,-0.53089939505396,0.3536809910779416,-0.06306890103834484,nan
1740793643.2173371,0.3432013240655877,-0.6484071402823676,0.5275022798250701,0.40702047253822987,nan
1740793643.2212431,-0.2258489682346458,-0.52013622510819,0.5606643225846386,0.7954111568784756,nan
1740793643.225149,-0.5979909586722685,-0.18961413356237058,0.42362512486048615,0.8582630705409127,nan
1740793643.229055,-0.47613078306417267,0.24670896243386775,0.009493277554138875,0.4619433460066354,nan
1740793643.232961,-0.046215587245389086,0.6344139210828392,-0.592155734511663,-0.2197799945103108,nan
1740793643.23687,0.25395158575940885,0.772363637215503,-0.9690788393967665,-0.7542913042054825,nan
1740793643.240776,0.22795177274628728,0.5368720782934141,-0.7203537690087137,-0.7828769852332175,nan
1740793643.244682,0.09069308809377236,0.044641477485995285,0.05932396203902964,-0.34025616661446506,nan
1740793643.248588,0.12544941592240247,-0.37001762635750174,0.7605854692382782,0.17743019115298403,nan
1740793643.252494,0.27267732808700107,-0.43870471380327825,0.8319399713920417,0.38406978188973234,nan
1740793643.2564,0.18676719600616953,-0.23854986686105306,0.3377741303007233,0.23698040134694123,nan
1740793643.260306,-0.2831860727993669,-0.11684373898877828,-0.14830313894281555,-0.00028383080466565973,nan
1740793643.264212,-0.7844415303469481,-0.28010617253772085,-0.2039279275580792,-0.08461323612992973,nan
1740793643.268118,-0.7561387136290186,-0.5038984052182295,0.0006458162016575869,-0.023271684106069564,nan
1740793643.272024,-0.0505172747175569,-0.35265672885625426,-0.008180275948202743,0.026773251694860868,nan
1740793643.27593,0.8207438081015448,0.28079052084685274,-0.36178141985103535,0.012436540870768722,nan
1740793643.279836,1.1327696014563886,0.9387591163540661,-0.6520476225538662,0.04619083491056692,nan
1740793643.2837448,0.6396642934184472,1.0057065812933303,-0.43039380552752693,0.20260833519974533,nan
1740793643.2876508,-0.21039320193977423,0.3639930384820755,0.21016748105212704,0.3369478658316293,nan
1740793643.2915568,-0.7410293542371147,-0.4335173983583796,0.6911635738278676,0.20249094009368657,nan
1740793643.2954628,-0.6781131037979824,-0.7064572686030951,0.5895732634571588,-0.2356750013766613,nan
1740793643.2993689,-0.3015332331670431,-0.3380449014723864,0.10325302640627622,-0.6717562516549928,nan
1740793643.3032746,-0.03852054816007127,0.1363468549624973,-0.20333008220589677,-0.7143949049735069,nan
1740793643.3071806,-0.006547175011068514,0.13507373201105344,-0.057046120792947,-0.27871369823823716,nan
1740793643.3110867,0.009461327021416242,-0.3372515536414319,0.23799131517895122,0.31300368380406823,nan
1740793643.3149927,0.2015442363805961,-0.7096289543813586,0.19446757902619446,0.6393184274790065,nan
1740793643.3188987,0.46771553105354813,-0.4696963162127693,-0.27427447232649743,0.563758296914832,nan
1740793643.3228047,0.5301941519493619,0.2911755052891683,-0.7502486132720636,0.2921384714924379,nan
1740793643.3267105,0.2678466629022211,0.9688567466575678,-0.7619717732749492,0.08261432448454596,nan
1740793643.3306196,-0.1385472664484349,1.0344258497242786,-0.25237017757434294,-0.02888895203328162,nan
1740793643.3345256,-0.39743420295106285,0.4983930514253725,0.414576977064332,-0.18064172742169635,nan
1740793643.3384316,-0.3914371934094065,-0.1730171257554927,0.8213289018322961,-0.41524454980123604,nan
1740793643.3423374,-0.24002341948188083,-0.5311464433125371,0.7997134248398086,-0.5536515206536141,nan
1740793643.3462434,-0.11317217536401002,-0.511022419736237,0.43471423570844103,-0.38911710851514153,nan
1740793643.3501494,-0.0479071485226141,-0.37765830065429623,-0.07995930905930966,0.030365717863014244,nan
1740793643.3540554,0.029611403949639032,-0.3763558023342608,-0.5202813223686896,0.3914680380653577,nan
1740793643.3579614,0.15038070770032014,-0.4601189408971107,-0.6655682170411509,0.4241002542170223,nan
1740793643.3618674,0.23898600588980115,-0.3509563276548944,-0.41804617540028766,0.18770113431666544,nan
1740793643.3657732,0.2163998163549005,0.1333434293696069,0.05185386788158548,-0.003853853364613579,nan
1740793643.3696792,0.11575608708125197,0.8046367563815818,0.36558044180862226,0.05129314518659623,nan
1740793643.3735852,0.04389001314583591,1.1745459643724194,0.25568781916645794,0.20410681415535795,nan
1740793643.377494,0.03491711944385822,0.863472176191096,-0.1521222363087206,0.13477136012246146,nan
1740793643.3814,-0.0011441047932404167,-0.0019630265646722518,-0.43234634070110933,-0.2368795646800286,nan
1740793643.3853061,-0.14604324691425982,-0.8144177241614928,-0.274351635799502,-0.5889904705675784,nan
1740793643.3892121,-0.3188100015995745,-0.9865685647863062,0.21288511048722444,-0.5094956502582237,nan
1740793643.3931181,-0.3210783221419114,-0.48734287902843193,0.6260500790414542,0.029928245315552188,nan
1740793643.397024,-0.07006546839230653,0.13189013418142737,0.6621443633023343,0.5714961155998811,nan
1740793643.40093,0.25045939006288903,0.28926630485169,0.34818928115418707,0.6008850500832793,nan
1740793643.404836,0.3379837202915656,-0.045146494515885115,-0.08526252798121656,0.08268807683061563,nan
1740793643.408742,0.09499755315817078,-0.35405620512442315,-0.45390184697805164,-0.4756800633068594,nan
1740793643.412648,-0.23155260720569318,-0.16675736162782787,-0.6849055661991842,-0.528221086792354,nan
1740793643.416554,-0.28439873869874344,0.40814956704148914,-0.708321309333343,-0.04653096530569808,nan
1740793643.4204597,0.02381863661298865,0.8017397885778165,-0.43138962123874375,0.46103997506089794,nan
1740793643.4243686,0.3998032588031755,0.6137099955485268,0.10685120242469276,0.4890428332518264,nan
1740793643.4282744,0.4647363343873643,0.035551615594613666,0.6260289824625156,0.05477588258137044,nan
1740793643.4321804,0.1434259833651861,-0.3958608792131202,0.7750280799480399,-0.3543849692301583,nan
1740793643.4360864,-0.271783551875126,-0.3982149560449301,0.463460617461085,-0.32967541959929214,nan
1740793643.4399924,-0.4389154213521226,-0.194734474109945,-0.02181906488736036,0.02883376873470866,nan
1740793643.4438984,-0.30302933081615724,-0.16277659162176,-0.28401201581293095,0.2651494168531676,nan
1740793643.4478045,-0.09083941960055673,-0.34789204645569805,-0.19426202623033179,0.10517173050163954,nan
1740793643.4517102,-0.010280293019595507,-0.434070409539217,0.02536840415226634,-0.24221161477072897,nan
1740793643.4556162,-0.028342461885708905,-0.16950352223115298,0.07723572060790093,-0.3512460627953371,nan
1740793643.4595222,0.02870638794994835,0.3045354359870589,-0.10867628948576924,-0.08332776065394482,nan
1740793643.4634283,0.2132673886470919,0.6175634740558577,-0.355008469176926,0.26327139378901465,nan
1740793643.4673343,0.37297763753247154,0.5916629480565966,-0.4507040834956019,0.3194490778127279,nan
1740793643.471243,0.33798699310822683,0.38783181708370973,-0.3188192044512418,0.07929453074221152,nan
1740793643.475149,0.12585967443484533,0.22795650169516926,-0.006203448609168706,-0.11512684632966974,nan
1740793643.4790547,-0.09426061939665756,0.0898780794602755,0.38234094289280807,-0.010181800557942123,nan
1740793643.4829607,-0.21188691822052594,-0.21671463216288142,0.6836708189353747,0.23579358716894747,nan
1740793643.4868667,-0.2715495188205333,-0.7008680634074983,0.6910786540141637,0.23922312183992225,nan
1740793643.4907727,-0.33731439515358586,-1.0404515470060067,0.3068970337150181,-0.1288143631235408,nan
1740793643.4946787,-0.3372208417140284,-0.8614215816582839,-0.2776449512569033,-0.5445952962436355,nan
1740793643.4985847,-0.1373262032600766,-0.14469948464418578,-0.6495785092689372,-0.5651302923859214,nan
1740793643.5024905,0.22680975428210876,0.6986184481850275,-0.5354957286966627,-0.11956273760526082,nan
1740793643.5063965,0.4887778751181147,1.1608516673224996,-0.10283732505269555,0.4003812805064603,nan
1740793643.5103025,0.4062697901025781,1.0248822792448251,0.18427089713553427,0.5481192873357933,nan
1740793643.5142086,0.057509362290547636,0.45624603737522723,0.060233626515202,0.26620569020284435,nan
1740793643.518118,-0.2065307556541085,-0.19319084287384805,-0.24138298952430676,-0.10821970982478538,nan
1740793643.522024,-0.14713377819906268,-0.6232943605235568,-0.256348285918113,-0.2346444493513013,nan
1740793643.52593,0.08397846158425312,-0.7046225055886088,0.1539496809473385,-0.09252569215432327,nan
1740793643.529836,0.129754682603674,-0.4967247225988736,0.6066223451113218,0.08795938206529148,nan
1740793643.533742,-0.12143088990388667,-0.20176193839130474,0.6116680038521788,0.1303268013343827,nan
1740793643.537648,-0.3700449912428354,-0.027705680079438095,0.12860843735729424,0.06363680910561541,nan
1740793643.5415537,-0.2587918074349304,-0.007251340937165759,-0.3804196067021071,-0.009651536121478756,nan
1740793643.5454597,0.16005866750841596,0.04042873292657756,-0.4601709116986149,-0.08908158136621236,nan
1740793643.5493658,0.4281365718716283,0.2909480784057294,-0.14138447649463812,-0.2383953687878225,nan
1740793643.5532718,0.1996547062854094,0.6375471763909821,0.14647380764707052,-0.40390944874780393,nan
1740793643.5571778,-0.3176791920203251,0.7158058426310614,0.08833298259965656,-0.37751515624138665,nan
1740793643.5610838,-0.5452075366771555,0.2917054215135951,-0.18990610151032278,-0.013859693277208417,nan
1740793643.5649931,-0.17055607298498218,-0.3997970305047539,-0.3229039160981737,0.5353025347888978,nan
1740793643.568899,0.4790129654697557,-0.8107418990223585,-0.14104113665765594,0.8739910174125303,nan
1740793643.572805,0.7664109313060947,-0.626802902836699,0.1781876469102371,0.6964009433669905,nan
1740793643.576711,0.41779807065558683,-0.09755211829625995,0.35779307016548834,0.07473238309454137,nan
1740793643.580617,-0.21007349016255125,0.2518437358797168,0.3122367429002835,-0.5879336468353699,nan
1740793643.584523,-0.5457896306947869,0.2029083098290071,0.15414041614032634,-0.8839145720779601,nan
1740793643.588429,-0.40651887419114574,0.029900606572259975,-0.0013148661500895417,-0.6931253187187015,nan
1740793643.5923347,-0.1140287205576425,0.08095684245516262,-0.1334820991947624,-0.20880143712359447,nan
1740793643.5962408,-0.0441789116395121,0.30000497256062786,-0.22932777154798484,0.2591683226214999,nan
1740793643.6001468,-0.17738018536885808,0.3085728981134395,-0.21516917501675764,0.4969639080088779,nan
1740793643.6040528,-0.17074439086671458,-0.05519242338256499,-0.05402154091495687,0.4722499444252242,nan
1740793643.6079588,0.17025683815615086,-0.4495030991024487,0.13595746697466576,0.29217548539347943,nan
1740793643.611868,0.6031623095836145,-0.4021956159301945,0.16188230492921363,0.10080552938577453,nan
1740793643.615774,0.6856684125945469,0.09524707904532911,-0.018893555615507526,-0.02185123701738193,nan
1740793643.61968,0.26204302876521923,0.5249078552134847,-0.22072614704143687,-0.10135349988697254,nan
1740793643.6235857,-0.3484661743990248,0.4194586531485829,-0.22864554481263574,-0.20939245598281275,nan
1740793643.6274917,-0.655994863061176,-0.11013900284724096,-0.03838812223996413,-0.34391430562913855,nan
1740793643.6313977,-0.45889287104736604,-0.5256501967940456,0.16480176282535172,-0.38099751783369473,nan
1740793643.6353037,0.005358863776664003,-0.48041459895843447,0.24647618399396043,-0.18984239661497995,nan
1740793643.6392097,0.32033686320010774,-0.14335517302141446,0.24930900888186552,0.18423975329903922,nan
1740793643.6431158,0.26414845622630756,0.11418511640843929,0.24630221490650508,0.4889230439943515,nan
1740793643.6470215,-0.04480318114095107,0.1932593056920973,0.16773343498670704,0.47405598155236833,nan
1740793643.6509275,-0.30011817138466035,0.27863001908181695,-0.09801621114996789,0.14653151186808602,nan
1740793643.6548336,-0.2735165122382745,0.43916073505189845,-0.44270278446597167,-0.2180377417520303,nan
1740793643.6587427,0.021477919184458846,0.43785656208608903,-0.5352861848389067,-0.34523962072685654,nan
1740793643.6626487,0.3582727271971548,0.06066922227373541,-0.20151412218735917,-0.22355918948270273,nan
1740793643.6665547,0.47489004060369283,-0.4853122081376529,0.2625963122893674,-0.06472355373700638,nan
1740793643.6704605,0.27627294080366055,-0.7054752926346575,0.3374919845869741,-0.022298918029928512,nan
1740793643.6743665,-0.0867910422058063,-0.3856547861594673,-0.0913411428134001,-0.01913104707759082,nan
1740793643.6782725,-0.3407576955846406,0.12607822185038023,-0.48690209306226334,0.1042131589642972,nan
1740793643.6821785,-0.3266788671237978,0.32238543699129174,-0.21915985285034967,0.31847708528629454,nan
1740793643.6860845,-0.13295493584814036,0.1368237554078619,0.6317962299588088,0.3804732706020037,nan
1740793643.6899905,0.018310915678835516,-0.026878504322837404,1.2125073228499537,0.12008843018168322,nan
1740793643.6938963,0.016894159349637363,0.12722929479230854,0.7778875771479905,-0.3040400577387758,nan
1740793643.6978023,-0.03313224945814413,0.369938623710995,-0.42554722316921106,-0.5201013412153063,nan
1740793643.7017083,0.02385933629503001,0.2590518600989951,-1.3285461054197825,-0.3312080172914369,nan
1740793643.7056172,0.1657676346124463,-0.22089786791050425,-1.1453860981488473,0.0668970303052159,nan
1740793643.7095232,0.19637705355884388,-0.5591291611687664,-0.19004816060135052,0.29822449649783517,nan
1740793643.7134292,0.0051249583262687175,-0.3391528777368791,0.5272004503510209,0.207450122785412,nan
1740793643.7173352,-0.234209392010016,0.2065982427883077,0.4445936322803425,-0.007545655909456802,nan
1740793643.7212412,-0.21198228373990727,0.4524292108614078,0.00016462789813481983,-0.06174905836885112,nan
1740793643.7251472,0.14596002035968114,0.15104350380625797,-0.019278616815296374,0.086821517577103,nan
1740793643.729053,0.5183487739109404,-0.2660633310487278,0.49930181917501293,0.22254461049833488,nan
1740793643.732959,0.47820181026088476,-0.2594882782638716,0.8516918366468358,0.15155263996167878,nan
1740793643.736865,-0.044209336696323334,0.11066352237547292,0.40963855471321836,-0.08246192407092902,nan
1740793643.740771,-0.6372950930305613,0.2731929083104731,-0.5546898257261894,-0.27962617465009376,nan
1740793643.744677,-0.7891119352681163,-0.06887407624593579,-1.1220066748274555,-0.31260744103651855,nan
1740793643.748583,-0.384977484399385,-0.4885620083112077,-0.7541237782696137,-0.20984781324639326,nan
1740793643.7524917,0.1997530939431478,-0.3488684037742871,0.1229899758314694,-0.044192060211745016,nan
1740793643.7563977,0.49281774114894356,0.34610756988946695,0.636505820616065,0.15856133595519478,nan
1740793643.7603037,0.3714294498589133,0.8691260806200566,0.4270297875695862,0.35321788025193435,nan
1740793643.7642097,0.10815563128169746,0.611658345761998,-0.0673015771687364,0.3956884737432065,nan
1740793643.7681158,0.02308880500905714,-0.18095396826433463,-0.24001123347217013,0.1537399956826356,nan
1740793643.7720218,0.15239706949022158,-0.7012186263354243,-0.01699860081609268,-0.2710599924861885,nan
1740793643.7759275,0.2655327330567083,-0.5337243987949444,0.18875887901976426,-0.5258861034233209,nan
1740793643.7798336,0.15171681232210896,-0.08433817923059243,0.09258967939919646,-0.32310730140075117,nan
1740793643.7837396,-0.16278722157836545,0.018086352484962924,-0.11677042329182567,0.21280409644850087,nan
1740793643.7876456,-0.4664648448487704,-0.2538097730659634,-0.09831954890170116,0.5949464135578095,nan
1740793643.7915516,-0.5710830523780237,-0.32964463989831444,0.1487053613196487,0.4387582971333669,nan
1740793643.7954576,-0.44252965473147166,0.1645849217945397,0.2883558484279878,-0.13341539126725468,nan
1740793643.7993662,-0.1662715328504887,0.8650585212648676,0.10939035613704012,-0.5990196590388263,nan
1740793643.8032722,0.15247544875320998,1.0653075296651389,-0.19811074340163481,-0.5532706404397467,nan
1740793643.8071783,0.4340734295211981,0.5246785333546055,-0.3116815889355991,-0.08797702910137013,nan
1740793643.8110843,0.6083784065980723,-0.30933700470731074,-0.20197266734512526,0.35036228463439084,nan
1740793643.81499,0.6058094672999887,-0.8525053675985809,-0.1276888432210608,0.42620315985155527,nan
1740793643.818896,0.3909223809121959,-0.9354711346688142,-0.21839412866365854,0.19197071833842952,nan
1740793643.822802,0.007669270231128555,-0.7232742884487237,-0.24164550008751695,-0.062356069870897764,nan
1740793643.826708,-0.41056529092476385,-0.31291277926665795,0.08770072481161502,-0.13893251638153506,nan
1740793643.830614,-0.6850546618951358,0.3018671817394763,0.644093942897478,-0.06554128918562173,nan
1740793643.83452,-0.6784036624361696,0.8924469361070835,0.9156873919214503,0.03295779328371219,nan
1740793643.8384259,-0.3846233395577324,0.9656241658375273,0.5562788806577561,0.08834588181817116,nan
1740793643.842332,0.04312388218229072,0.32568669893545127,-0.18877227264750554,0.08996404281091637,nan
1740793643.8462405,0.3766780936346703,-0.4747068493345524,-0.7164678508013613,0.017204625840010073,nan
1740793643.8501465,0.4689192033880625,-0.5916252330306939,-0.6950875350845229,-0.13848549373953462,nan
1740793643.8540525,0.3506233371175896,0.09720492434642009,-0.3506891608905426,-0.29317680868933227,nan
1740793643.8579586,0.17027299161992407,0.6993674901713632,-0.11310417730351086,-0.29914774592670246,nan
1740793643.8618643,0.039043276796380574,0.3007796392991351,-0.10231644600292732,-0.10618454230515983,nan
1740793643.8657703,-0.04666554551085141,-0.8371632334295518,-0.07730386560529605,0.14621932817730945,nan
1740793643.8696764,-0.12713898869836276,-1.4179348779147452,0.16124346881309226,0.2645094526670743,nan
1740793643.8735824,-0.1704495287478821,-0.5975084269219306,0.4829166309461377,0.2253417016197213,nan
1740793643.8774884,-0.10392044035143858,0.9115352871782201,0.6111016182923165,0.1945547799192868,nan
1740793643.8813944,0.040937314132204826,1.5399361795741802,0.48203798958954724,0.285303571647427,nan
1740793643.8853004,0.09050011153609995,0.6392006872932987,0.2741101126535674,0.3557056942017482,nan
1740793643.8892062,-0.08331219026556852,-0.7635321192894511,0.09315374783129238,0.1416543883874612,nan
1740793643.8931158,-0.3474618756547354,-1.1540980019645357,-0.2004283984621115,-0.3886226117305785,nan
1740793643.8970215,-0.3778986162200336,-0.24067286096953994,-0.7259177120948018,-0.8882315533038164,nan
1740793643.9009275,-0.020790027139396348,0.8426138265417946,-1.2200701085418424,-0.9205277013905873,nan
1740793643.9048336,0.4547323569130229,0.9744091181348892,-1.1394049417402345,-0.39751258243364623,nan
1740793643.9087396,0.5755026904137074,0.2724989731885797,-0.23925911440851436,0.31971635526860614,nan
1740793643.9126456,0.18794757303792095,-0.33773642589051217,1.0107141182171724,0.7719073063535519,nan
1740793643.9165516,-0.30601867239189534,-0.45011744995270464,1.723699466439655,0.8063651010924111,nan
1740793643.9204574,-0.3427902051590399,-0.5446545464876006,1.3734981727971427,0.6022577573846384,nan
1740793643.9243634,0.1580380465196146,-0.9720085906421896,0.2628408217332434,0.3549632264682153,nan
1740793643.9282694,0.6346739744585672,-1.1228389038266444,-0.7849297748210107,0.051288683853016236,nan
1740793643.9321754,0.4561056141472978,-0.14991685499903415,-1.1572844158834614,-0.39167590282916237,nan
1740793643.9360814,-0.363002824832316,1.597109099299482,-0.8683339057189642,-0.844499588164828,nan
1740793643.9399915,-1.1077168324644409,2.4930102287992666,-0.34299979171084044,-0.9611153078658949,nan
1740793643.9438975,-1.066576643945727,1.386037901955276,0.07186300465404176,-0.5278537978387792,nan
1740793643.9478035,-0.2476839902658173,-0.8569929156438355,0.3325849013728295,0.22405427835574276,nan
1740793643.9517095,0.6555325833012455,-2.0945637472264154,0.5289223099966236,0.7433228485404345,nan
1740793643.9556155,0.9785633890801829,-1.2829808073210318,0.6291198233611085,0.6496483273645638,nan
1740793643.9595213,0.6835687675162265,0.34555457657735444,0.463778522212982,0.10291326839010818,nan
1740793643.9634273,0.23796413407132339,0.8097030672958719,-0.04889135998855238,-0.3340040553748101,nan
1740793643.9673333,0.014396439873617252,-0.21062644974857203,-0.6949405158471409,-0.2200410714690304,nan
1740793643.9712393,-0.054978806691158705,-1.0715497349809513,-1.0148307310828621,0.34452565912338023,nan
1740793643.9751453,-0.22773228440703513,-0.36159247788868093,-0.634831452746803,0.7903911251467687,nan
1740793643.9790514,-0.5056053851236112,1.194344823227563,0.3458036708624361,0.5829209861476143,nan
1740793643.9829574,-0.588796161689061,1.6060614612534994,1.2672601415435538,-0.2749010443126068,nan
1740793643.9868665,-0.2793461514379989,0.2196518826515334,1.3360845911659713,-1.1772237613509626,nan
1740793643.9907725,0.1951417541810895,-1.2962960085812953,0.3393408850121886,-1.3788316639587155,nan
1740793643.9946783,0.37320546882331923,-0.9722308643326741,-1.0009734953364862,-0.6365596170422054,nan
1740793643.9985843,0.07360086908596505,0.8932713410191675,-1.538627752861283,0.5243116825671598,nan
1740793644.0024903,-0.3602775214847325,1.9252020347882441,-0.7758963554829121,1.2144528884419368,nan
1740793644.0063963,-0.38544828602086456,0.5531936890487523,0.5442821265389401,0.9592611897193943,nan
1740793644.0103023,0.17486647603666847,-1.933577827432017,1.0877100143344038,0.13450330966793636,nan
1740793644.0142083,0.9107194659426044,-2.7849117549578706,0.31383283144804897,-0.41453399901852,nan
1740793644.018114,1.1731162097548933,-1.02924664592363,-0.8601243062155155,-0.24105837836302796,nan
1740793644.02202,0.6517197753634719,1.387767542567153,-0.9737637599463459,0.2497334095696883,nan
1740793644.025926,-0.3489435946927915,1.9605124799570615,0.34131318720121073,0.29533867222606697,nan
1740793644.0298321,-1.161444106488587,0.5684239757056617,1.8101015167518852,-0.28966114981079644,nan
1740793644.0337412,-1.2954812289880981,-0.5953752473156168,1.7857548381124424,-0.8256754969295215,nan
1740793644.0376472,-0.802143397181132,0.06754392013435882,0.04372703654202116,-0.5518293567811094,nan
1740793644.041553,-0.16249744367778096,1.5186183668829967,-1.890182683531151,0.3680303422637382,nan
1740793644.045459,0.19401759240583552,1.4657811277543449,-2.2924012801968754,0.867784279475426,nan
1740793644.049365,0.2959694254109036,-0.6125748515040079,-0.979340841855611,0.17955262863150162,nan
1740793644.053271,0.5402095898549337,-2.654037595129438,0.6617312852604609,-1.0953390909818463,nan
1740793644.057177,1.137554296877211,-2.4612338479897753,1.2704921560057063,-1.4120480861554834,nan
1740793644.061083,1.6573779186361617,-0.35325586562055794,0.8415098522185707,0.039296510491760625,nan
1740793644.064989,1.2738921889617416,1.2859786456775,0.34917914620440527,2.1942233706188587,nan
1740793644.0688949,-0.34487180000623735,0.9637161883484591,0.3516222446732574,2.9269847282018797,nan
1740793644.0728009,-2.361611318545587,-0.18120163621706464,0.3994427316324899,1.1613698835296755,nan
1740793644.076707,-3.181077986272275,-0.007522884166213201,-0.10798363078199204,-1.8889557215674255,nan
1740793644.0806158,-1.8188876513449028,1.7208769164754223,-0.8995429537818944,-3.7192823030133746,nan
1740793644.0845218,1.0028239260537142,2.8352631616133213,-1.0926601416140367,-2.8214266685586726,nan
1740793644.0884278,3.219918586387461,1.3510807988873834,-0.4048835113252198,0.010184821209611781,nan
1740793644.0923338,3.0991106889383575,-1.9900094336061085,0.3714305125514879,2.538753097701006,nan
1740793644.0962398,0.7305715766266826,-4.29176568719068,0.3855202555164705,3.0767855758192324,nan
1740793644.1001458,-2.0495078857894633,-3.505846332605095,-0.07497471203571134,1.645581837751726,nan
1740793644.1040518,-3.2031244220185573,-0.4130750526358133,0.07028581607917886,-0.49247670592784576,nan
1740793644.1079576,-2.052071726796897,2.4423590787986855,1.069237368458471,-2.023998936962245,nan
1740793644.1118636,0.4377531765020556,3.30485168607689,1.5977433815140263,-2.264902371052835,nan
1740793644.1157696,2.6023639005848573,2.3540894553000613,0.22779607314735315,-1.1518322222374926,nan
1740793644.1196756,3.20487805978441,0.7149908325049826,-2.4198782622323276,0.8241369105010081,nan
1740793644.1235816,1.9432540345749663,-0.8649491467958478,-3.6632337027313087,2.542241962712366,nan
1740793644.1274905,-0.5841589538665293,-2.0776347729126514,-1.4779661959884332,2.623087234971403,nan
1740793644.1313965,-3.0848316104711473,-2.4300326987627416,2.8667829128972033,0.5430086757718516,nan
1740793644.1353023,-4.01001420671376,-1.4063605197111149,5.482268755098986,-2.435396118000757,nan
1740793644.1392083,-2.46187075993199,0.6038507668493357,3.59190806806607,-3.871833493018733,nan
1740793644.1431143,0.8519931760566162,2.148609780067127,-1.5004034516013824,-2.2560869487456614,nan
1740793644.1470203,3.695695500366511,2.0246411130206647,-5.475674317416945,1.3139194149739342,nan
1740793644.1509264,3.8994660938183485,0.6108938252042561,-5.1038186598756194,3.8351965215079447,nan
1740793644.1548324,1.3223974637607665,-0.5780096453389282,-1.1448967504093919,3.130207752601009,nan
1740793644.1587381,-1.8026296515703286,-0.7154875450315629,2.794963298182134,-0.031163380265558736,nan
1740793644.1626441,-2.8146384550410692,-0.5421115224791511,3.9175529173530395,-2.6574900999869095,nan
1740793644.1665502,-1.137880748073081,-1.084711992048878,2.4512075638803044,-2.4634390764937306,nan
1740793644.1704562,1.2011480898446318,-1.8975278841462182,0.5175004631660799,-0.028542782512405013,nan
1740793644.1743648,1.694765651737781,-1.3494083434706015,-0.4716474079518005,1.981705367344787,nan
1740793644.1782708,-0.04671593014867623,1.1120287769997508,-0.828287531262318,1.6118391249303072,nan
1740793644.1821768,-1.9702556780578593,3.6131341585286068,-1.3508634268560873,-0.5239264169970601,nan
1740793644.1860828,-1.873576210420748,3.53011631834046,-1.8879230408280947,-2.119782872355846,nan
1740793644.1899889,0.18265517904050768,0.5389070432969361,-1.582656633536131,-1.647014078744563,nan
1740793644.1938946,1.9734481257344185,-2.6623945895375605,-0.23543389211081847,0.24537315772055132,nan
1740793644.1978006,1.5884810048528835,-3.142546475708003,1.1928904709211225,1.668962370060409,nan
1740793644.2017066,-0.4466871527459224,-0.9587355147112527,1.6313000783969778,1.506159032700485,nan
1740793644.2056127,-1.7321826208975815,1.0071389647999351,1.0979451834592433,0.32173909632612446,nan
1740793644.2095187,-0.6214517783582992,0.4912117034841096,0.5013576821798363,-0.5388538293696159,nan
1740793644.2134247,1.9240454884172025,-1.4856414030921754,0.382824200887601,-0.4241341810433655,nan
1740793644.2173305,3.225829533530355,-1.913849737416409,0.29700295670026117,0.1590727302039528,nan
1740793644.221239,1.5825011377648746,0.48754412446622103,-0.3931001226786174,0.3343027090654546,nan
1740793644.225145,-1.9884089475526094,3.574529021946675,-1.4393650698342657,-0.17187686980878195,nan
1740793644.229051,-4.636497988985084,4.121638190280812,-1.8405168188513346,-0.8742259784977764,nan
1740793644.2329571,-4.217186037788932,1.4287707494771968,-1.0466290525335233,-1.1279370500618877,nan
1740793644.2368631,-1.0493494482908277,-1.9915601462685386,0.32977307665991035,-0.7065987217908947,nan
1740793644.240769,2.5556979231507557,-3.279635906444025,1.214576921560046,0.14178895821920126,nan
1740793644.244675,4.288902455828856,-2.1668458500683547,1.2608046163237232,0.9871861526470703,nan
1740793644.248581,3.49143309667309,-0.6990515856204378,1.0044627299853912,1.4573715457092113,nan
1740793644.252487,1.2394484343935799,-0.4543964724081508,0.883689325473204,1.320289826427458,nan
1740793644.256393,-0.839685237407604,-0.7890470834498482,0.543955065218988,0.5586063978557089,nan
1740793644.260299,-1.8142583196490256,-0.059403980654599016,-0.5558558164141841,-0.5322900257140128,nan
1740793644.2642047,-1.811986958042714,1.9719741793051053,-2.0359927370939372,-1.403361352179129,nan
1740793644.2681143,-1.471000539976138,3.6007280770161887,-2.5863603767882233,-1.563250971660488,nan
1740793644.27202,-1.1674243972274263,3.073674163649323,-1.3134818111960844,-0.9307524546162489,nan
1740793644.275926,-0.7451121678329118,0.5404075214151652,1.0951980598326523,0.0956128580738664,nan
1740793644.2798321,0.0870558175602431,-2.1523622280853485,2.8471847492556925,0.9239668794090043,nan
1740793644.2837381,1.182252560079334,-3.3328779343519797,2.7031363647252524,1.1586142065491094,nan
1740793644.2876441,1.8780521346729955,-2.7951708560242574,0.9952365878126858,0.792841983307778,nan
1740793644.2915502,1.5809788764580646,-1.3665658132209175,-0.9671209974998998,0.12874549659553589,nan
1740793644.2954562,0.4398609815980662,0.21135785472313853,-2.1728449052064054,-0.44391519393466816,nan
1740793644.299362,-0.6590620660417217,1.6058260080585036,-2.385483921635589,-0.6551412657799669,nan
1740793644.303268,-0.8834355935726695,2.429619972175979,-1.6696434446579966,-0.46733316055655405,nan
1740793644.307174,-0.26448786275315217,2.133649099648218,-0.07884527671404415,-0.058500372039060056,nan
1740793644.31108,0.34628879390696277,0.6695581363588825,1.9067316058253156,0.31497022226357146,nan
1740793644.3149893,0.1692100571323021,-1.0386598422419102,3.060900844090124,0.4790745344399269,nan
1740793644.318895,-0.6946693376337649,-1.7365505581912084,2.2359724203312275,0.3925941703987696,nan
1740793644.322801,-1.3890644187386216,-1.0516034520541329,-0.24525762356380448,0.07717132481256872,nan
1740793644.3267071,-1.1906218120559973,0.14639543941391372,-2.4242231679839836,-0.41728708141891196,nan
1740793644.3306131,-0.18618447012774766,0.7022080121922433,-2.449296184630806,-0.9086853966055949,nan
1740793644.3345191,0.9169608341897768,0.33276775855348306,-0.5314802409501751,-1.0086165515191263,nan
1740793644.3384252,1.5022891094076143,-0.3027269415446384,1.2000417328749073,-0.35582928016253684,nan
1740793644.3423312,1.453213450400123,-0.5147132376106168,1.0031409885599425,0.9055200940644664,nan
1740793644.346237,0.9668347619646686,-0.2636995784936424,-0.5551104685255215,1.9352773088209896,nan
1740793644.350143,0.2311868496576026,0.0823027529623929,-1.31610930895873,1.7469139963316158,nan
1740793644.354049,-0.5742314324213585,0.3276895367680274,-0.09996302706854815,0.1774162010447967,nan
1740793644.357955,-1.1291714947096763,0.5106360738281484,1.8764372093025787,-1.7096384920517342,nan
1740793644.361864,-1.1294723631750414,0.5432622204915051,2.399294950274543,-2.4115306299086816,nan
1740793644.36577,-0.684075264495648,0.19549431638182696,0.7987004865622197,-1.3608737750056046,nan
1740793644.369676,-0.33528558561947064,-0.4304927403010398,-1.3629397227854025,0.4945332420158327,nan
1740793644.3735821,-0.43810257839874345,-0.7276119876521367,-2.160969446899042,1.5938600029695156,nan
1740793644.377488,-0.579174567407929,-0.24004017819080853,-1.3852714098710226,1.2694947386076563,nan
1740793644.381394,0.0651687459416587,0.5840283016454201,-0.38109702736176904,0.27320530256012554,nan
1740793644.3853,1.598771043213837,0.707602878994576,-0.09940700624516693,-0.21558044017078876,nan
1740793644.389206,2.835329590858193,-0.22247320580493554,0.013869669590029676,0.05654578676658086,nan
1740793644.393112,2.2651131034205063,-1.2038479017609445,0.902063485372925,0.256359272607132,nan
1740793644.397018,-0.22789795549777478,-0.8999771178179752,2.1723668530277007,-0.35389526836233337,nan
1740793644.400924,-2.8357482732644894,0.6548458275326009,2.2345591832756058,-1.3419960893369256,nan
1740793644.4048297,-3.3629746947961703,1.797073343600312,0.33410392227689195,-1.4856863318840168,nan
1740793644.4087389,-1.4028409816787741,1.0185245079556395,-2.1099993030900395,-0.2255932294282502,nan
1740793644.4126449,1.186758407162644,-1.1467391749051563,-2.7951626743680764,1.515594728129883,nan
1740793644.4165509,2.1294531888862087,-2.451387281165712,-1.1241218942566793,2.176207607107143,nan
1740793644.420457,0.9779908974099669,-1.318259509106247,1.026593696721097,1.1669238759190093,nan
1740793644.424363,-0.6281826750740468,1.3575936308432244,1.4190047340461636,-0.5512720813390509,nan
1740793644.4282687,-0.8887698990850116,3.0660396132553247,0.00951802090753448,-1.5366555798689128,nan
1740793644.4321747,0.242878595335669,2.258814466153873,-1.1086941037005136,-1.316825613168239,nan
1740793644.4360807,1.2258806065826269,-0.20759178598495034,-0.3160849009477027,-0.596572764785008,nan
1740793644.4399867,0.8230676776978753,-2.2024575864216103,1.528562044137161,-0.1525247113612846,nan
1740793644.4438927,-0.5242724043434354,-2.510624791245784,2.1238875930839973,0.10230673103259764,nan
1740793644.4477987,-1.323357067747966,-1.6078633650032752,0.5417867011257718,0.7231285572220222,nan
1740793644.4517045,-0.7750472409853851,-0.5234153525874718,-1.6039152064949125,1.6124075851557638,nan
1740793644.4556136,0.41654667776057036,0.4362349638158542,-2.0561113265573416,1.7695600761033488,nan
1740793644.4595196,0.965702140614424,1.5217627353637375,-0.57133452099757,0.43905647543765564,nan
1740793644.4634256,0.43030234708880255,2.4921814289246704,0.8798032681847058,-1.6722947905243595,nan
1740793644.4673314,-0.48563644852698273,2.4114487923458627,0.5794079526426414,-2.751659275771441,nan
1740793644.4712374,-0.8857256077423934,0.7594451562037041,-0.8323185749516586,-1.6860846715984317,nan
1740793644.4751434,-0.6024805596706142,-1.5819737397274185,-1.185161874215452,0.6314873838700815,nan
1740793644.4790494,-0.08746820280665407,-2.896099372907023,0.46110428985750657,2.0855228285485223,nan
1740793644.4829555,0.3224394226280452,-2.258336595179207,2.480690778136108,1.5050813030120753,nan
1740793644.4868615,0.6959803352405529,-0.39010745744184716,2.4397925714141655,-0.13455031022146105,nan
1740793644.4907675,1.082274479502797,1.1661596794989988,-0.05974873723961177,-0.8514504445185657,nan
1740793644.4946733,1.1375258894713647,1.5058511712745357,-2.7541806552673767,0.08403888803274735,nan
1740793644.4985793,0.45714357704296743,0.8745360597671422,-3.052631465586304,1.2999364497100903,nan
1740793644.5024881,-0.7783659592566269,0.009079694517371185,-0.7259546695876148,0.8923402765251277,nan
1740793644.5063941,-1.7525755206339826,-0.5930718775948153,1.9534514642909178,-1.2839685030234669,nan
1740793644.5103002,-1.7435881805508675,-0.7078048159173236,2.605082602191767,-3.180281706444914,nan
1740793644.5142062,-0.8136407940415393,-0.17587314959180544,0.983639214236694,-2.5779563046042453,nan
1740793644.518112,0.3326753401800286,0.8601820116732,-1.142477135436645,0.5121821528580704,nan
1740793644.522018,1.0896390078987892,1.60849253993266,-1.962572275969984,3.62804919830494,nan
1740793644.525924,1.3767704632288986,1.08240396655538,-1.1757938106627956,4.107090876500977,nan
1740793644.52983,1.3447741027399078,-0.7331635754005502,0.22722957177430944,1.5542387839242549,nan
1740793644.533736,0.9329481685200626,-2.41438203615114,1.2093014603229393,-1.8870317564636732,nan
1740793644.537642,-0.012991660301424693,-2.310380817692692,1.434776966111948,-3.582067428237451,nan
1740793644.541548,-1.2175160067951312,-0.36936914261234455,1.047771572200439,-2.6469746984679525,nan
1740793644.5454538,-1.8769639380146035,1.5902352656582117,0.22668899003618834,-0.3285246130771934,nan
1740793644.5493627,-1.3477441309430427,1.7588385835935938,-0.8108194174933342,1.4759992443026928,nan
1740793644.5532684,0.07605678469644092,0.3442045899625164,-1.5984830031054016,1.8343661310258441,nan
1740793644.5571744,1.2654516178723123,-0.6977195273400513,-1.5973215191136152,1.0913207684829374,nan
1740793644.5610805,1.2711131440526646,-0.017955240761925197,-0.7100290054377307,0.0647311476206518,nan
1740793644.5649865,0.2242132100597414,1.4489069687593976,0.5193884772595518,-0.6877153957279847,nan
1740793644.5688925,-0.8155091949410089,1.56792145715535,1.3496008614996153,-0.9012897410536916,nan
1740793644.5727985,-0.8816593084190539,-0.35992919106997534,1.44782257060627,-0.40809085602829215,nan
1740793644.5767045,0.05024659561677821,-2.5667859442024477,0.9931301689733244,0.6639409969041535,nan
1740793644.5806103,1.1353002048908827,-2.713750760525777,0.28922289612246715,1.5514466150707529,nan
1740793644.5845163,1.4301941631205533,-0.5469706301707686,-0.5068201981712248,1.188877745310775,nan
1740793644.5884223,0.6052170833812692,1.7887367829538456,-1.2171363203794971,-0.693049177930476,nan
1740793644.5923283,-0.8757575640468992,2.1248159220673943,-1.4390953232721224,-2.8240827398627504,nan
1740793644.596237,-2.0578080539120065,0.5522883141442728,-0.8160222294983028,-3.1702207110620293,nan
1740793644.600143,-2.048746565922534,-0.9426048653909959,0.41648423051283334,-0.8586317094155854,nan
1740793644.6040487,-0.6252346846121556,-0.8584273195343066,1.367510040137894,2.6285591371071635,nan
1740793644.6079547,1.4277545770350577,0.303717801796103,1.2232954572784536,4.469259944310834,nan
1740793644.6118608,2.6692111981354842,0.9815401079689787,0.09133065205161833,3.016788678558763,nan
1740793644.6157668,2.0649391896072764,0.5225885977723024,-1.0126390928932372,-0.5973236228377699,nan
1740793644.6196728,-0.02166277559742801,-0.2686435469799503,-1.119774879783003,-3.439932420043602,nan
1740793644.6235788,-1.9537627708694738,-0.43719091822642525,-0.2279074297671503,-3.4314568318628536,nan
1740793644.6274846,-2.190553872162068,-0.14084026120695262,0.7730662938865344,-1.0789243517102958,nan
1740793644.6313906,-0.6965744982559054,-0.24316948982054912,1.0371154135552116,1.3171822829042277,nan
1740793644.6352966,1.0447681843787346,-0.9241803798849513,0.5260319998500199,1.9758359920930553,nan
1740793644.6392026,1.4936181102111068,-1.2672295476811184,-0.14301054076734726,1.0489371214765382,nan
1740793644.643112,0.5050075575683922,-0.4267856092196792,-0.45096444589126167,-0.07714122624000744,nan
1740793644.647018,-0.7147000789725798,1.142088280864831,-0.4362832814886359,-0.46979138062366305,nan
1740793644.650924,-0.9924755960923509,2.0303726972926426,-0.44080629642312436,-0.36680904192769886,nan
1740793644.65483,-0.3311200300567291,1.43287071087879,-0.5755881199379649,-0.37921826721265256,nan
1740793644.658736,0.3713081238635393,0.02402177086613518,-0.5694321543100446,-0.47085611967191815,nan
1740793644.6626418,0.501251718602645,-0.875640482413399,-0.12418462772834168,-0.08241548829893701,nan
1740793644.6665478,0.32351445166277437,-0.7683396031196142,0.6757086578578391,0.8520897573818589,nan
1740793644.6704538,0.37503593400087787,-0.3251824329663639,1.3425840723764269,1.4634100952113318,nan
1740793644.6743598,0.5870792950881436,-0.34313632007531575,1.3492121997170703,0.8310168489514591,nan
1740793644.6782658,0.3455788875173826,-0.7344140976093834,0.5433427011459098,-0.7976004651051855,nan
1740793644.6821718,-0.5833106110661683,-0.7691596663103685,-0.6859696268561217,-2.011688173803459,nan
1740793644.6860778,-1.5115058609653609,-0.11523542705034487,-1.5906649029079922,-1.642913925619825,nan
1740793644.689987,-1.4733337149519203,0.721398055215166,-1.5286419386285734,-0.04082360384441359,nan
1740793644.693893,-0.34292652858170874,1.050726882195987,-0.47438674799916575,1.2654469832922777,nan
1740793644.697799,0.9471092457568978,0.805860660633109,0.8255416424082499,1.1882401301240697,nan
1740793644.701705,1.39675723042893,0.4652964253794848,1.3423092471324272,0.1800250845800844,nan
1740793644.705611,0.9707253678013094,0.3033413166916818,0.6511110746723017,-0.39848593883463085,nan
1740793644.709517,0.4516092627265155,0.04953606300258234,-0.5772329078648851,0.12527836056564218,nan
1740793644.7134228,0.35034805158912913,-0.5906654444952444,-1.1010646839557285,1.0031038645729686,nan
1740793644.7173288,0.27177418261503095,-1.31166863855195,-0.30740548253801675,0.9838054035459737,nan
1740793644.7212348,-0.4497679595393207,-1.3933611383987117,1.083554612505637,-0.22018812237111862,nan
1740793644.7251408,-1.6479425724527328,-0.5317179396903188,1.6402751115180234,-1.5810218762511061,nan
1740793644.7290468,-2.2073357736305517,0.7158398908418955,0.6554859987345982,-1.8554256308015797,nan
1740793644.7329528,-1.2286811461618903,1.4340641047345055,-1.0669924393475825,-0.8600964074129429,nan
1740793644.736862,0.8170484205373341,1.2092000719618823,-1.955302996394872,0.4435917239876305,nan
1740793644.740768,2.3406756412768353,0.3865833217126028,-1.2251822995537283,1.0214576269433902,nan
1740793644.7446737,2.135878684910842,-0.4232972991271389,0.3612982208799793,0.748689920382377,nan
1740793644.7485797,0.5522715849836605,-0.8813539242813349,1.3121175366220472,0.3189216382555123,nan
1740793644.7524858,-0.9000891416285669,-0.9386263916892214,0.9068008654627238,0.3537316205318917,nan
1740793644.7563918,-1.0664474202016674,-0.5784368122020906,-0.18774009717901816,0.75284784414297,nan
1740793644.7602978,-0.19056828237320345,0.17879525528062415,-0.7427283356801009,0.8874807187915157,nan
1740793644.7642038,0.5116198414564433,1.0156277202584463,-0.25588032254873155,0.2919239432895296,nan
1740793644.7681098,0.17463120567608806,1.3288370496454587,0.651360988939814,-0.8753626787722366,nan
1740793644.7720156,-0.893397996151959,0.7296386352943192,1.0043235586655772,-1.9352358665817924,nan
1740793644.7759216,-1.6123684539269254,-0.4771555472543057,0.46471423752065993,-2.152581535548108,nan
1740793644.7798276,-1.20345274362227,-1.4553700756554258,-0.46854863882353776,-1.2097772699495641,nan
1740793644.7837367,0.15157000540900403,-1.540949142447095,-1.0693954746470002,0.5356511077666534,nan
1740793644.7876427,1.5654997824215677,-0.7544432487450766,-1.0249785687386828,2.1492935562185624,nan
1740793644.7915487,2.203310066874399,0.3487695493239907,-0.5144661244903056,2.6371215847889276,nan
1740793644.7954545,1.8097087247932662,1.189397435315602,0.12357911816298706,1.6567443081232671,nan
1740793644.7993605,0.6805207925261861,1.458144882433007,0.6422667737856785,-0.13659354131855553,nan
1740793644.8032665,-0.6850058180728799,1.0842635908310359,0.8844982398335122,-1.538067001724659,nan
1740793644.8071725,-1.8421926562904536,0.2089169180104063,0.7523235165801858,-1.756805342767713,nan
1740793644.8110785,-2.420644312836897,-0.7282569257057946,0.30449843385167763,-1.0147455170605137,nan
1740793644.8149846,-2.09187264358664,-1.1219740558124431,-0.186925804088875,-0.18247917130133823,nan
1740793644.8188903,-0.7276172888853891,-0.7173348384648346,-0.42102888301950864,0.15135225079666517,nan
1740793644.8227963,1.2862040314829393,8.128640292864273e-05,-0.3528665777409741,0.16579376779375635,nan
1740793644.8267024,2.9485811188049316,0.1927316368345398,-0.22768786173356984,0.36176732959520097,nan
1740793644.8306112,3.1110775656616205,-0.3732869432234414,-0.2819250844387034,0.7923771806678902,nan
1740793644.8345172,1.3708306969844022,-0.9047936542190289,-0.4528279424043974,0.941562319115206,nan
1740793644.8384233,-1.3422894680930457,-0.39151932054068,-0.447944393678316,0.40177401792761513,nan
1740793644.8423293,-3.208496556711113,1.1129069703337848,-0.08631270392594229,-0.5107244018331543,nan
1740793644.8462353,-2.875630724633182,2.2729398250835255,0.4974558294836855,-1.0091511886280276,nan
1740793644.8501413,-0.630423076666098,1.7777454752952622,0.9890136466049717,-0.6909746115688113,nan
1740793644.854047,1.7659187269775485,-0.1815368309032398,1.1419317393192705,0.034348126430325934,nan
1740793644.857953,2.559412974973309,-1.9735477320670298,0.8436536313160816,0.45814669998185037,nan
1740793644.861859,1.464314875522037,-2.1523870306364064,0.05983410991134733,0.3779322597633671,nan
1740793644.865765,-0.28089930101571653,-0.8672225636691027,-1.073822461657113,0.200016046403248,nan
1740793644.869671,-1.2449888297008838,0.47868374426195676,-2.045335544733901,0.25988003621775957,nan
1740793644.873577,-1.0971470346746643,0.8235000684418707,-2.0705894549128105,0.3005312422849521,nan
1740793644.877486,-0.5687688470683531,0.41749307160253835,-0.7276737637036573,-0.15033294831113492,nan
1740793644.8813918,-0.3269905781501772,0.17726494862460188,1.3899361307741578,-0.9661868457450247,nan
1740793644.8852978,-0.19301760000411405,0.4191779769561704,2.8453552727857585,-1.3006714039944542,nan
1740793644.8892038,0.3881475338539031,0.5879511090610801,2.489645250719813,-0.49421836379003264,nan
1740793644.8931098,1.3160803617482935,0.18215867127985544,0.5615610483545581,0.9993742838831772,nan
1740793644.8970158,1.6589958735654415,-0.46964677987428216,-1.4329434514536654,1.8661140645400274,nan
1740793644.9009218,0.6969893433135216,-0.6334613280524748,-2.08040475887496,1.2484594752312652,nan
1740793644.9048278,-1.031878498683749,-0.18109437764204267,-1.3222604139756737,-0.298543639780397,nan
1740793644.9087336,-2.0481306540215884,0.219785830729071,-0.3100893124154684,-1.330935620571469,nan
1740793644.9126396,-1.4202312675581312,0.02087685281595353,-0.041690386838951335,-0.9986293215594019,nan
1740793644.9165456,0.20903325482279886,-0.42794859566490484,-0.30400763752160315,0.12233540206158243,nan
1740793644.9204516,1.2660618382775566,-0.3388586250583662,-0.08962287818753012,0.7270214307399653,nan
1740793644.9243603,0.8923234643394166,0.37785713860265546,1.032729533156118,0.18986563368595308,nan
1740793644.9282663,-0.22431333727477784,0.850049210034047,2.2112433371054294,-0.8508383786407951,nan
1740793644.9321723,-0.7212781535176153,0.32466493219509707,2.129111899023813,-1.2567755911066307,nan
1740793644.9360783,-0.09571243646308503,-0.7415900668328097,0.4607436214581118,-0.5490198312648644,nan
1740793644.9399843,0.8320130307747116,-1.0704459290403177,-1.6590804349414026,0.7536614129225497,nan
1740793644.94389,0.9587750533420977,-0.09465929832153613,-2.6788053883645344,1.7570626672383902,nan
1740793644.947796,0.15527401619443093,1.2312705615598472,-2.0540050049004566,1.9111108169294355,nan
1740793644.951702,-0.694106322144969,1.4349657990045122,-0.5738803758699299,1.15351191771081,nan
1740793644.9556081,-0.7957288192609467,0.22339579105460577,0.6078489915334846,-0.29717153262303975,nan
1740793644.9595141,-0.3142991636832762,-1.1573621121507793,1.0591007595303066,-1.955832395137535,nan
1740793644.9634202,-0.01908498562410836,-1.3507217474563527,1.1465901834807182,-2.9539302233070086,nan
1740793644.967326,-0.24543676539881318,-0.39982546418641673,1.2532796067660694,-2.3715487525612624,nan
1740793644.9712346,-0.4865990869435037,0.4450486351006181,1.2157025514575153,-0.11339741308444781,nan
1740793644.9751406,-0.09005964736348085,0.31410522566599486,0.6288134958354477,2.541440372670952,nan
1740793644.9790466,0.8336210043797883,-0.2799980962130719,-0.4703422600062131,3.6453694512286985,nan
1740793644.9829526,1.418629082531415,-0.2185857604474178,-1.4556977213619995,2.2271052699144667,nan
1740793644.9868586,0.9784090522089918,0.7009055196593778,-1.694933978894871,-0.6733734449164894,nan
1740793644.9907646,-0.214871298889265,1.4239094862959185,-1.1530189071638344,-2.7770399271139024,nan
1740793644.9946704,-1.1820276197734894,0.9056755663349313,-0.32859953840116224,-2.5584929904545355,nan
1740793644.9985764,-1.208179705629575,-0.5756436634030876,0.3223961012692871,-0.5457633109014586,nan
1740793645.0024824,-0.46770312793176516,-1.6555085973975745,0.7459687736642852,1.3333581194938777,nan
1740793645.0063884,0.2860779182124632,-1.3711551502582542,1.0686039723860605,1.6299334396804175,nan
1740793645.0102944,0.5100776873767708,-0.14432568613581365,1.2056014543476463,0.563850484765421,nan
1740793645.0142004,0.27839946304852997,0.8059763662908492,0.8880840641520155,-0.5327166284834253,nan
1740793645.0181098,0.010502696077687767,0.8070995356316928,0.08841849671877532,-0.7059949545422405,nan
1740793645.0220158,-0.027256345421981496,0.2622234472642604,-0.7517041122458744,-0.17025416732810084,nan
1740793645.0259218,0.10228942493073165,-0.06665382794996434,-1.0702883017521216,0.2511796989706921,nan
1740793645.0298278,0.20381969800132915,0.02480563305883771,-0.7525968711155522,0.16002880169089445,nan
1740793645.0337336,0.1761940807659527,0.14859789734848303,-0.24085808936025285,-0.11764665643673664,nan
1740793645.0376396,0.039333269197125736,0.004988894270720772,-0.0323023887820632,-0.12946005524908435,nan
1740793645.0415456,-0.14483642154852772,-0.22254154733897433,-0.14296927811689938,0.09792320027022106,nan
1740793645.0454516,-0.2944363947580248,-0.2136350397341369,-0.15769301464961966,0.1853786692684252,nan
1740793645.0493577,-0.300728463586112,-0.01005717233675129,0.21312999234010394,-0.013576988858855806,nan
1740793645.0532637,-0.10813918354355519,0.054601805609995294,0.7444438310570031,-0.19387015861743492,nan
1740793645.0571694,0.16921204426058478,-0.138174631347716,0.9319514603129313,-0.02875796180465451,nan
1740793645.0610754,0.28856493707884173,-0.2921043742907623,0.5599727375499253,0.34063492354105035,nan
1740793645.0649848,0.11662911920193196,-0.09969186112048635,-0.06627565554238207,0.4247075126978431,nan
1740793645.0688908,-0.18493279677530827,0.30451688780489644,-0.4692913337448874,-0.006034097588827346,nan
1740793645.0727968,-0.28777205312483223,0.47406453121169473,-0.49144926648757087,-0.5833800875647502,nan
1740793645.0767028,-0.04896244988480066,0.21051840079557246,-0.3669260409409205,-0.7197166478105803,nan
1740793645.0806086,0.30469649076780997,-0.18072373659168622,-0.34925232656725835,-0.27032297489774204,nan
1740793645.0845146,0.3995118169208006,-0.2729626748874353,-0.3906830389407707,0.3068674536055942,nan
1740793645.0884206,0.11948420115533849,-0.03896877839444659,-0.25493433460465686,0.48119675950193225,nan
1740793645.0923266,-0.26024382579699523,0.15366221090861334,0.11935040770851679,0.23589924766313092,nan
1740793645.0962327,-0.36649574488830466,0.03729068654074683,0.48688937218104644,0.02502563714517433,nan
1740793645.1001387,-0.12045662047309547,-0.22677315859177088,0.5642686603388495,0.17664890112544734,nan
1740793645.1040447,0.20131089577119732,-0.28610684776085016,0.3571884088387302,0.47205090263562693,nan
1740793645.1079504,0.2806903699087151,-0.05267624484782654,0.13675302980734866,0.40487394124485915,nan
1740793645.1118598,0.07699380892808953,0.21773042564019285,0.09807577807355655,-0.19067173128221193,nan
1740793645.1157656,-0.18552495185114315,0.276354417760087,0.12816224052408626,-0.8844430297587107,nan
1740793645.1196716,-0.29314867329772704,0.15961736322942519,-0.028980721880870874,-1.0672311822456808,nan
1740793645.1235776,-0.2343094711916449,0.051435974756217244,-0.4136241924465736,-0.5676614411741936,nan
1740793645.1274836,-0.11639364124117596,-0.010735857982917998,-0.7408189799281468,0.20550452477140793,nan
1740793645.1313896,0.024290858154786807,-0.1380368841596459,-0.6843621783745426,0.7068476827265455,nan
1740793645.1352956,0.2425984886137157,-0.3189090743634893,-0.2301264541710977,0.7539398238671574,nan
1740793645.1392014,0.5137988943589624,-0.3247393839619791,0.30305362160959504,0.5606226772082842,nan
1740793645.1431074,0.6294214558910619,-0.0027842557712086237,0.5848697674102673,0.3655625778151861,nan
1740793645.1470134,0.3576285840694096,0.4235162089765885,0.5631210250744046,0.15731503501840116,nan
1740793645.1509194,-0.2674300961223353,0.5182487145810565,0.4164993955761068,-0.1955274851127945,nan
1740793645.1548254,-0.864814697790774,0.13715063277295955,0.2795609913941377,-0.6347800624291211,nan
1740793645.1587346,-0.9833770610380016,-0.3538027049145475,0.0997183585977977,-0.8601485804611942,nan
1740793645.1626403,-0.49983081730835727,-0.4670510572577127,-0.2120585223617404,-0.628536509571803,nan
1740793645.1665463,0.25195243096725867,-0.14560290479556787,-0.5585213752756263,-0.051538123621657626,nan
1740793645.1704524,0.75721079142235,0.19806414677983603,-0.6768454359419158,0.47081966109753276,nan
1740793645.1743584,0.7417561589950352,0.20105290273685963,-0.4126232004430482,0.6171558858248823,nan
1740793645.1782644,0.3491791402512806,-0.028107291238449864,0.07084604504578063,0.4113230078590649,nan
1740793645.1821704,-0.05701699865992982,-0.10401413260086954,0.414134971750922,0.12385945818528153,nan
1740793645.1860762,-0.23349306042731205,0.10211480038627073,0.4032606324274617,-0.035112592965662597,nan
1740793645.1899822,-0.20764636522456684,0.2921451834861123,0.16110661617755018,-0.07498067171301069,nan
1740793645.1938882,-0.14432140245054428,0.14616790138232852,-0.016944973461312535,-0.10516260877893387,nan
1740793645.1977942,-0.12983615395385953,-0.23775493976790632,0.010335250142051477,-0.14679882348287643,nan
1740793645.2017002,-0.11689982505099442,-0.4442147404541283,0.10820752192829082,-0.12545037435861073,nan
1740793645.205609,-0.04961039559960434,-0.2449797476673732,0.06893145606477591,-0.021995486152972143,nan
1740793645.209515,0.02595878619528012,0.14170542163212382,-0.11664574791959054,0.05454306083026226,nan
1740793645.213421,0.018611452331836385,0.34251523968231884,-0.2444339020114259,-0.007331401729190489,nan
1740793645.217327,-0.06210917583230481,0.2598036206554862,-0.15274073876602778,-0.15738623406377497,nan
1740793645.221233,-0.07900848312529615,0.09370213076275034,0.06342763144606098,-0.21158498615838506,nan
1740793645.225139,0.07407401480079895,-0.0025816904564875836,0.14672319455218052,-0.06368762152797243,nan
1740793645.229045,0.30820017100012165,-0.10646860230541313,-0.017189399492336336,0.17385058041869222,nan
1740793645.232951,0.3907140746257235,-0.29882451622744727,-0.2413083256306867,0.28513316054619015,nan
1740793645.236857,0.19046017992829425,-0.4064306273608405,-0.22906754106269972,0.1957723280436284,nan
1740793645.240763,-0.15401806577276053,-0.16830696977169823,0.08327520174463574,0.05163753373764689,nan
1740793645.244669,-0.3557524754436697,0.3396150640793506,0.42186905442920075,0.029513901814757052,nan
1740793645.2485747,-0.27583224380354476,0.6394146310371586,0.4442274980468108,0.10805867222025733,nan
1740793645.2524836,-0.06327882779510796,0.35784197378690963,0.10018721680596615,0.08755006147154436,nan
1740793645.2563896,0.026956143682000146,-0.27286786895758386,-0.3082089135150079,-0.14965473299636667,nan
1740793645.2602956,-0.07021882938044603,-0.5993738019911226,-0.43399763169764227,-0.4485615082714051,nan
1740793645.2642016,-0.16661321262132295,-0.28028586818760676,-0.22477313110252353,-0.5087181104233508,nan
1740793645.2681074,-0.06191960288426833,0.2994443266917557,0.06584158881688013,-0.20882559480487495,nan
1740793645.2720134,0.2032806336592306,0.46809355004724856,0.18094304540792666,0.23523476324272896,nan
1740793645.2759194,0.3879930551102958,0.05556984975977628,0.11968931141892014,0.469396440090114,nan
1740793645.2798254,0.33010553210646165,-0.42339563576496914,0.07034003453302744,0.35000603340527053,nan
1740793645.2837315,0.11882694786472701,-0.40858445382815,0.12886693594179693,0.06753346466349393,nan
1740793645.2876375,-0.044528909293243005,0.0416600274923499,0.16290084959160178,-0.07765429799686932,nan
1740793645.2915432,-0.10467088557478335,0.3732779623257851,-0.006747118396238384,0.008647195314215988,nan
1740793645.2954493,-0.18731692709878958,0.25445202066503136,-0.3304993859876916,0.14503086242684876,nan
1740793645.2993581,-0.36570184864639116,-0.042989533676918094,-0.5132610542203739,0.10196811219707734,nan
1740793645.303264,-0.4809810301375928,-0.06700114442770903,-0.3115598789227892,-0.1419027847838404,nan
1740793645.30717,-0.2930390280911081,0.17489963450432852,0.17908765628679216,-0.38493874958305213,nan
1740793645.311076,0.18865468462854937,0.22444119297817405,0.5811200423438916,-0.4158104590727861,nan
1740793645.314982,0.6158611750787784,-0.16949382487143067,0.591503583050006,-0.20960799855068446,nan
1740793645.318888,0.6195589239325011,-0.6230656357272579,0.25790886883137504,0.08049486594182924,nan
1740793645.322794,0.20235605568531673,-0.533915019868323,-0.11225650094405269,0.2833929086098108,nan
1740793645.3266997,-0.2514210737671992,0.13842055467025802,-0.28583082598301435,0.3343308842377108,nan
1740793645.3306057,-0.37516832558560137,0.7268349917286999,-0.3009985035038569,0.2659295518986953,nan
1740793645.3345118,-0.17823132811198975,0.5913817896374829,-0.33014041258113047,0.13390464088207935,nan
1740793645.3384178,0.0327389694598909,-0.12259807284085177,-0.4055856761821427,-0.01583568414599855,nan
1740793645.3423238,0.041644212395420266,-0.6258449045521234,-0.35233136720413516,-0.13069917994488864,nan
1740793645.3462324,-0.05957070266714241,-0.377437017151771,-0.013210312913183923,-0.15624607408733865,nan
1740793645.3501382,-0.06040690705378265,0.3163771305147665,0.5001337000986701,-0.08835124374537741,nan
1740793645.3540442,0.05463268463284438,0.6760607888391963,0.8365559919948633,-0.005677024304046109,nan
1740793645.3579502,0.09052093902272189,0.32222783952624817,0.7112421502072026,-0.013245247714600695,nan
1740793645.3618562,-0.0615113678107456,-0.36142728333836355,0.1795973852000727,-0.1320116932599103,nan
1740793645.3657622,-0.22370071562034505,-0.7172508943867547,-0.398341035576703,-0.25186059584117404,nan
1740793645.3696682,-0.12374017837776419,-0.5065072550929498,-0.6640695586671914,-0.21681858515866853,nan
1740793645.373574,0.23834017024035922,-0.031413847715163784,-0.5404844144363539,0.024403350113733503,nan
1740793645.37748,0.5212269947541293,0.3144526657277567,-0.2391247232180703,0.34573516769154183,nan
1740793645.381386,0.3980940872961531,0.43133233372846114,-0.023686293565717702,0.526033591491336,nan
1740793645.385292,-0.06601076931715505,0.42976011488563876,0.02718267610394061,0.42114486295928116,nan
1740793645.389198,-0.4677044213561635,0.3426451512570942,0.045752200539752916,0.07998236997259228,nan
1740793645.3931074,-0.49546617474809096,0.09211811067053244,0.19053671642233658,-0.2902589147073873,nan
1740793645.3970134,-0.23529333557044935,-0.2838775839726219,0.44181300110273203,-0.4763347157899036,nan
1740793645.4009194,-0.009420277879569066,-0.5424459717159571,0.580430296722503,-0.40370291083177606,nan
1740793645.4048254,0.029136736427686005,-0.4723405288556169,0.3864317262797875,-0.16546670840186625,nan
1740793645.4087312,0.04461418580125394,-0.15289833547068385,-0.11570990208387437,0.0711739944365623,nan
1740793645.4126372,0.24446001293098568,0.12986046850776856,-0.6101651895150731,0.19082512392382087,nan
1740793645.4165432,0.5438427733237682,0.213989397336082,-0.7283081590028464,0.1864429225924971,nan
1740793645.4204493,0.6006002249558375,0.20403292699418482,-0.3816817722866344,0.12136559547339676,nan
1740793645.4243553,0.19800398599398686,0.250188496512217,0.13530214174746297,0.05787323339752037,nan
1740793645.4282613,-0.46616679170646697,0.29295798625254943,0.4075898672468682,0.024220948414476796,nan
1740793645.432167,-0.917304792682563,0.14822930078463586,0.2903699110297279,0.026541945933591073,nan
1740793645.436073,-0.8212477591294226,-0.17806973870014464,0.026546777130389772,0.056911212148291125,nan
1740793645.4399824,-0.25249005246530015,-0.4053826502587266,-0.04621747037274215,0.07568378379155388,nan
1740793645.4438884,0.4126077030285236,-0.29351826465937675,0.115929912249945,0.014248258027812767,nan
1740793645.4477944,0.8078755824498979,0.032353187660319534,0.22454088916807421,-0.15644312874556623,nan
1740793645.4517004,0.7882114425651232,0.19832677629062942,0.03115234509842822,-0.34324443295145757,nan
1740793645.4556065,0.4287098084397934,0.03309495216577368,-0.3228831648191636,-0.3573216036593064,nan
1740793645.4595122,-0.07755556786400145,-0.21192404467029727,-0.42368679388441066,-0.08704063515802016,nan
