timestamps,TP9,AF7,AF8,TP10,Right AUX
1740794495.72096,0.001747945087270542,0.1028328732452486,0.2554408936142612,0.6427892160869277,nan
1740794495.7248654,0.4487428308225673,0.40000542797585714,-0.18788175508534352,0.6463774137746076,nan
1740794495.728771,0.913718519859752,0.4058588864551644,-0.34140186608168205,0.4118083342640962,nan
1740794495.7326765,0.9942643574096001,0.20907586293681832,-0.3276305533686955,0.07725879841327583,nan
1740794495.736582,0.47948021343556874,0.013492085039267087,-0.4058579488037034,-0.2847143348721764,nan
1740794495.7404876,-0.32051081700778183,-0.10467298852117071,-0.5859532801040269,-0.626621484934662,nan
1740794495.744393,-0.7951647634378757,-0.2023890999497623,-0.5773468151261004,-0.799078058701225,nan
1740794495.7482986,-0.6260036097555505,-0.28799711364558844,-0.15234997790433116,-0.5964731003246203,nan
1740794495.7522044,-0.10387572358785496,-0.25254017385621386,0.5159058313526861,-0.005023574830398113,nan
1740794495.75611,0.19907716614182197,-0.0340394059755767,0.9662568297516154,0.6448975948757942,nan
1740794495.7600155,0.041541826227294375,0.21977113309473775,0.8981831151236402,0.8873698959116443,nan
1740794495.763921,-0.2758872400649364,0.25978629284345894,0.4384840121725199,0.5452927949891386,nan
1740794495.7678301,-0.3100639704929296,0.030893550682890118,-0.06020558290673855,-0.07521826526116601,nan
1740794495.7717357,0.012595736284220945,-0.21353310572292095,-0.4032651162436299,-0.4605815337744149,nan
1740794495.7756412,0.3631202433425719,-0.16527661362595233,-0.6425406282314516,-0.3693049510597287,nan
1740794495.779547,0.4397490903267648,0.1797038422146375,-0.8130490385449055,-0.02272317901410394,nan
1740794495.7834525,0.2974910138290876,0.4796935440468358,-0.7407571881330133,0.16889880711447514,nan
1740794495.787358,0.1907846758103666,0.39539166595039515,-0.24557243144145927,0.027557370181468106,nan
1740794495.7912636,0.18547087861730532,-0.05212174987222103,0.49872102949802377,-0.25899184526684804,nan
1740794495.795169,0.0764045827839859,-0.5055663414540825,0.9704769614564225,-0.3756234151355407,nan
1740794495.7990746,-0.280090977358753,-0.6312416362423448,0.7832626613493469,-0.1896827095266849,nan
1740794495.8029802,-0.6757898450411717,-0.40604830959878735,0.1281362706213241,0.1722171826563711,nan
1740794495.806886,-0.7221782727901835,-0.05163633758459426,-0.37864572370023625,0.4793823229937991,nan
1740794495.8107915,-0.3051967938668246,0.23716259312643206,-0.32968645026412247,0.5670616013196871,nan
1740794495.8147,0.24429679671715823,0.42557996524249875,0.05869306058704399,0.38652880327393635,nan
1740794495.8186054,0.4979417898716181,0.52816410769039,0.227444285790653,-0.008561302203159279,nan
1740794495.822511,0.38472822740193524,0.47783010411833365,-0.07280000646616239,-0.4579731741121316,nan
1740794495.8264165,0.2057579884164101,0.19346870542893724,-0.5105843179080809,-0.7180424560486416,nan
1740794495.830322,0.2110792934525706,-0.24159619865525384,-0.5779774162275375,-0.595087119352609,nan
1740794495.8342276,0.284779441503743,-0.5623872431001224,-0.17291800333221596,-0.12424664667285228,nan
1740794495.8381333,0.13481309200398497,-0.5482235975643016,0.3163470981468664,0.40209811717902694,nan
1740794495.8420389,-0.26808706252417497,-0.2511297979114219,0.4782042130386475,0.6442271060698364,nan
1740794495.8459444,-0.5828419848452592,0.049945209015628114,0.3063112308961071,0.4901977582982939,nan
1740794495.84985,-0.4839051378723934,0.13557547765996888,0.10533586419378024,0.12448395499510241,nan
1740794495.8537555,-0.06837486693000162,0.0572703715342842,0.06374771229439495,-0.17323165558312745,nan
1740794495.857661,0.23345574744382033,0.043675579190901724,0.0632874608685885,-0.27648144847507106,nan
1740794495.861569,0.15304133657765423,0.2183192517242348,-0.06868658994169989,-0.2546984308468991,nan
1740794495.8654747,-0.11254956864674177,0.44655895524573586,-0.255140691629448,-0.2109356287907515,nan
1740794495.8693802,-0.1555260688464439,0.46963962626628813,-0.25289583051054243,-0.1431332212606436,nan
1740794495.8732858,0.1417096132605837,0.17070824732425405,-0.016352295695212318,0.006285754992473804,nan
1740794495.8771913,0.4654507427217662,-0.2990320221824517,0.17175858735699426,0.20471561799511842,nan
1740794495.8810968,0.4488922591576896,-0.6378653408814722,0.029811417269017093,0.30326443782839047,nan
1740794495.8850024,0.10181639916843824,-0.6265095671096024,-0.32552974023659,0.18838922053378,nan
1740794495.888908,-0.22044895026677785,-0.2811839529202567,-0.4471600464732165,-0.06545820390941197,nan
1740794495.8928134,-0.24935988736312287,0.16671146963704522,-0.0679964634802179,-0.23811540733951334,nan
1740794495.8967192,-0.10162557094905077,0.43046181035809666,0.539572143383513,-0.17572484714816705,nan
1740794495.9006248,-0.09470346217032877,0.36538419474045325,0.807983765175685,0.05139025594852323,nan
1740794495.9045303,-0.32353074415189886,0.07935086289156293,0.4697300859090271,0.21571776611572802,nan
1740794495.9084427,-0.5167586017173986,-0.14183301476832572,-0.16718248586592474,0.15589629632004975,nan
1740794495.9123483,-0.3404886423284057,-0.07540730325223735,-0.5604462067518334,-0.07057219992267588,nan
1740794495.9162538,0.20816122082014907,0.21649704761856012,-0.482132343856494,-0.25009041820899375,nan
1740794495.9201596,0.7585733581475388,0.4119281326853987,-0.1690474675736332,-0.217963900792307,nan
1740794495.924065,0.9032916351952638,0.228111826716725,0.024009375196104278,-0.005569036805488858,nan
1740794495.9279706,0.5455591753755107,-0.2715550556430666,0.006909527929694292,0.1987156040698477,nan
1740794495.9318762,-0.06495490467073375,-0.6888087949640898,-0.04630367076551351,0.22536403539842403,nan
1740794495.9357817,-0.5709229086515045,-0.6494995427846512,0.015278584787930038,0.07195966252531778,nan
1740794495.9396873,-0.7503849976967558,-0.16756217163824105,0.15011050426408093,-0.10487602329120908,nan
1740794495.9435928,-0.5884872732568813,0.3608704308524382,0.23933410475527972,-0.14099301745860748,nan
1740794495.9474986,-0.21785611849162317,0.5344608905973927,0.2546056812079204,-0.020020199419504416,nan
1740794495.951404,0.16570273308281858,0.3104486318327405,0.230595627752574,0.11347888904673084,nan
1740794495.9553158,0.38453587317911575,-0.004639616021139024,0.1318497947759794,0.10139600581304617,nan
1740794495.9592216,0.36835083391566925,-0.0957525361147075,-0.12180218895232763,-0.059129564815334566,nan
1740794495.9631271,0.20107171393679044,0.06066969672986672,-0.46014845710694885,-0.20009355477031252,nan
1740794495.9670327,0.05173060768184059,0.22418625007714166,-0.6013162340090614,-0.1516152136524486,nan
1740794495.9709382,0.022571839437699304,0.16559197963487418,-0.3144825313168839,0.06898770250145587,nan
1740794495.9748437,0.06259074168880129,-0.11643770830076958,0.2523666483461417,0.2530850792395772,nan
1740794495.9787493,0.04358341186389106,-0.42198766749333505,0.6209416299270849,0.20483920361015845,nan
1740794495.9826548,-0.08610772907761283,-0.5346424031755715,0.44862841211995463,-0.04983708565585174,nan
1740794495.9865606,-0.24435689683027717,-0.3715159744826142,-0.08265336566498126,-0.2738158763702352,nan
1740794495.990466,-0.30832078478931313,-0.01188192145887998,-0.43010186736637657,-0.24858630547825994,nan
1740794495.9943717,-0.23416437392684336,0.35818623301816344,-0.26475575250168354,0.010461313875694695,nan
1740794495.9982772,-0.06944572986277478,0.5401677058462332,0.1807650753442189,0.2723150266225482,nan
1740794496.0021882,0.12089707870068095,0.44069450020726664,0.38894242504578896,0.31394112762395116,nan
1740794496.0060937,0.29258710752614897,0.15384403247455627,0.13970072166158248,0.11557151333152033,nan
1740794496.0099993,0.38624960840370026,-0.0952681493603866,-0.26620178301949704,-0.15230005920919978,nan
1740794496.0139048,0.3153747547197038,-0.15091923764146498,-0.37617680015731875,-0.3001778008367834,nan
1740794496.0178106,0.052029388739929766,-0.08753067531317438,-0.09592030186688764,-0.25993238648205025,nan
1740794496.021716,-0.2787017223446717,-0.12260149406065339,0.24043446917653727,-0.08733687115583641,nan
1740794496.0256217,-0.4507170306856663,-0.3309487243985643,0.27699214647012,0.11473800689628404,nan
1740794496.0295272,-0.3329474446741385,-0.48700253361841583,0.017260981286260732,0.24998904641877984,nan
1740794496.0334327,-0.027730043466261452,-0.28086020093074504,-0.2345042481473237,0.2473967856265201,nan
1740794496.0373383,0.21979951883744833,0.27652092975784537,-0.23871238777620582,0.09567795746747991,nan
1740794496.0412438,0.2577463147974114,0.7388924363313921,-0.04147359132890996,-0.1148573345286146,nan
1740794496.0451493,0.15021640858347496,0.6251198459782564,0.15213850960291192,-0.22487076552483581,nan
1740794496.0490599,0.05856462821529922,-0.03575240573928012,0.22196720679759727,-0.13790268279087448,nan
1740794496.0529656,0.03856128444644302,-0.6361430728225479,0.19072063217161606,0.06625996163292697,nan
1740794496.0568712,0.0016065252087297073,-0.5621372534884339,0.10260431560870455,0.18419358085670431,nan
1740794496.0607767,-0.12677081710050628,0.14863424096917247,-0.042797094660347625,0.08829219521890137,nan
1740794496.0646822,-0.26742455946363186,0.7830846765292626,-0.21021696152803823,-0.13071291022206447,nan
1740794496.0685878,-0.2559427756754097,0.6468119294632108,-0.27369618090023934,-0.24652856878983026,nan
1740794496.0724933,-0.042173562317246685,-0.2167249207167557,-0.13697872142587647,-0.1303873837552947,nan
1740794496.0763988,0.22416737326396063,-1.0346774209583052,0.10307733377788639,0.11557818434240044,nan
1740794496.0803044,0.33163475400766196,-1.0461738666069387,0.20656494308915788,0.2680787664767262,nan
1740794496.0842102,0.21362408948614087,-0.2252182728085151,0.05670525427101323,0.20869592356183267,nan
1740794496.0881157,-0.0030928273190210034,0.7271123025246874,-0.17136896956577294,0.020363107566686,nan
1740794496.0920212,-0.14153391477691202,1.0666806443386532,-0.18399805101366457,-0.12817572702617505,nan
1740794496.0959313,-0.13565084434471755,0.6530606531807271,0.08518915887975964,-0.15363123484401395,nan
1740794496.0998368,-0.051429063672762024,-0.03971838279584799,0.36984648419757316,-0.09696213679729332,nan
1740794496.1037424,0.009118438506703436,-0.4550035712755343,0.3542431626431,-0.028560943970927212,nan
1740794496.107648,-0.007374095692997921,-0.4339229871480405,0.025380592597394086,0.028663864995596575,nan
1740794496.1115534,-0.09187890582074318,-0.21472763382875015,-0.3165713369209875,0.07159572809758093,nan
1740794496.1154592,-0.1868770498529238,-0.07522867283254657,-0.3914103915401029,0.06572931871534833,nan
1740794496.1193647,-0.19642078465819354,-0.05886213667088765,-0.21409108405972804,-0.019552300735848013,nan
1740794496.1232703,-0.03267805845879407,-0.032118761172835686,-0.007788038143896091,-0.12694367368683873,nan
1740794496.1271758,0.2831062291948793,0.07959084098339476,0.09029156181319876,-0.1228671132981811,nan
1740794496.1310813,0.5617920739055252,0.18425430927871822,0.14279219663595827,0.05711086329834279,nan
1740794496.1349869,0.5510638602597618,0.14855792973973003,0.23227766007516445,0.2882514108991804,nan
1740794496.1388924,0.1630120175292318,-0.016997331612977052,0.27598443595493294,0.33743554404564075,nan
1740794496.142802,-0.395658279931523,-0.13770567301558118,0.11976498634085446,0.09742846093519518,nan
1740794496.1467075,-0.759211804241402,-0.05046250359714472,-0.2035757987032766,-0.2753068999620255,nan
1740794496.150613,-0.7010676488477754,0.20485372683895653,-0.42150197109775217,-0.4877565069833305,nan
1740794496.1545186,-0.303693747878074,0.3821380616701092,-0.2988527567976036,-0.3800942910669831,nan
1740794496.1584241,0.158658634905312,0.24223412538183128,0.07229614802478176,-0.05555588432503242,nan
1740794496.1623297,0.4728133014477073,-0.1996092906445557,0.3431327280838009,0.2494070438670679,nan
1740794496.1662354,0.5991410249949284,-0.631198070851359,0.28334158288016903,0.3857054479250187,nan
1740794496.170141,0.5699537982977044,-0.6817768534030503,0.022011483773321718,0.36254006707198205,nan
1740794496.1740465,0.36756301887127263,-0.2547477933825405,-0.1313088416126173,0.24131564043628084,nan
1740794496.177952,-0.028220176000584758,0.35491809143162495,-0.060503370282511404,0.038915286664555196,nan
1740794496.1818576,-0.49383876575013724,0.6988516138994413,0.04585860707810776,-0.2259516897665476,nan
1740794496.1857631,-0.7564513260192031,0.5678953531284029,-0.031324670339387475,-0.4399417079792673,nan
1740794496.1896715,-0.6105244309637163,0.15988635070979787,-0.23982059276095644,-0.43859423310445195,nan
1740794496.1935773,-0.14052165434755423,-0.1506596133778016,-0.3095214851161692,-0.1829233351032651,nan
1740794496.1974828,0.32066487306849334,-0.2001137955953643,-0.09080243063271166,0.14866036912354744,nan
1740794496.2013884,0.4856395429188611,-0.16019516876189785,0.24893362628746263,0.30930529672346163,nan
1740794496.205294,0.3548849417744338,-0.26389611375837635,0.41270494596843454,0.23624302381027834,nan
1740794496.2091994,0.15535673656738344,-0.4583356104962275,0.30554332609522256,0.1094052370361253,nan
1740794496.213105,0.0645385196404043,-0.41804997936262345,0.10195915174226743,0.12358765544605715,nan
1740794496.2170105,0.04095710862380495,0.0539296867897345,-0.011232014582385687,0.23191740158778937,nan
1740794496.220916,-0.06166086932150332,0.6900196755744221,-0.06617257457423642,0.18287888119241658,nan
1740794496.2248218,-0.25895756416440585,0.9228308869201836,-0.2178836865891963,-0.16037727912499794,nan
1740794496.2287273,-0.3758576016524394,0.4442794023447081,-0.45836956051773414,-0.5853133430650695,nan
1740794496.2326329,-0.24088938523835793,-0.4216863273480297,-0.5393753643016351,-0.6878859538198716,nan
1740794496.2365406,0.09027027799879409,-0.9633210741482354,-0.2448820309154911,-0.29205159591360386,nan
1740794496.240446,0.34698510946091193,-0.7314323680763808,0.30200448805539404,0.32397112057529326,nan
1740794496.2443519,0.29642966023685313,0.050713842900156486,0.691090794353565,0.6679100912150449,nan
1740794496.2482574,-0.0206294194351124,0.7161545990291104,0.6170405742480272,0.5074912569479353,nan
1740794496.252163,-0.3130902278201712,0.7659633272170211,0.18419941626808498,0.07970012762049253,nan
1740794496.2560685,-0.30259430569555185,0.2571851506493103,-0.21370756524729578,-0.18292189628863442,nan
1740794496.259974,0.022571390222802815,-0.3489789133327654,-0.29762422846666675,-0.1061046418221219,nan
1740794496.2638795,0.39347699260045005,-0.6351872189103519,-0.1452869934707673,0.08010546630934112,nan
1740794496.267785,0.49169145947603377,-0.5106535281033084,-0.03614116279182171,0.041477139343340394,nan
1740794496.2716908,0.2178704765408937,-0.1468182647933983,-0.11624388830371837,-0.2637542431709733,nan
1740794496.2755964,-0.23061735307021441,0.23797952403260253,-0.26589924523301794,-0.5300392149191325,nan
1740794496.279502,-0.5295755974883669,0.49276521415990504,-0.27688225523340493,-0.43828899181314446,nan
1740794496.2834146,-0.49103924517063435,0.5249712105080913,-0.092172850109338,-0.0018305755119958197,nan
1740794496.2873201,-0.19217645833021904,0.30474217599921033,0.162062263924609,0.4453125503870841,nan
1740794496.2912257,0.12984954011386635,-0.07604820171920373,0.33850700689264096,0.5835061041173524,nan
1740794496.2951312,0.29972844065523707,-0.40505327447278733,0.3959932721213733,0.39329494848901964,nan
1740794496.2990367,0.3220049132162979,-0.4876031734800299,0.35925543777739666,0.10743179643741685,nan
1740794496.3029423,0.2944440681181093,-0.30859509591994544,0.22019845828303705,-0.07117168935008102,nan
1740794496.306848,0.24243209276588704,-0.03623488618052301,-0.0479073833816001,-0.15002541808995457,nan
1740794496.3107536,0.08641246307910422,0.1458493328261651,-0.3755282532243496,-0.2481655605483431,nan
1740794496.314659,-0.20973578472201876,0.1928877044426455,-0.5649315425774856,-0.37920074016682725,nan
1740794496.3185647,-0.49847754696661967,0.1807821721890199,-0.4448761313086965,-0.3998911757817351,nan
1740794496.3224702,-0.5275018330623089,0.17160471928239765,-0.07092850551572864,-0.18844138774078262,nan
1740794496.3263757,-0.19913002469788338,0.14479954232879372,0.2716030723029391,0.1694113624131011,nan
1740794496.3302877,0.2720171929640111,0.06237528395830969,0.31485634835500803,0.42284840601598606,nan
1740794496.3341935,0.5162765758229917,-0.04894046772515397,0.07427276030740533,0.39585956577221215,nan
1740794496.338099,0.3547287528696046,-0.12234605048679253,-0.1512891143115796,0.1611485043000329,nan
1740794496.3420045,-0.0246315165823694,-0.13974291096006625,-0.07136748403931736,-0.04431589779940441,nan
1740794496.34591,-0.2579385918612448,-0.14583804871887693,0.2921712631171935,-0.06663274501005707,nan
1740794496.3498156,-0.16842647047949671,-0.16130087205341287,0.5974894444068797,0.02431333165858829,nan
1740794496.3537211,0.07973660972398389,-0.1279823188289929,0.4926900183307334,0.04078585359414073,nan
1740794496.3576267,0.1849530360044227,0.012199390029772364,-0.04864589861538414,-0.103746735177422,nan
1740794496.3615322,0.03155326448353476,0.19823404637866016,-0.6824228610909194,-0.30340967933803814,nan
1740794496.365438,-0.2113176081084627,0.2712367332430289,-0.9733573000578665,-0.376065458121384,nan
1740794496.3693435,-0.28996365058667845,0.14871932013693076,-0.7331810307759352,-0.24014327886454273,nan
1740794496.373249,-0.12275598748079122,-0.05436191127804996,-0.12690239605057899,0.031088410922003793,nan
1740794496.37716,0.14721664362278764,-0.13163386637954141,0.49725216776276615,0.2970018150945951,nan
1740794496.3810656,0.3100507811739596,-0.017482323004817533,0.8537071570137581,0.4508075962471924,nan
1740794496.3849711,0.2617618692847076,0.13135606559587765,0.836089202985497,0.4403672616735999,nan
1740794496.3888767,0.046786302407074404,0.11570516393249833,0.48926240187375203,0.2497814677619501,nan
1740794496.3927822,-0.20106205428979892,-0.07288092067505421,-0.043016908799819606,-0.07772383931974584,nan
1740794496.396688,-0.32933134216834054,-0.24579065228530528,-0.5370253435817722,-0.39855738900599424,nan
1740794496.4005935,-0.2335963976704761,-0.24135703909721143,-0.7476757750686573,-0.5154094140856892,nan
1740794496.404499,0.06010191947323264,-0.10040155300554819,-0.5611036024907342,-0.33385105300172346,nan
1740794496.4084046,0.3566574837976355,0.015809673030030443,-0.1263105367874519,0.016327114940648844,nan
1740794496.4123101,0.40162023451233325,0.04237383344180063,0.22388241677645215,0.26138432634314124,nan
1740794496.4162157,0.11012312981395983,0.07342810194154409,0.2627852700659124,0.23142954160794246,nan
1740794496.4201212,-0.30314889265186346,0.19565497666172096,0.09523673130836902,0.030260805441394163,nan
1740794496.4240317,-0.4808363946211055,0.3285337881397355,0.0415507518429844,-0.07294841392689257,nan
1740794496.4279375,-0.26103906395910226,0.30131624210797053,0.25831209113785464,0.061386705418281735,nan
1740794496.431843,0.1484372936913664,0.07609530743113713,0.5110683177887039,0.27652108356461935,nan
1740794496.4357486,0.37006134629983645,-0.1826120437861151,0.39933200504308175,0.279392634440181,nan
1740794496.439654,0.23689983574224227,-0.29786417180899283,-0.16929795661295882,-0.028236959332493674,nan
1740794496.4435596,-0.055550563214422706,-0.2844698696052852,-0.7888121526123262,-0.40775735661357276,nan
1740794496.4474652,-0.1878353946254224,-0.28760251262395287,-0.9100721851685936,-0.5034726677123929,nan
1740794496.4513707,-0.06733915443631287,-0.33045111486437945,-0.39217366615774124,-0.20638733342160884,nan
1740794496.4552763,0.10535389024885507,-0.22903640636243128,0.34903881880513865,0.22300410653994152,nan
1740794496.459182,0.10754467738329665,0.15986429260697477,0.7604194587873426,0.41013048820826153,nan
1740794496.4630876,-0.03889434586129719,0.6502706397840843,0.6689747148353822,0.23598789048499383,nan
1740794496.466993,-0.12211665506310693,0.8143632460632099,0.33651272688990574,-0.06437664844376623,nan
1740794496.4709082,-0.029128369932208856,0.43030047174409497,0.05491561321780452,-0.1700894942606798,nan
1740794496.4748137,0.10232732022813601,-0.21267261138426985,-0.177366434345346,-0.016340550387733025,nan
1740794496.4787195,0.06088422869462374,-0.5613687728020376,-0.5030466752192603,0.1546741635838712,nan
1740794496.482625,-0.15403812704952755,-0.37690743878,-0.8256733609346858,0.08111227791768381,nan
1740794496.4865305,-0.2991500933701912,0.006856947100603682,-0.7699112074306314,-0.20866926063036673,nan
1740794496.490436,-0.1594462119179807,0.06908914416156173,-0.1204874495576811,-0.4028231745842371,nan
1740794496.4943416,0.19139300106265636,-0.2870123337846745,0.7808700862621777,-0.2309761210540518,nan
1740794496.4982471,0.448694175167348,-0.6029391780573959,1.2369791599082898,0.23011428158410152,nan
1740794496.5021527,0.3877969651920554,-0.38204529898850914,0.861841861483966,0.593814512336014,nan
1740794496.5060585,0.07943732762337301,0.3258295723593063,-0.015613129563760849,0.5178055297215565,nan
1740794496.509964,-0.2125468314847988,0.9380133055653933,-0.684173825254111,0.028011256550473998,nan
1740794496.5138695,-0.30799434663801606,0.9341407063722008,-0.7557061698527954,-0.5008446841077943,nan
1740794496.5177789,-0.24810667355917287,0.36497488359362645,-0.45671509276154415,-0.6769701917965062,nan
1740794496.5216844,-0.1759109619338142,-0.26364597249705246,-0.2255961323996514,-0.4092700121659219,nan
1740794496.5255902,-0.14036635483925353,-0.5424465437250986,-0.15753508447327866,0.0695577769054314,nan
1740794496.5294957,-0.05976281089271292,-0.4992461700393985,0.020027236745756818,0.44308641125714565,nan
1740794496.5334013,0.13633949394118464,-0.4006815975376512,0.45561555857503905,0.5464156481333838,nan
1740794496.5373068,0.374327794210683,-0.3477340732549981,0.8389845855257052,0.3992870137319508,nan
1740794496.5412123,0.4712700286406706,-0.19236731597668022,0.697166175544802,0.09578556670651306,nan
1740794496.5451179,0.2998089154642819,0.16141601508299738,-0.01091714635214244,-0.26255911754192673,nan
1740794496.5490234,-0.08224054455439701,0.5142620364345246,-0.7387316882309637,-0.5339313789479058,nan
1740794496.5529292,-0.45163619323967263,0.5425861960933499,-0.8685631689722199,-0.536126080745802,nan
1740794496.5568347,-0.5658374717349098,0.19309663633694707,-0.3343712428018687,-0.18671556133310496,nan
1740794496.5607402,-0.3288197427434222,-0.19906847128486435,0.33997900089661437,0.3347293491673127,nan
1740794496.5646486,0.12749182638714412,-0.24873137532699086,0.5967531437857893,0.6425209971584906,nan
1740794496.5685542,0.5040593347890423,0.05810914067817095,0.3523361316511024,0.46222533716627506,nan
1740794496.5724597,0.5250008563914758,0.3455613261373991,-0.054128718714101194,-0.07683776028561748,nan
1740794496.5763652,0.14956117175452044,0.2555493369303269,-0.29680064877206297,-0.5140091866262679,nan
1740794496.580271,-0.3614815564862405,-0.17459873454503996,-0.3295131494534323,-0.48004274729890273,nan
1740794496.5841765,-0.6190511485661135,-0.5669463324600621,-0.25436540590980533,-0.055311708635464495,nan
1740794496.588082,-0.41305626689644637,-0.5971034308316662,-0.0946279218568424,0.32239795227865803,nan
1740794496.5919876,0.10443954024425713,-0.28595157357755857,0.18147016199727087,0.31417118364280355,nan
1740794496.5958931,0.5401536071918509,0.08778370773935366,0.469173755327785,0.012238573534675182,nan
1740794496.5997987,0.590603697589424,0.29690640314846556,0.5207573530889965,-0.20394095733388887,nan
1740794496.6037042,0.28206584983317523,0.34360594448269327,0.21275348640009134,-0.10694266305429455,nan
1740794496.60761,-0.09781220524190422,0.36099766059258975,-0.24629024244083983,0.14626190827348748,nan
1740794496.6115232,-0.29069586012705345,0.40729033468875064,-0.48142490730994103,0.23254081001929872,nan
1740794496.6154287,-0.28152047402220753,0.3907749741499487,-0.3403129733266142,0.04857526382538914,nan
1740794496.6193342,-0.23511494313164852,0.17897439871001972,-0.049353407077447786,-0.19127211145228026,nan
1740794496.6232398,-0.25682736230082726,-0.23998961159762328,0.05663672254329107,-0.23327439509578526,nan
1740794496.6271453,-0.2602334187859366,-0.6913296278615145,-0.08563023406222513,-0.07993158850843865,nan
1740794496.6310508,-0.09275894154483118,-0.8935804821124527,-0.21744705325600605,0.04691152324832638,nan
1740794496.6349564,0.2316996730587559,-0.644624019820118,-0.07410530165723454,0.00033183738287246315,nan
1740794496.6388621,0.4821687061347685,-0.008796476762176368,0.311034769849531,-0.11564997384158414,nan
1740794496.6427677,0.43802800032731676,0.6474280397034934,0.6364572891417075,-0.08791355388032986,nan
1740794496.6466732,0.15873572325293553,0.8753317971433844,0.6188350621084145,0.1430174098009418,nan
1740794496.6505787,-0.03780214320479538,0.5147471671580123,0.22269007403657415,0.4115099851558485,nan
1740794496.6544843,0.07035291469694974,-0.10946126971616105,-0.33685087135834696,0.4916977936904391,nan
1740794496.658397,0.2885177207392252,-0.4289945596536436,-0.7423496055089871,0.28037249995780056,nan
1740794496.6623025,0.1393417643978447,-0.1682416261004958,-0.748987093275738,-0.1606559674217464,nan
1740794496.666208,-0.5804563303853538,0.34364039947422553,-0.3387800708633536,-0.6415765241599622,nan
1740794496.6701136,-1.3900980062793762,0.46989637367728443,0.21443464862568698,-0.8779261754131067,nan
1740794496.6740193,-1.419704837883923,-0.058598104400365884,0.5009364817747329,-0.60490167997099,nan
1740794496.6779249,-0.2755294190767113,-0.7902138309253566,0.3339073359359778,0.15387263007894916,nan
1740794496.6818304,1.3743329056510958,-0.9602043886036584,-0.018328252349815367,0.8978603429208676,nan
1740794496.685736,2.230663198701329,-0.2950858607530333,-0.07590631782329064,0.9336302992106666,nan
1740794496.6896415,1.5487699452325023,0.6370725700906147,0.28252110637221517,0.08941154969124743,nan
1740794496.693547,-0.08101223084707289,0.9575008802497309,0.5784026372167127,-0.8607507070195621,nan
1740794496.6974525,-1.2505672240851702,0.37685140592659316,0.24099333800608042,-0.7742031531524723,nan
1740794496.7013583,-1.1202830829421306,-0.4840525361951009,-0.6141757794158438,0.5927467716627676,nan
1740794496.7052703,-0.23847884155570034,-0.7192564887048697,-1.1171505377937365,1.966101790899344,nan
1740794496.7091758,0.1322468472631395,-0.07193305895370301,-0.5667105098526838,1.5757769090932563,nan
1740794496.7130814,-0.5065107834770645,0.7980976808976394,0.6275627700207663,-0.9082000388465522,nan
1740794496.716987,-1.2593402222368244,0.9900530037560283,1.2050502081232546,-3.5584641277171114,nan
1740794496.7208924,-0.8433924425788835,0.27144243222564624,0.4341500478316901,-3.711499167918057,nan
1740794496.724798,0.8320737363172911,-0.7108339729070904,-0.9181659428805098,-0.6234531659705319,nan
1740794496.7287037,2.3308022677847595,-1.0990653779611639,-1.3016589196110209,3.433395196277552,nan
1740794496.7326093,2.1110458534745558,-0.6562432577117273,-0.14555502824539587,5.022335192647166,nan
1740794496.7365148,0.2215850363904581,0.0715276574217736,1.3532451065796656,2.735704066453185,nan
1740794496.7404203,-1.6244158435390361,0.36727166330467165,1.4835703777536544,-1.4197222279099393,nan
1740794496.7443259,-1.7680870090586553,0.0673659536455763,0.0013940580181979456,-3.896100073727875,nan
1740794496.7482314,-0.3010592042756481,-0.31477633891861545,-1.4810381960443644,-2.9079079349618056,nan
1740794496.7521424,1.0807709109209007,-0.142105578100099,-1.2822254209833226,0.08859902951096726,nan
1740794496.7560482,0.8837607148293232,0.6773458594695936,0.3801231638250137,2.0746664078660677,nan
1740794496.7599537,-0.6687336708221829,1.527481911791874,1.5714642628424282,1.4489176029739788,nan
1740794496.7638593,-1.9603010615841625,1.5629549776923104,0.8542405203927517,-0.6776128263654593,nan
1740794496.7677648,-1.6593646909757527,0.4251694401672443,-1.0099424790904103,-1.914008511587471,nan
1740794496.7716703,0.07173421031999226,-1.3769382921790614,-1.8901012112736273,-1.0246533827089153,nan
1740794496.7755759,1.9301036285432422,-2.7277483886363205,-0.7263901641615981,1.0799806024492131,nan
1740794496.7794814,2.7312649003360168,-2.6492688154891146,1.246296743096985,2.4795023535048726,nan
1740794496.7833872,2.1885497150318716,-1.0174730879115053,1.907742339775029,2.073926047646981,nan
1740794496.7872927,0.7154383003960771,1.276441615551494,0.6385047768680151,0.3370572882899466,nan
1740794496.7911983,-1.0900856416263638,2.8824024979032927,-1.0696274613311283,-1.3930577080946343,nan
1740794496.7951038,-2.6003435111969546,2.896674693446746,-1.3934322816521334,-2.100417557861158,nan
1740794496.7990143,-3.1231255081702693,1.4486291474822715,-0.19189708661078975,-1.6789265298261726,nan
1740794496.8029199,-2.2045500388550416,-0.4746181253310284,1.0328181898258137,-0.6982235213719314,nan
1740794496.8068254,-0.15658305199323785,-1.7970021760935395,0.985215673995888,0.18746198608994347,nan
1740794496.810731,1.9233860913786134,-2.0652226657100545,-0.05640054268175917,0.6833467436844314,nan
1740794496.8146365,2.9280606284424464,-1.548658182228196,-0.840660240693352,0.9235400145275868,nan
1740794496.818542,2.5727276243474653,-0.7625696235038633,-0.7252571584727558,1.1727265752107026,nan
1740794496.8224478,1.3728974428257947,0.03431584257174281,-0.22979597101419866,1.3924489185951407,nan
1740794496.8263533,-0.09656087166999705,0.8721926343857832,-0.07519129324757082,1.1169353988221324,nan
1740794496.8302588,-1.6084031950481945,1.6867352050786175,-0.17299051648823,-0.06374087452926054,nan
1740794496.8341644,-2.8414303122502425,2.0432422013216494,0.09166247888501351,-1.7728901009027982,nan
1740794496.83807,-2.936191799895893,1.391455053406668,0.8015803340444461,-2.7647207578172392,nan
1740794496.8419755,-1.1367496655384999,-0.3057321554537937,1.2326142734988854,-1.9343530862105596,nan
1740794496.8458853,1.8913596572826046,-2.205098800907276,0.7840152161670103,0.40109145697780624,nan
1740794496.8497908,3.8678292712258093,-2.9843101209923897,-0.17493378727436845,2.428606512562783,nan
1740794496.8536963,2.7696882767556263,-1.8424368380327152,-0.7519017002151315,2.410357029021061,nan
1740794496.857602,-0.8369148144865289,0.6991304374788928,-0.6941516373959818,0.4607572778135098,nan
1740794496.8615077,-3.7712326235300546,2.9685174664661025,-0.6410914684680975,-1.4452186139641772,nan
1740794496.8654132,-3.1478692273354416,3.3103660937488515,-1.049476518194422,-1.4634713702053903,nan
1740794496.8693187,0.5595931670647212,1.3854022454700015,-1.2825586834687372,0.17317036623678175,nan
1740794496.8732243,3.739335177383626,-1.4852985153549767,-0.30873614560963986,1.4350551420820343,nan
1740794496.8771298,3.253945600990335,-3.2927514726669074,1.6930902305188993,0.779129450705071,nan
1740794496.8810353,-0.2855784628623052,-2.871120411532153,2.9957712524899134,-1.098071589078738,nan
1740794496.8849409,-3.1886391271122343,-0.7160004988923387,2.0675321819817296,-2.048737337435883,nan
1740794496.8888466,-2.6520835249663337,1.5632713824669213,-0.5006100713133448,-0.9256514827079058,nan
1740794496.8927557,0.3128778057088155,2.5895838022736295,-2.353120185727764,1.1181403495517281,nan
1740794496.8966613,2.204124118502645,2.1291190527644583,-1.884019615041257,1.971013384503699,nan
1740794496.900567,1.0409503336183072,0.8728278440566108,-0.03996874289271807,0.9536027801085123,nan
1740794496.9044726,-1.4942156519607097,-0.43794245321954445,0.8230191110939635,-0.5372933230027824,nan
1740794496.9083781,-2.1407609097176845,-1.5098330697794,-0.21901496396505266,-0.8193906860486114,nan
1740794496.9122837,0.11552509296494393,-2.2104174500060276,-1.5240718884905093,0.06272725642509658,nan
1740794496.9161892,2.8710855558379955,-2.1256401314803397,-0.9169068197726205,0.531981214410419,nan
1740794496.9200947,3.038117761633832,-0.7891734039935245,1.4973473375207371,-0.4057281711216023,nan
1740794496.9240003,0.27996370978385327,1.5122975063113882,3.1922929049944555,-1.7614724982869703,nan
1740794496.927906,-2.7029214357977103,3.394805202966819,2.0707976977543,-1.6533341552988992,nan
1740794496.9318116,-3.1678988583453473,3.250820033704354,-1.0060179912618454,0.37130296970524845,nan
1740794496.935717,-1.1029987353864423,0.7476388086088804,-3.0378761583227907,2.575464950361481,nan
1740794496.9396255,1.1743546837351901,-2.557715360667942,-2.1536895975438837,2.813291921286063,nan
1740794496.943531,1.7541055652027475,-4.304129595618843,0.4392944221686753,0.8395203974131609,nan
1740794496.9474366,0.9087305946264533,-3.2359025808964934,1.9849971267226334,-1.47487677882989,nan
1740794496.951342,0.1451790146174551,-0.17512316339315895,1.2511758661839263,-2.196573515004332,nan
1740794496.9552479,0.12090566263138723,2.784519964053271,-0.43859382944124264,-1.2618608853647832,nan
1740794496.9591534,0.09171065931644151,3.965903820270094,-1.1474422498786276,-0.1825789179874939,nan
1740794496.963059,-0.6620253009868446,3.0899710741240183,-0.6120652534736779,-0.0851114012635755,nan
1740794496.9669645,-1.5217847223324639,0.9436480374709595,-0.10559906964788096,-0.4758024434781527,nan
1740794496.97087,-1.1534086822551732,-1.4791271287435552,-0.3604282916341804,-0.08463264484250071,nan
1740794496.9747756,0.6788191512689538,-3.3582754143295683,-0.4692173931174477,1.3689949351760893,nan
1740794496.978681,2.434197775603116,-3.936074239266021,0.7294926858051529,2.633401156026941,nan
1740794496.9825869,2.2516158266648074,-2.6566227839246954,2.634060787660547,2.2181920688608354,nan
1740794496.9864945,-0.025648716600931563,0.19809281023225592,3.050049761403689,0.033790326522920945,nan
1740794496.9904,-2.5306466277819726,3.1635270450195585,0.6612301294566337,-2.3981648362219343,nan
1740794496.9943058,-3.1253535632599494,4.371980299027976,-3.085367088573205,-3.3002347232847673,nan
1740794496.9982114,-1.364155772330588,3.0489601012096097,-5.076019159154919,-2.128921259141794,nan
1740794497.002117,1.262209696415738,0.25537851070070067,-3.5539815703709166,0.1377212295186576,nan
1740794497.0060225,2.8029650136949735,-2.026297478670673,0.2273614891185013,1.9281798325395099,nan
1740794497.009928,2.4176514116598185,-2.6219003502279787,3.403639038962479,2.241370043603415,nan
1740794497.0138335,0.6970442629870351,-1.9471713450597432,4.195936650863383,1.1830349462274237,nan
1740794497.017739,-1.131209380809093,-1.127592114783758,2.984440608863865,-0.2902779438122295,nan
1740794497.0216446,-2.096284162371271,-0.606528923551188,1.080660016651244,-1.0964593081020533,nan
1740794497.0255504,-1.8475599294707779,0.11208880791325215,-0.8188645158717421,-0.7680047876217193,nan
1740794497.029456,-0.6240395502128465,1.3983171372735939,-2.628790168447323,0.2416552810679444,nan
1740794497.033368,0.8763156018312356,2.5711959244407985,-3.8416211920423504,0.9504376761069202,nan
1740794497.0372736,1.7634150011870426,2.409800246603695,-3.369182911367708,0.6945675119500063,nan
1740794497.0411794,1.45870699614928,0.5961378637495621,-0.8058358898848156,-0.30635980725799894,nan
1740794497.045085,0.16128870434816125,-1.6524469860094837,2.5074249892461826,-1.2250235287444071,nan
1740794497.0489905,-1.2056833041421133,-2.633897670544783,4.267281028574198,-1.4403968421842,nan
1740794497.052896,-1.6531767356899343,-1.7960387816041623,3.265905629580093,-0.9883503392469467,nan
1740794497.0568016,-0.8703420491632788,-0.14932546710548403,0.496858944806263,-0.22142131946163116,nan
1740794497.060707,0.5653864935069342,0.9315001896768499,-1.8903101035010355,0.7202671972775276,nan
1740794497.0646126,1.634620726946979,1.06690056513575,-2.558900556456813,1.8046704802245725,nan
1740794497.0685184,1.58063637676781,0.8766735100117271,-1.783162776053384,2.5359998278845204,nan
1740794497.072424,0.39500079873399785,0.8411609491112205,-0.576761025546205,1.9721894175335233,nan
1740794497.0763295,-1.1561561620048035,0.6010998966586317,0.4425016679713519,-0.2236422215553215,nan
1740794497.0802412,-1.9817005086763793,-0.3852188649631218,1.146962833709804,-2.820816944550377,nan
1740794497.0841467,-1.4143257480836857,-1.7367618911229343,1.3226364032569593,-3.6765379056481327,nan
1740794497.0880523,0.19553041969767124,-2.1752323386086863,0.6442837494425543,-1.819929744062872,nan
1740794497.0919578,1.615020280464842,-0.8818303532272257,-0.6280839412807179,1.2299352748387908,nan
1740794497.0958636,1.7042042088856357,1.362527193724783,-1.4018919245925243,2.7175087364351187,nan
1740794497.099769,0.4711604291806471,2.7197306778443004,-0.7273618556575593,1.4677221495111974,nan
1740794497.1036747,-0.8805777537054436,2.074572542134824,0.9641256646478614,-0.812171354547487,nan
1740794497.1075802,-1.1236596614048597,0.12122115902769262,2.009266101072703,-1.4058296236137475,nan
1740794497.1114857,-0.2577350095878065,-1.4357425669683037,1.189330349832576,0.32175688498542493,nan
1740794497.1153913,0.5508897265421905,-1.6335796738593007,-0.8782326216262124,2.1757593502068384,nan
1740794497.1192968,0.3479017541838771,-1.0029039401562885,-2.30438187241352,1.7105741671650467,nan
1740794497.1232026,-0.4732217143700502,-0.6085236274428971,-1.8864434998080886,-0.8165617668751886,nan
1740794497.1271136,-0.6695691585353947,-0.6618436594006308,-0.2509734028500649,-2.6584705284924612,nan
1740794497.131019,0.23587873831617512,-0.3811005355614307,1.041919546414055,-1.8136192757681098,nan
1740794497.1349247,1.190478157402349,0.8134887367485645,1.2393246544584386,0.5458924058485312,nan
1740794497.1388302,0.7867333847125952,2.2970067847002618,0.9070040567624723,1.4582552810243512,nan
1740794497.1427357,-0.890470822816122,2.695601120021583,0.8091740430850549,-0.17497835490176236,nan
1740794497.1466415,-2.028998325161453,1.3182698007039282,0.7953032021094082,-2.079728909711312,nan
1740794497.150547,-1.0162571574014276,-1.0451692364527265,0.166796251467871,-1.2523238052427337,nan
1740794497.1544526,1.5393888255932773,-2.8091215597538044,-1.0705690071182459,2.2273172357155024,nan
1740794497.158358,3.124761451284975,-2.957518296496577,-1.8838569520410102,4.811987824579504,nan
1740794497.1622636,1.8795424068387534,-1.6801102442229894,-1.3966840606732513,3.2706242305135413,nan
1740794497.1661692,-1.3195964931400361,0.1366576700604039,-0.07904393526205987,-1.5468262554543726,nan
1740794497.1700747,-3.596906971721688,1.7247142032140266,0.706273502635131,-5.315474508160366,nan
1740794497.1739855,-2.9299625586999802,2.66118076026003,0.3706972624995661,-4.668878866066843,nan
1740794497.177891,-0.08934666640393084,2.6076993571678924,-0.11982742496852182,-0.5928200190776955,nan
1740794497.1817966,2.3258043697119173,1.3045801293005221,0.524084506917698,2.8671027391761124,nan
1740794497.185702,2.5654789658846293,-0.9497138123106431,2.078607297313734,2.9531381051518673,nan
1740794497.1896076,1.1989312601279059,-3.0043001196376253,2.6986641989228204,0.7308023287315975,nan
1740794497.1935132,0.00907244726071544,-3.437840568078708,0.9154149713333475,-0.7094527875956829,nan
1740794497.1974187,-0.15401065633334596,-1.7205891855100568,-2.4519785696169643,0.053111098705059666,nan
1740794497.2013245,-0.07816611209788996,1.154278585485037,-4.732371279994045,1.4473701217548929,nan
1740794497.20523,-0.8521056130903218,3.298506653946677,-3.8691096415170554,1.1451556171489512,nan
1740794497.2091355,-2.2463555354837363,3.3348079378876507,-0.3603291002921328,-1.0534530562054027,nan
1740794497.213041,-2.7488292181684795,1.3669327382682797,3.2503648501395976,-3.0029237260002963,nan
1740794497.2169466,-1.200002198103218,-1.2335674713946136,4.619451447367647,-2.650267700790385,nan
1740794497.2208564,1.7938418053578475,-2.8906954681633517,3.2841919383182736,-0.19673260935247147,nan
1740794497.2247622,4.163898509252009,-2.8136643335584983,0.4847076542360296,2.2675436579888926,nan
1740794497.2286677,4.072336615108036,-1.2886568578804278,-2.113582279164183,2.8979679236968363,nan
1740794497.2325733,1.3992400825431848,0.6922842786242673,-3.362764142528672,1.5766623194617573,nan
1740794497.2364788,-2.183398195956396,2.0692659394972384,-2.8360013942690734,-0.45788651416495874,nan
1740794497.2403843,-4.431620246280791,2.258760873916316,-0.8529016951204466,-1.8905989994118286,nan
1740794497.2442899,-4.021442678736708,1.3854021190259662,1.4515663176561575,-2.0804065208539875,nan
1740794497.2481954,-1.333583854206759,0.10151451901767115,2.5562934077383352,-1.0354977505896377,nan
1740794497.2521012,1.8650103019749378,-0.9009898513398553,1.697272969409797,0.7209506343740537,nan
1740794497.2560067,3.604250864681899,-1.327386774850426,-0.256019825756064,2.169896339320149,nan
1740794497.2599123,3.0164904939566446,-1.3053408828841535,-1.427812118790976,2.1994421741931967,nan
1740794497.2638178,0.8528346570568834,-1.0320815050862742,-0.7866596211270711,0.52597740792471,nan
1740794497.267727,-1.222030640450701,-0.4939659173482069,0.7090045663435908,-1.7481008091496548,nan
1740794497.2716324,-1.9918962089686425,0.3794008410887814,1.1296770894527972,-2.854133001556339,nan
1740794497.275538,-1.501085006352277,1.3303707479029758,-0.19601540368501405,-1.91127307137234,nan
1740794497.2794435,-0.6246801133088916,1.7330084069172416,-1.7815240149101266,0.2610829046535269,nan
1740794497.2833493,0.009096506803863362,1.1209113067035477,-1.6055276580995466,1.9789593655035707,nan
1740794497.2872548,0.496265569127967,-0.22366109140588208,0.4825117811083459,2.2628778950310826,nan
1740794497.2911603,1.0819840598968928,-1.3427575298551093,2.38875408050788,1.4501007954864686,nan
1740794497.2950659,1.4263672150751858,-1.4063909425841832,2.018112031008173,0.38759371752513244,nan
1740794497.2989714,0.8294298228975228,-0.48004820336539233,-0.34007747231872715,-0.5755363988102267,nan
1740794497.302877,-0.7301230992524407,0.5474749754262557,-2.2414148600700536,-1.540029148323263,nan
1740794497.3067825,-2.0997056481362373,0.8198801802975694,-1.7519963057282126,-2.2597561769038657,nan
1740794497.3106883,-1.8940732708320553,0.28111641511987645,0.43272323481876684,-1.9581483563686444,nan
1740794497.3145967,-0.022261665425807625,-0.38932277438696183,1.8065443389782458,-0.25336940595876156,nan
1740794497.3185022,1.9677315833543905,-0.5211815724342534,0.8722649645276008,1.9559934003851307,nan
1740794497.3224077,2.315103102626117,-0.06941454113337879,-1.2143296121789917,2.9889576219100777,nan
1740794497.3263133,0.8048764868343738,0.4603485394108137,-1.9766698226429824,1.9697567038018633,nan
1740794497.330219,-1.057736772955743,0.5706722551223766,-0.3765911582856469,-0.2359818961112328,nan
1740794497.3341246,-1.6479683719790033,0.19897835264225913,2.054890987530995,-1.8514406964830483,nan
1740794497.33803,-0.8185516009621576,-0.3206416225729759,2.8554871262511656,-1.8898575412335032,nan
1740794497.3419356,0.21193032034900688,-0.5836123149866748,1.1548412503584624,-0.8714981939139369,nan
1740794497.3458412,0.3870129888889702,-0.3929601413285143,-1.5694823870848564,0.0695564734459787,nan
1740794497.3497467,-0.08739161715039913,0.14463362790729883,-3.064427792495038,0.4517553394889485,nan
1740794497.3536522,-0.25082333982110133,0.6676530270604093,-2.3592068560570847,0.6124986637579727,nan
1740794497.3575578,0.2864023066342218,0.7450124243247881,-0.30507633563743675,0.8421658083632708,nan
1740794497.3614657,0.8715448542571225,0.19041749222629228,1.5355931335258113,0.8249728294785448,nan
1740794497.3653712,0.6911408155254012,-0.6874959233482939,2.2086576278786563,0.15626842020329523,nan
1740794497.369277,-0.17284815284437902,-1.2110804504654875,1.719603266803129,-0.8444792321447246,nan
1740794497.3731825,-0.8252325878736939,-0.8746621139601133,0.5759803524224973,-1.251528039284774,nan
1740794497.377088,-0.6248972808909649,0.14753126511245745,-0.6519428060768476,-0.5714691374043492,nan
1740794497.3809936,0.09895259805467962,1.0790211894644433,-1.433130511782917,0.5835376961080113,nan
1740794497.3848991,0.5054436975628985,1.2165020773037674,-1.3776717169800836,1.0969336216993495,nan
1740794497.3888047,0.2356663338947134,0.5588878393144839,-0.5368059102049038,0.5589605099152684,nan
1740794497.3927102,-0.270568254056257,-0.2521248881531764,0.4705905822105174,-0.34310101483785455,nan
1740794497.396616,-0.41350318763310245,-0.598844240672379,0.8877148802961088,-0.678982744639464,nan
1740794497.4005215,-0.1393609050467184,-0.43733911941552783,0.5040389228918586,-0.3001705460537224,nan
1740794497.404427,0.1331979395071403,-0.1819753996935736,-0.15755228491528697,0.16065417945365343,nan
1740794497.4083343,0.14173367028045242,-0.15121102338361536,-0.41478722273710983,0.1794269399041372,nan
1740794497.4122398,0.07884173938152053,-0.25270460707391657,-0.13456198405018088,-0.0690117080546183,nan
1740794497.4161453,0.21546340360179736,-0.21340454498414627,0.22286242294237837,-0.0984998944502865,nan
1740794497.4200509,0.4372522405611833,0.02387660789544136,0.22712546511543114,0.15620237296304124,nan
1740794497.4239564,0.36255134181241344,0.25756452389413653,-0.01776901692201974,0.27834330687402964,nan
1740794497.427862,-0.11528147680419627,0.33487386141089565,-0.08424711442707221,0.01661628453728332,nan
1740794497.4317677,-0.6082759080607102,0.342301251114033,0.16832037559379254,-0.29912921499711514,nan
1740794497.4356732,-0.6568197587661413,0.4111460515266106,0.38278180654105765,-0.1840227683675973,nan
1740794497.4395788,-0.2617820600831117,0.43663476014034547,0.16045270772925285,0.2949417866406127,nan
1740794497.4434843,0.1490941960117276,0.15679291945706608,-0.4009352701311957,0.5167475030163837,nan
1740794497.4473898,0.25378420565896004,-0.45340655058085333,-0.7717941455348121,0.08237905306607493,nan
1740794497.4512954,0.1691282024232686,-0.9940997119899061,-0.5839598186671575,-0.6131140281063174,nan
1740794497.4552073,0.1858149875077361,-0.9780537939944361,-0.03035301733937076,-0.7879932229183482,nan
1740794497.459113,0.31271672196430317,-0.3507147705280715,0.39240570737953323,-0.20050668614184938,nan
1740794497.4630184,0.27017772736787055,0.422424206599472,0.44941241356370687,0.5463079426801722,nan
1740794497.466924,-0.06506817410852792,0.8194485554802259,0.3478573224330309,0.7043079409495836,nan
1740794497.4708295,-0.39767492347139777,0.7368733903609178,0.36134628419761267,0.22618848534595914,nan
1740794497.474735,-0.34023647598039775,0.4475346030151326,0.425558642031354,-0.25749391904932706,nan
1740794497.4786408,0.06601975728727077,0.17485868875117527,0.2339639115411728,-0.2447063326144165,nan
1740794497.4825463,0.33624473410571615,-0.12606271522351467,-0.3010294312293086,0.07958460376206031,nan
1740794497.4864519,0.11010785078525051,-0.5216090710349458,-0.8281694493513554,0.18405646913756413,nan
1740794497.4903574,-0.383069397516053,-0.7957456431464907,-0.88348232533955,-0.08189176804859814,nan
1740794497.494263,-0.5590281193480143,-0.598456020295832,-0.3894589443740338,-0.3300170560272392,nan
1740794497.4981685,-0.1561221562247528,0.07093554901641384,0.2553440716514401,-0.20142333220083916,nan
1740794497.5020795,0.4522275047102408,0.6924662380254758,0.5855442029977802,0.13417936278371662,nan
1740794497.5059853,0.6772199547814114,0.6985737809260653,0.49608556946964893,0.21513144044123214,nan
1740794497.5098908,0.35597853657360845,0.10495870587232284,0.23633956597157008,-0.07154864666900351,nan
1740794497.5137963,-0.12900885815376703,-0.46536710401698395,0.0605384573116706,-0.31350480348184706,nan
1740794497.5177019,-0.3338763711716888,-0.45058557164425717,-0.01140254055654036,-0.10827566556160564,nan
1740794497.5216074,-0.21838091306479457,0.04331915072198009,-0.08540426941392427,0.38609499081099863,nan
1740794497.525513,-0.07032553905796667,0.40515598005763465,-0.16277958212484345,0.6101525739768824,nan
1740794497.5294185,-0.07566525772031919,0.24739463031044598,-0.12739571634617275,0.28079247396079593,nan
1740794497.5333242,-0.11534236532697262,-0.17219199075266256,0.046435659363408543,-0.2674340334856057,nan
1740794497.5372298,-0.003851937335011304,-0.31778308715648995,0.17742256806475926,-0.49469212055640066,nan
1740794497.5411353,0.20419705239277808,-0.04655869932448901,0.04983571104414958,-0.2841573525389039,nan
1740794497.5450408,0.2618070676003997,0.24844001233991286,-0.3094629751573906,-0.00708213866759948,nan
1740794497.5489514,0.05437122084123047,0.16986562122388663,-0.5910987995296544,0.004322718484921989,nan
1740794497.552857,-0.23439215598768845,-0.17437490523626328,-0.4793981327145403,-0.13773159085928843,nan
1740794497.5567625,-0.32245443569324855,-0.32584436581563364,0.035062211716004564,-0.09597705607069151,nan
1740794497.560668,-0.1309535074811792,-0.07673802378869822,0.6242455213684109,0.18826613825444805,nan
1740794497.5645738,0.1701499336915112,0.26348216913689865,0.8908868363116239,0.3999105506161368,nan
1740794497.5684793,0.3710317809608452,0.27433586625040624,0.6723197009423804,0.27940195834967557,nan
1740794497.5723848,0.38944553467497417,-0.028670099644135274,0.12949870777108535,-0.018583201156457445,nan
1740794497.5762904,0.23637886537510946,-0.21912922168907295,-0.40191360515285257,-0.12967463129614978,nan
1740794497.580196,-0.06658792748936775,-0.029935521211174054,-0.6450264061413097,0.02540880336478599,nan
1740794497.5841014,-0.4408561642065293,0.27107444219753757,-0.5408103896604266,0.1280147963534144,nan
1740794497.588007,-0.6720048623014623,0.20735193253230538,-0.25601387574047973,-0.10004825187310246,nan
1740794497.5919127,-0.521970305368853,-0.26638110782056773,-0.041169212715639274,-0.4789720662580683,nan
1740794497.5958226,0.0013334776433639552,-0.6260550962910315,-0.0211981041208281,-0.5432006169426349,nan
1740794497.599728,0.5465967819169887,-0.3627367286968292,-0.0806282441136365,-0.11607133186101198,nan
1740794497.6036339,0.6974861656593164,0.38404093724663596,0.022162246015915422,0.4327750882237216,nan
1740794497.6075394,0.3756343661609858,0.9087368462751474,0.3760832260908223,0.5845243795134226,nan
1740794497.611445,-0.08579592442508145,0.6719462162996237,0.7490239323559522,0.24926298659422008,nan
1740794497.6153505,-0.29724118003307665,-0.1360100087041994,0.7562152115317418,-0.16301602065467377,nan
1740794497.619256,-0.19474002574195204,-0.808116395002583,0.2512243346550049,-0.2338750657282334,nan
1740794497.6231616,-0.026184287784227246,-0.8322236912040969,-0.4619599356654173,0.019068391866201295,nan
1740794497.627067,-0.007580437112478361,-0.31745426265119026,-0.8647366749262787,0.23951315292225517,nan
1740794497.6309729,-0.09477572831102354,0.2414045910626378,-0.7055308059360581,0.17753181780883112,nan
1740794497.6348784,-0.11951190360878162,0.48694048502581155,-0.2279962382655582,-0.08106837221566571,nan
1740794497.638784,-0.050287012653895145,0.4266825197744048,0.10604660048650569,-0.3048123403055341,nan
1740794497.6426933,-0.007471246977314701,0.24814517585973214,0.10127085957349387,-0.3881263576712503,nan
1740794497.6465988,-0.03963013171076518,0.07393794505737107,-0.008752482129350123,-0.35392127248490646,nan
1740794497.6505046,-0.017075354113763402,-0.06173309730926467,0.11310081551802836,-0.18861684305887044,nan
1740794497.6544101,0.1705879262641858,-0.12116498661018714,0.4799269878468647,0.15609452121896267,nan
1740794497.6583157,0.38329076904752446,-0.08348822395898899,0.740543739811243,0.5680623875991396,nan
1740794497.6622212,0.3339975229643965,-0.04236766965330794,0.5610692116509796,0.7293530194516081,nan
1740794497.6661267,-0.04237087445636914,-0.15283556845271906,-0.011953402473787306,0.41340132154813414,nan
1740794497.6700323,-0.42737874885376403,-0.40571625312683096,-0.5973906599870743,-0.1907610555551012,nan
1740794497.6739378,-0.4323155255820379,-0.5276680961181812,-0.8422775469774791,-0.5869493016830216,nan
1740794497.6778436,-0.052205001656358954,-0.2314706476994359,-0.6840110011219799,-0.47431515612630576,nan
1740794497.681749,0.29945056918928226,0.40776136017223585,-0.2835466109029797,-0.07183761918666036,nan
1740794497.6856546,0.25256394842303675,0.9176463415115145,0.1840773743546349,0.14667398737963255,nan
1740794497.689563,-0.09900294859526106,0.8560299111503354,0.5896010581299559,0.00691292555895177,nan
1740794497.6934686,-0.3240149349347268,0.2616005250905404,0.7634474484554267,-0.19426580838168553,nan
1740794497.6973743,-0.1711139144789,-0.38311750991003507,0.5207241673806752,-0.10371834534423029,nan
1740794497.7012799,0.15349372791550028,-0.640446943304792,-0.10962914472675299,0.21976190840671594,nan
1740794497.7051854,0.27142013098942397,-0.5054864997091215,-0.7289792455011458,0.38283438496247074,nan
1740794497.709091,0.10403854787325151,-0.28460918844229033,-0.8035952561844596,0.17744935487051416,nan
1740794497.7129965,-0.060708138917984926,-0.17554661223748985,-0.1728849397281795,-0.1352420958300835,nan
1740794497.716902,0.029379850246193096,-0.08527802835556994,0.6943294745378317,-0.1565379558737594,nan
1740794497.7208076,0.24696739548492058,0.13181091876342524,1.0515724700098523,0.12258808658182356,nan
1740794497.7247133,0.2397022398609043,0.38736065644649054,0.5541591015644298,0.28876524068937487,nan
1740794497.7286189,-0.11496117028176644,0.4351194544391764,-0.4087949024088904,0.03461744203366592,nan
1740794497.7325244,-0.5252263384849786,0.21172973361656164,-1.0750619887345303,-0.4158137797061613,nan
1740794497.7364323,-0.5945320307596204,-0.03187012908227616,-0.9927555372285065,-0.5439619257427776,nan
1740794497.7403378,-0.24463029187436824,-0.021850954526698534,-0.3464989375964374,-0.16719326082450425,nan
1740794497.7442434,0.2342907614757105,0.17633190186235329,0.33196979736311755,0.3166581672100463,nan
1740794497.748149,0.5107999361199753,0.20526141598745992,0.678339422061922,0.38876187310241844,nan
1740794497.7520547,0.49473511548989657,-0.14612041850222382,0.6944534148931973,0.02297530203846646,nan
1740794497.7559602,0.2938270800890922,-0.6373635834496164,0.5395496997424701,-0.29079871628844484,nan
1740794497.7598658,0.014909319931407526,-0.7942794804462603,0.28200950960422566,-0.13877408510714356,nan
1740794497.7637713,-0.2806474062720862,-0.4158914379134986,-0.07992469663467207,0.3259507466997037,nan
1740794497.7676768,-0.4697422924124113,0.210932288866773,-0.44484774540217875,0.5716495414734051,nan
1740794497.7715824,-0.37836612889667154,0.6207869107617103,-0.6033127436178931,0.3070804274989313,nan
1740794497.775488,0.004159940508136756,0.6254728635215949,-0.4569560985881062,-0.2090456635691077,nan
1740794497.7793937,0.39243071889953157,0.4075582436232472,-0.16692558487039533,-0.49787890846941063,nan
1740794497.7833009,0.42501538034116887,0.2135671963504229,0.006508029586454179,-0.39256097744038754,nan
1740794497.7872064,0.05741456474227994,0.07159254695152456,0.005367452932047638,-0.14825512637939267,nan
1740794497.791112,-0.34840398277016493,-0.1391812253424227,0.03167850352359069,-0.06593122562838266,nan
1740794497.7950175,-0.40080144530505,-0.4212688673472658,0.2621486111124152,-0.13561517929480724,nan
1740794497.798923,-0.10444166244200923,-0.5817933315753836,0.5672464792513533,-0.10990140442309486,nan
1740794497.8028286,0.1783922690839327,-0.45036894565830177,0.6106547021184472,0.14598234347840963,nan
1740794497.806734,0.18576227488153915,-0.10029733374401498,0.24468560116147242,0.48154299119255367,nan
1740794497.8106399,0.05798471728887163,0.21378321435299333,-0.27238758164261917,0.6365095569339045,nan
1740794497.8145454,0.09985271880925937,0.31735423122404705,-0.5262310628923484,0.5001908578634714,nan
1740794497.818451,0.31744940857670484,0.25436503972174834,-0.3918687030690347,0.15511559131213895,nan
1740794497.8223565,0.35677044239287437,0.16674846016336606,-0.14891638176976205,-0.2624952916464504,nan
1740794497.826262,-0.03263794644719797,0.11263762367295788,-0.12325468169623104,-0.6446590105875604,nan
1740794497.830174,-0.588774470260623,0.05757427901488928,-0.28248663813731073,-0.8610887011997524,nan
1740794497.8340797,-0.7503099570808399,-0.002065520396729215,-0.2775665071697201,-0.7472255681179023,nan
1740794497.8379853,-0.2975554039480217,-0.006752393759777264,0.10916404642509756,-0.2492753415357723,nan
1740794497.8418908,0.34626625875394873,0.04602008928822052,0.6441279768029202,0.42772007051362076,nan
1740794497.8457963,0.5573469040024571,0.02877741852103173,0.8456175220719013,0.9037475080043474,nan
1740794497.849702,0.20705243887566321,-0.1756708087024372,0.4929563728147809,0.9138160840858282,nan
1740794497.8536074,-0.20941340082106905,-0.46510560849032817,-0.13272875304298593,0.5103728704806252,nan
1740794497.857513,-0.1696237407646244,-0.5419931145399769,-0.5383003807708548,-0.02647597358127687,nan
1740794497.8614187,0.26189250641670275,-0.21774442456122323,-0.5009241534706315,-0.43864403567400007,nan
1740794497.8653243,0.527443042440516,0.33121674016108194,-0.21983328928512338,-0.6196391679631119,nan
1740794497.8692298,0.25113610856226803,0.6840727421449783,-0.02765720092928763,-0.5564284402639519,nan
1740794497.8731353,-0.31888873157431036,0.5795928910882646,-0.04015291863775339,-0.2688907153384763,nan
1740794497.8770466,-0.6137564243297022,0.16520278154472243,-0.12213509136982567,0.12969945873577426,nan
1740794497.8809521,-0.4026008207599882,-0.1825475395885826,-0.12029855957382844,0.39207610056077424,nan
1740794497.8848577,-0.013928428370668064,-0.25098097944629827,-0.02215960151207655,0.30122751985373947,nan
1740794497.8887632,0.11160916412688644,-0.1544584381070817,0.12238374309717025,-0.0698075025312745,nan
1740794497.8926687,-0.04303053728532697,-0.12011367192101897,0.3231689551591785,-0.3440675684740928,nan
1740794497.8965743,-0.1004407030886043,-0.19297369741293785,0.5826089304793903,-0.1948421831510348,nan
1740794497.90048,0.18395733650445614,-0.2150389579578589,0.7293064945418299,0.2778653408785226,nan
1740794497.9043856,0.5712435732970395,-0.06642974337410895,0.4637449918631075,0.6063215510576947,nan
1740794497.908291,0.6030003806532005,0.15804309650727308,-0.3048367913982727,0.44157492603264537,nan
1740794497.9121966,0.15537890740694166,0.2524399665814416,-1.182953913062762,-0.06387803025628776,nan
1740794497.9161022,-0.389975403296394,0.13819434261406952,-1.4886219482527847,-0.42834019445300586,nan
1740794497.9200077,-0.5615984546514777,-0.05525987833328004,-0.849149039521702,-0.3805260811335933,nan
1740794497.9239182,-0.30638231755108947,-0.14122605393309626,0.37229380183917626,-0.13599494576403523,nan
1740794497.927824,-0.004739224626651299,-0.05713543868346189,1.3095463584053344,-0.08694214288237638,nan
1740794497.9317296,-0.0009528364513976784,0.11588373054709573,1.3248088752259535,-0.2881829617014284,nan
1740794497.935635,-0.2109315885962009,0.2590512888537427,0.5468762833798265,-0.37339393144882477,nan
1740794497.9395406,-0.24963891235170546,0.2897367539810213,-0.3007883549416319,-0.01693196380081349,nan
1740794497.9434462,0.09285470262804371,0.15986647858774175,-0.5916628416894782,0.6106453893881776,nan
1740794497.9473517,0.5790296623047431,-0.12900385842421125,-0.3199769090932571,0.9538092660762931,nan
1740794497.9512572,0.7518328101147703,-0.4626645614174725,0.016714929358342633,0.6478627562956212,nan
1740794497.955163,0.4014786971672957,-0.6211033640797533,-0.01328427578660125,-0.0859921479083014,nan
1740794497.9590685,-0.22289135897304044,-0.4421389086418537,-0.35596980117855614,-0.6611781035814775,nan
1740794497.962974,-0.6501629068666177,-0.007119341108243918,-0.5832493362373922,-0.7012233475911192,nan
1740794497.9668796,-0.6068019844246002,0.3902519165709573,-0.36023238159738574,-0.34529030454409837,nan
1740794497.97079,-0.21434977519867165,0.5132024649786843,0.21982945503466045,-0.008739267335993678,nan
1740794497.9746954,0.17573416678571144,0.40357617091583003,0.7294033399608929,0.07026291919883547,nan
1740794497.978601,0.30435302959993343,0.28636002488043677,0.7933815958792632,0.0008098254249002628,nan
1740794497.9825065,0.18193888786501322,0.2616245635178434,0.3951646592634538,0.018345531771997502,nan
1740794497.986412,0.0039683051592200305,0.17087527021501248,-0.14425764231621988,0.1928031164388139,nan
1740794497.9903178,-0.06505383916452324,-0.1705584658307464,-0.45288239077677017,0.38158348063502057,nan
1740794497.9942234,-0.023271579854935234,-0.6516710705562079,-0.3972392251907839,0.40774895652525117,nan
1740794497.998129,0.021097468206082232,-0.88471942012407,-0.14756782588429965,0.22314965789863786,nan
1740794498.0020344,0.0003435649054320122,-0.6014769241595636,0.009250010608423613,-0.08349245463371416,nan
1740794498.00594,-0.03451183842388751,0.01988110672866193,-0.06250620881216089,-0.3679598840812532,nan
1740794498.0098455,0.011202656279106807,0.5049039365040199,-0.2301263008335216,-0.4963555650270245,nan
1740794498.013751,0.1383356135486992,0.5655694354761163,-0.23126580906616342,-0.39184972715936844,nan
1740794498.0176606,0.22036202872621735,0.3643181805601833,0.05173281476688785,-0.09255362559037408,nan
1740794498.0215662,0.12862459194643244,0.25754730989999036,0.4418322403921761,0.23090840108487287,nan
1740794498.0254717,-0.11477033138711223,0.33797391774320784,0.6055896130729522,0.3756968503199044,nan
1740794498.0293772,-0.3346331428302433,0.3350697766558665,0.3690287017240693,0.27450603082552333,nan
1740794498.0332828,-0.3667316290109223,-0.008544326035841768,-0.09574214639442266,0.05704510887079362,nan
1740794498.0371885,-0.21055237845046088,-0.5547045893440697,-0.4169347029837941,-0.0836640075345548,nan
1740794498.041094,-0.002693581022651238,-0.8647045745478347,-0.37526156837231484,-0.08308869039156076,nan
1740794498.0449996,0.14511551798106617,-0.6736759350671134,-0.10825761193783165,-0.03744373754327646,nan
1740794498.0489051,0.2401884987765526,-0.18001705948879068,0.0515954922087322,-0.04913893983684133,nan
1740794498.0528107,0.32828510111681597,0.19462488962536614,-0.057317531831071376,-0.08970203223767505,nan
1740794498.0567162,0.36606006182748535,0.2808006616871801,-0.2461592353602842,-0.05591499239493888,nan
1740794498.0606217,0.24264936076465482,0.2985093032120397,-0.18745614066383,0.06359723633949484,nan
1740794498.0645304,-0.054240698886125115,0.5003678940872746,0.19697194655355238,0.14478892657031614,nan
1740794498.068436,-0.34921055893144454,0.7714501037736451,0.5955300403481302,0.07930307160170118,nan
1740794498.0723417,-0.4229099506516077,0.6981830993550379,0.5931047740608542,-0.07423664364353559,nan
1740794498.0762472,-0.2506220339217398,0.05968324237429709,0.10806653464605875,-0.1476751904653666,nan
1740794498.0801528,-0.044305346893185306,-0.8211994614197083,-0.479350574897908,-0.06977232488915217,nan
1740794498.0840583,-0.01684573707656309,-1.2966079222835662,-0.6668183125791185,0.042290243409905184,nan
1740794498.0879638,-0.12900302531409724,-0.9846739349310216,-0.31274033285280267,0.03377281418040643,nan
1740794498.0918694,-0.1276808115803132,-0.12745397320220764,0.2258072311576738,-0.07927132650938996,nan
1740794498.095775,0.14746157513069805,0.6384467570833326,0.446841519218252,-0.1143818238844626,nan
1740794498.0996804,0.538114093474607,0.8464012861523061,0.1944412345377149,0.051000728725945826,nan
1740794498.1035862,0.6935682738759268,0.5435654510847803,-0.20953789713282192,0.3042336030811844,nan
1740794498.1074917,0.4209322985382812,0.13385480787015774,-0.3195544789895098,0.3925731807157376,nan
1740794498.1113997,-0.1202501211384395,-0.05204044500317672,-0.032137455881649644,0.18547527703443234,nan
1740794498.1153052,-0.5730469027221842,-0.019528005027792346,0.3206005675245628,-0.19064405521043173,nan
1740794498.1192107,-0.6950766477961386,-0.0011354822364055006,0.3377764744066682,-0.4773350996593223,nan
1740794498.1231163,-0.5021510078649557,-0.15167889037496307,-0.018877734018661507,-0.5061862670461347,nan
1740794498.1270218,-0.1592557233944787,-0.37349471035054127,-0.38553160247450097,-0.28910598604960713,nan
1740794498.1309273,0.1834123366082883,-0.42662805628335376,-0.382156169571701,0.051647250800806344,nan
1740794498.1348329,0.42491785557045286,-0.19329179530044205,-0.006776343505440319,0.3703896612994625,nan
1740794498.1387386,0.4688359582448067,0.17254805723167374,0.37523522487436084,0.5232182435311503,nan
1740794498.1426442,0.2583725509717919,0.36750739423936957,0.41649839175389847,0.4056025200293598,nan
1740794498.1465497,-0.10822121114261982,0.23121052387275226,0.1241633480328889,0.05590173873620183,nan
1740794498.1504552,-0.36448480820625573,-0.07391208540553008,-0.19572266974691058,-0.29263727302212,nan
1740794498.1543608,-0.27093471343664227,-0.20013033479180234,-0.28577797193176946,-0.36238067551592523,nan
1740794498.1582685,0.14028399398977393,0.02946258359966981,-0.1753907410512394,-0.10546336274429342,nan
1740794498.162174,0.5413496441047346,0.3984523706666727,-0.07216740528240993,0.19916770977989065,nan
1740794498.1660795,0.567276428838195,0.4752840873541922,-0.08108800424037045,0.19958666744629458,nan
1740794498.1699853,0.12349756256316252,0.05977038011126591,-0.09854715428067944,-0.14874310810679237,nan
1740794498.1738908,-0.5353827690879943,-0.5551548382183735,0.017056095462658818,-0.49866924417926817,nan
1740794498.1777964,-0.9969465005664208,-0.819894821320132,0.23826882632983276,-0.45403591697611706,nan
1740794498.181702,-0.9621372209681228,-0.46372635478754304,0.3871138983970228,0.012506689962592578,nan
1740794498.1856074,-0.40489844118550383,0.21885071659778466,0.3398533879027332,0.5231464826337621,nan
1740794498.189513,0.4241426226691978,0.6485929643856858,0.14902605267310057,0.6770859366582432,nan
1740794498.1934185,1.1105156771006286,0.5275217989739389,-0.057919940557347595,0.4253555634732034,nan
1740794498.1973243,1.2775338810267722,0.09598750095358372,-0.24052767423508215,0.04564288552431521,nan
1740794498.2012298,0.8187337836255538,-0.17627821250069697,-0.4338094282572303,-0.2002270408211871,nan
1740794498.2051418,0.0037980291886339917,-0.10185750427573387,-0.5872761526369147,-0.3023007679721963,nan
1740794498.2090473,-0.6890085692591293,0.07654812332049393,-0.5154939272653041,-0.3902878196348555,nan
1740794498.2129529,-0.9309494186781236,0.03157530345142383,-0.09630114699863221,-0.4772556024294425,nan
1740794498.2168584,-0.7704849266966023,-0.24232800256572345,0.49868512053270075,-0.4129637070532303,nan
1740794498.2207642,-0.49323515628935816,-0.4318206232190669,0.867876768648821,-0.09660955347842232,nan
1740794498.2246697,-0.2686951924370422,-0.2838815281138956,0.741159417650286,0.34361493443108204,nan
