timestamps,TP9,AF7,AF8,TP10,Right AUX
1740793787.6568086,0.5254747422963583,0.09146914634308116,0.09990698712552232,0.16979535650249086,nan
1740793787.6607146,0.6863497521277807,0.2591766837878967,0.022130880765904092,0.3721441523062601,nan
1740793787.6646206,0.4177787966126595,0.4158340989428326,0.17518883577515953,0.36254936183633507,nan
1740793787.6685266,0.010810985063270022,0.40976296352263397,0.4825255577316945,0.17521005439124784,nan
1740793787.6724327,-0.23807672795300266,0.1384861602487064,0.5273027385760768,-0.06017477309872418,nan
1740793787.6763387,-0.2605986952649485,-0.2992908750038705,0.036373361673654285,-0.22477503648169533,nan
1740793787.6802444,-0.17045198203218676,-0.6165839249920397,-0.7017935730831204,-0.2641052619184293,nan
1740793787.6841505,-0.08152257194752313,-0.5578243535427553,-1.043934668269149,-0.1835060237167601,nan
1740793787.6880565,-0.023029524822576863,-0.14385595925503566,-0.6548455781237843,-0.030938994449302638,nan
1740793787.6919625,0.008713808725824872,0.3128251238232997,0.12592894180659417,0.11674069753981438,nan
1740793787.6958685,-0.002363253944260089,0.474857687823048,0.6506653195414649,0.1816968536133337,nan
1740793787.6997745,-0.05948624323000916,0.28321070567114315,0.6364848104801165,0.12783052677405943,nan
1740793787.7036827,-0.10480233114269226,-0.010303892429897741,0.36427310852270045,-0.013081656134791649,nan
1740793787.7075887,-0.05465753044257612,-0.11490727939550541,0.2215140317767866,-0.15567705529828263,nan
1740793787.7114944,0.10544583639287432,0.011385230930055557,0.20841573956016698,-0.2050133025121078,nan
1740793787.7154005,0.28185483314982146,0.1552803098353297,0.027530503225905292,-0.10666755816241108,nan
1740793787.7193065,0.3430147292859488,0.10446350194817018,-0.40528275617717935,0.11076580905634495,nan
1740793787.7232125,0.22695475344100283,-0.1289726369670877,-0.7412682384629223,0.3215306038921724,nan
1740793787.7271185,-0.015507080264158401,-0.34446108230843336,-0.5932265102101795,0.3563624287707442,nan
1740793787.7310245,-0.2623278407484152,-0.36817751461684417,-0.04660606803360932,0.13049546122997024,nan
1740793787.7349305,-0.3938249106448919,-0.19563022374803304,0.3892357721919577,-0.243075995487171,nan
1740793787.7388365,-0.351268303780579,0.05475792348721792,0.3601247764128944,-0.4921948831337952,nan
1740793787.7427425,-0.16650002201778355,0.2637136827736383,0.06183061462072287,-0.40077631684428755,nan
1740793787.7466483,0.05129348647339438,0.36174804378137604,-0.04018136330299508,-0.024072206668437183,nan
1740793787.7505572,0.18572365598922388,0.3151237114630119,0.19571561984231542,0.3298780029224066,nan
1740793787.7544632,0.20316642298910723,0.140323731517581,0.43019494795230223,0.3767255913455493,nan
1740793787.7583692,0.172924388472322,-0.059575446614937036,0.3012078449325092,0.12816623213479156,nan
1740793787.7622752,0.17651486915079984,-0.14481968818669383,-0.11041098215965288,-0.13140703119882502,nan
1740793787.7661812,0.19697805977269647,-0.08589415095348267,-0.40325094562067393,-0.1512584338151023,nan
1740793787.7700872,0.12997919474748984,-0.03291044833145404,-0.377922184511119,0.026750932128526483,nan
1740793787.7739933,-0.07348109672693226,-0.15905313915584016,-0.2521293074674047,0.14337453615408838,nan
1740793787.7778993,-0.3009720676588715,-0.4108257115331456,-0.28768170377657704,0.03944731929809539,nan
1740793787.7818053,-0.3640201346024923,-0.48607445756381124,-0.35736402924094807,-0.1578902182920353,nan
1740793787.785711,-0.20384331790088436,-0.1463822861394115,-0.08573581126962462,-0.19873696882442904,nan
1740793787.789617,0.025139480386913004,0.45301295793675306,0.5700936182755667,-0.02358288005005882,nan
1740793787.793523,0.1158760365002619,0.8330672014116242,1.0787904084161366,0.15720439315291684,nan
1740793787.797432,0.04059515820857693,0.654747340796846,0.8481944307172432,0.11994079552000096,nan
1740793787.801338,-0.024632340298749028,0.08397424108699707,-0.05583910337732939,-0.09000164567352377,nan
1740793787.8052437,0.0764402002588191,-0.3747441208258115,-0.8754070287553688,-0.20132148356182486,nan
1740793787.8091497,0.2738557684218157,-0.412594376079969,-0.9277922236111746,-0.045454338616965156,nan
1740793787.8130558,0.3389684302783058,-0.21246367015118983,-0.31646851424368777,0.2237909983558804,nan
1740793787.8169618,0.1528086528372414,-0.1654240353618566,0.2374299183199216,0.2954494852162069,nan
1740793787.8208678,-0.1471548417974359,-0.3536040379853413,0.23546898774358058,0.06716795457077927,nan
1740793787.8247738,-0.3191917822452218,-0.4331927891937754,-0.0796523535025638,-0.22240912888234243,nan
1740793787.8286798,-0.2806129798102718,-0.07438102455753327,-0.11284733335995406,-0.2604380826524642,nan
1740793787.8325858,-0.16332838287849832,0.5669029316939673,0.29814129549517715,-0.01949985421832923,nan
1740793787.8364918,-0.1093812970830934,0.9321514277909047,0.6649415711620698,0.2101901273702552,nan
1740793787.8403976,-0.08135847117270174,0.6385942762146242,0.44853158851024083,0.15488509261379052,nan
1740793787.8443065,0.06340341346058613,-0.09518491205328823,-0.2605338208378174,-0.12894697969687655,nan
1740793787.8482125,0.3312560790724661,-0.656688191967444,-0.7957482538620504,-0.31933500756641425,nan
1740793787.8521185,0.5054735333484615,-0.6437191704676896,-0.6324648191045306,-0.1901606166724221,nan
1740793787.8560243,0.35397313514249185,-0.20771403630373933,0.05852156901628594,0.144209085193233,nan
1740793787.8599303,-0.09440490750299799,0.18552781339386148,0.6165181417303623,0.36345860477533576,nan
1740793787.8638363,-0.5277512288124607,0.24651531336984756,0.5734438893056961,0.28237974371094976,nan
1740793787.8677423,-0.6193780137303125,0.06610862952499937,0.0594407516775768,0.016265343806970336,nan
1740793787.8716483,-0.3053306909623689,-0.09741051116044111,-0.42213617018642985,-0.18050674659747093,nan
1740793787.8755543,0.1921374030264349,-0.11253642861153616,-0.5048197925358683,-0.1844021617144785,nan
1740793787.8794603,0.5653016671779441,-0.02566774632816463,-0.21472053605451139,-0.08182207855584862,nan
1740793787.8833663,0.6185575599995081,0.08282458892876407,0.16995004588590812,-0.016605048881339783,nan
1740793787.8872724,0.32825354683780467,0.1824703049737224,0.3887345470108356,-0.0236416445537423,nan
1740793787.891181,-0.17880519133499376,0.23777421590351278,0.3409104183266961,-0.03331369665824076,nan
1740793787.8950868,-0.6518975418546602,0.17477503719389206,0.09038510790359479,0.004784603039183743,nan
1740793787.8989928,-0.7943580968962013,-0.025506099780032064,-0.17996573050052156,0.0582796255352656,nan
1740793787.9028988,-0.45137293576404913,-0.24139836140513057,-0.26765874224315295,0.07416733500113099,nan
1740793787.9068048,0.2086910680498361,-0.3040945202964082,-0.1132119444340042,0.05755731009479512,nan
1740793787.9107108,0.7479446631744723,-0.18968519924029598,0.11030980169759759,0.05309718736889784,nan
1740793787.9146168,0.7917058111888056,-0.049615801746590596,0.14449922759326472,0.06499138068249698,nan
1740793787.9185228,0.35726170942203056,-0.008341199186753323,-0.06189374263519702,0.0400807882627698,nan
1740793787.9224288,-0.16723929055224185,0.010353192258012768,-0.2550710479362416,-0.052658023332962565,nan
1740793787.9263349,-0.3978525233739516,0.16529022187827153,-0.15388969111066944,-0.15417423173525763,nan
1740793787.9302406,-0.3004783411554429,0.41316469561251795,0.1816450180134836,-0.16301814645590756,nan
1740793787.9341466,-0.149265439668376,0.4590806994250396,0.3635532872692816,-0.05349921544871592,nan
1740793787.9380553,-0.17051860948619402,0.08969427001947816,0.12679625009634507,0.0808874795409467,nan
1740793787.9419613,-0.2881728466085371,-0.48218124265489454,-0.2974533668569811,0.12094720411380873,nan
1740793787.945867,-0.24728691544323964,-0.7367402111004233,-0.38781357460348354,0.04846106040382394,nan
1740793787.949773,0.055216904279801235,-0.383361061665,0.05245647237999362,-0.03992095952288535,nan
1740793787.953679,0.42807771817959345,0.2799255901982892,0.5891050275844709,-0.044220854891917884,nan
1740793787.957585,0.5829432468908484,0.6397292883899351,0.5820568608194654,0.03358739571231051,nan
1740793787.961491,0.4251653561737676,0.4069567949698803,-0.08766084197245969,0.10528695695797596,nan
1740793787.9653971,0.11227443355504786,-0.09699447685176409,-0.8209416350719579,0.09987919004510777,nan
1740793787.9693031,-0.1466335242077514,-0.33443883226819243,-0.8957727259161816,0.027776512203571208,nan
1740793787.9732091,-0.2866300411881175,-0.15712337270614546,-0.21496206180551786,-0.0554328060819935,nan
1740793787.9771152,-0.3670845883808822,0.0864602434988008,0.6089771661122879,-0.11817392044621704,nan
1740793787.9810212,-0.414341112836135,0.03911618328335046,0.8933437380437865,-0.16112169659406503,nan
1740793787.9849293,-0.35558067738276866,-0.20608597034943102,0.5213116810408478,-0.16920553591355936,nan
1740793787.9888353,-0.12365693725278465,-0.24600784157728536,-0.07414492245336998,-0.0963775121252677,nan
1740793787.9927413,0.21550764010800635,0.08198185836512031,-0.43905478874185644,0.07325607442126386,nan
1740793787.9966474,0.4813112941233945,0.44675962954241893,-0.47841067024855566,0.2605600683208766,nan
1740793788.0005534,0.5245486367532232,0.40578044042106903,-0.3391840744451202,0.325249307295816,nan
1740793788.0044594,0.3401300787872722,-0.03991677797629075,-0.107965058799306,0.1921139233046616,nan
1740793788.0083654,0.04576103892549655,-0.4143779216520001,0.21745912614977073,-0.05881727662676384,nan
1740793788.0122712,-0.21857710336037556,-0.32034461028954236,0.5100716510878309,-0.247704767771874,nan
1740793788.0161772,-0.3619405980405697,0.08693866330476385,0.479649399994664,-0.25366925906230825,nan
1740793788.0200832,-0.3538266793998633,0.2880112690381553,-0.0004560078512702667,-0.11827878382881185,nan
1740793788.0239892,-0.21750266765014678,0.031213967134149007,-0.5987724183863903,0.011066593600592188,nan
1740793788.0278952,-0.026123692415867355,-0.35451936820369245,-0.7380099301817872,0.03463244827724807,nan
1740793788.0318034,0.12500368371077625,-0.35075354316188934,-0.1943206302074561,-0.010762305395913193,nan
1740793788.0357094,0.17676626033360618,0.11787459160234948,0.5842115951720608,-0.012997526338002923,nan
1740793788.0396154,0.1439431055762572,0.5667278906722538,0.8726026035543503,0.08020107322869831,nan
1740793788.0435214,0.08625434654473693,0.4968623996097681,0.4041887676577693,0.19946646800882004,nan
1740793788.0474274,0.0443223299440602,-0.03278706187381859,-0.3544741148131143,0.22446430926057404,nan
1740793788.0513334,0.015257360853025138,-0.4710573091940581,-0.699754041769468,0.10492808233686489,nan
1740793788.0552394,-0.01418579699098902,-0.39472449151816374,-0.41012761678918513,-0.09201658640337834,nan
1740793788.0591452,-0.036561347066937394,0.03536120391647766,0.09347839397143948,-0.24365903879191772,nan
1740793788.0630512,-0.04065747361762803,0.2917769426911954,0.27703287381,-0.2685305068949486,nan
1740793788.0669572,-0.039723607724675654,0.09722941629705921,0.07583896329995589,-0.16909569585146708,nan
1740793788.0708632,-0.05274504196966293,-0.2743549236315196,-0.1158005633527463,-0.006103601004269031,nan
1740793788.0747693,-0.06075045599004531,-0.338469826403547,0.022491409635190154,0.14517483455688654,nan
1740793788.0786774,-0.019186490496816234,0.03022509774764676,0.33739910679024726,0.21936825534199247,nan
1740793788.0825834,0.06520435183852774,0.4516997243981119,0.39330994817646975,0.1784192181608699,nan
1740793788.0864894,0.10185775086504603,0.4688649750811939,0.00884289028322162,0.04058037440427692,nan
1740793788.0903955,0.011878788999092893,0.05501944931509453,-0.4920258897696636,-0.10537402201376518,nan
1740793788.0943012,-0.141255514280108,-0.3635891412078558,-0.602277403845171,-0.14698869345999785,nan
1740793788.0982072,-0.1747182187121757,-0.37945747100577015,-0.1722071771647147,-0.044571087737314566,nan
1740793788.1021132,0.008494627025372879,-0.03810297529980475,0.4141280755372889,0.11240138881431981,nan
1740793788.1060193,0.2596340384231044,0.23742186954618164,0.6081433138545923,0.16824262369051263,nan
1740793788.1099253,0.3029943519597467,0.13421607759154483,0.2301530584548212,0.046007960411346714,nan
1740793788.1138313,0.049738423219257644,-0.19649532585951596,-0.3597570644462607,-0.16597779053140183,nan
1740793788.1177373,-0.2559788979625731,-0.3130768817713568,-0.604344329828229,-0.2857546763116497,nan
1740793788.1216433,-0.27810565260343967,0.0012639730819242166,-0.26677043970721614,-0.2066013131587774,nan
1740793788.1255522,0.018750246507369974,0.4518941835156081,0.35678485336082433,0.006590762285594959,nan
1740793788.1294582,0.2890414821823029,0.5159637833987097,0.7095429094454218,0.19061601917154863,nan
1740793788.1333642,0.17824483368502977,0.022260616014015504,0.4718317419112195,0.24256583891042152,nan
1740793788.1372702,-0.25068042477919267,-0.5974511486131083,-0.1644357615353258,0.19221824799465306,nan
1740793788.141176,-0.5409773071380239,-0.7015838498460961,-0.6795351337435365,0.12403552491549218,nan
1740793788.145082,-0.3266385023867472,-0.11042905776379228,-0.6860090603937696,0.06040875156784772,nan
1740793788.148988,0.25175914928362686,0.6498105707406726,-0.23968310217809766,-0.046052802532829853,nan
1740793788.152894,0.6729614623925747,0.8344878747826255,0.2674987224424208,-0.20833260579400467,nan
1740793788.1568,0.5692046167196667,0.2355776703773144,0.4933789347498549,-0.3334700820410681,nan
1740793788.160706,0.08007790497441432,-0.5816371713166182,0.4140092309925206,-0.2938365741936847,nan
1740793788.164612,-0.3407589748417668,-0.8361825548199321,0.23496732162339845,-0.07260610280518213,nan
1740793788.168518,-0.40906390522351865,-0.3206478989725984,0.10297016942947956,0.18950416873588766,nan
1740793788.1724267,-0.23513905229533488,0.40597294107694526,-0.028254839834617455,0.3147810939078953,nan
1740793788.1763327,-0.09341556827149432,0.6241108721834784,-0.24473329507076988,0.2510691518107451,nan
1740793788.1802387,-0.07485326115531984,0.20219587027377844,-0.4656782848131559,0.10014546861797817,nan
1740793788.1841447,-0.04143447253112336,-0.3154647366429867,-0.48060785451232135,-0.00934967155129518,nan
1740793788.1880507,0.11826615977651853,-0.34922953392781614,-0.20459245477306987,-0.050187710959503966,nan
1740793788.1919568,0.2999176089743317,0.08025544649209929,0.17638901271019541,-0.08413151994148785,nan
1740793788.1958628,0.30336169202702923,0.4225767240222203,0.38210270791172646,-0.1453502080379102,nan
1740793788.1997685,0.09048916365588383,0.25744830278027736,0.33993365837398193,-0.17885612123019196,nan
1740793788.2036746,-0.15399342228185148,-0.23245691472043264,0.2335593419331956,-0.11309109158769692,nan
1740793788.2075806,-0.22660604551283775,-0.5032167972568998,0.2261302689883517,0.03048311531440312,nan
1740793788.2114866,-0.11350685919476725,-0.2882749670464967,0.21522159801992666,0.13771971700809332,nan
1740793788.2153926,0.03441897543002685,0.12628727144849003,-0.03228200328614857,0.12162664694281004,nan
1740793788.2193012,0.09009148207095266,0.2863754454096206,-0.49983750969906576,0.020179485413892237,nan
1740793788.2232072,0.055384112319937395,0.11715059481234508,-0.7957379911522898,-0.04634236863052323,nan
1740793788.2271132,-0.009053233434392726,-0.03506733717194829,-0.5283832181744997,-0.00957311361561678,nan
1740793788.2310193,-0.08116631918333449,0.10543895544592606,0.19587367324610044,0.0763392434489436,nan
1740793788.2349253,-0.15690244207350526,0.3505063877001454,0.7644278607181597,0.1033626720052239,nan
1740793788.238831,-0.17629440636340704,0.2631871564663007,0.6454396851319484,0.030893476971169787,nan
1740793788.242737,-0.054762024901724785,-0.26271638503811595,-0.02981596346775145,-0.07731929871313517,nan
1740793788.246643,0.18564276139744063,-0.772203275695895,-0.5558780104389959,-0.12908257248994912,nan
1740793788.250549,0.37209689051887385,-0.6921717807240555,-0.3722974740068013,-0.09532719177639176,nan
1740793788.254455,0.3303414318200232,0.022216938087887734,0.3366281072028463,-0.021465543836318938,nan
1740793788.258361,0.07546026066987085,0.7728183386539014,0.8115175116922669,0.032503126516206654,nan
1740793788.262267,-0.19243433428614332,0.891902783536366,0.49092627020752744,0.04388357875704997,nan
1740793788.2661757,-0.29668349149792894,0.3013577117381149,-0.4144741809087131,0.026306422348411622,nan
1740793788.2700815,-0.24924680519065082,-0.43143901992103234,-1.1221469200319882,0.002082675144142347,nan
1740793788.2739875,-0.17942771731753687,-0.6732557492832032,-1.0174363307803511,-0.01196491884008306,nan
1740793788.2778935,-0.1368299804890762,-0.31832374086438164,-0.18689306181891888,-0.004601980663264773,nan
1740793788.2817996,-0.03702482107892262,0.18733085320381818,0.7210874998734483,0.0242297988775688,nan
1740793788.2857056,0.17972793796370398,0.3466693994177294,1.0849639133050646,0.05672508085862274,nan
1740793788.2896116,0.4003244814604084,0.08560604413581431,0.7653010626801565,0.06960963671452583,nan
1740793788.2935176,0.4219860892715422,-0.24741324202999146,0.0923184179042829,0.05766087066416513,nan
1740793788.2974236,0.1839045993517477,-0.28189828114814164,-0.471159484491067,0.03324213900294128,nan
1740793788.3013296,-0.14240317803268154,0.013432397772516725,-0.6443488807987006,-0.003577958767145369,nan
1740793788.3052356,-0.3263620408865789,0.33878851900114204,-0.4295560883897837,-0.07630517405378867,nan
1740793788.3091414,-0.3075355994481886,0.3796324495688441,-0.03659719031903503,-0.18815839589369274,nan
1740793788.31305,-0.20787460145307846,0.10319791342081956,0.26343102503994503,-0.2701397336578631,nan
1740793788.316956,-0.13646657176108587,-0.22921555385497153,0.2911309484238717,-0.2111597515939403,nan
1740793788.3208618,-0.055857896985213595,-0.3200417003937934,0.0646555309565005,0.02419832794130778,nan
1740793788.3247678,0.11976124467463974,-0.11508069399658799,-0.21452490081826106,0.3134903613337456,nan
1740793788.3286738,0.34299569740684316,0.1517677428066943,-0.3129166148202951,0.45064530454617274,nan
1740793788.3325799,0.43065475372056417,0.19148665019883457,-0.14554565167005257,0.3301049772905447,nan
1740793788.3364859,0.26318061877800675,-0.046926501915297916,0.16872095528873535,0.0498095775848862,nan
1740793788.3403919,-0.06286045476665107,-0.31355762976845325,0.4173802910297186,-0.18692897846370504,nan
1740793788.344298,-0.32319851770118685,-0.3044378014880503,0.4535539924489624,-0.2657221142718213,nan
1740793788.348204,-0.3839978465499482,0.020005480425019446,0.2663949935812461,-0.23595427430702665,nan
1740793788.35211,-0.287157562440353,0.37981594215503267,-0.05421340504892667,-0.19824963594964204,nan
1740793788.3560157,-0.1323427754724802,0.4564577467554581,-0.3767402216240629,-0.1646548958061205,nan
1740793788.359924,0.04998762856222173,0.21603852853073252,-0.5620396589747408,-0.07162786111415693,nan
1740793788.36383,0.25998414867590114,-0.0783287345481088,-0.504849963209723,0.08828832718701732,nan
1740793788.367736,0.4122826438927951,-0.1752930731694248,-0.2055333241925349,0.21552663370010075,nan
1740793788.371642,0.3582966066806409,-0.10680719127958707,0.19144929871648456,0.22154844093877382,nan
1740793788.3755481,0.06615695056859086,-0.10655643667255844,0.4711343394342535,0.15743439958924454,nan
1740793788.3794541,-0.27551364545969553,-0.28010698408342405,0.4994550329445729,0.153711415564764,nan
1740793788.3833601,-0.40708259749509346,-0.4352994311152343,0.3124273923137054,0.22122544429869692,nan
1740793788.387266,-0.25760388768705544,-0.2939504731969591,0.0564411710532547,0.18400024914952506,nan
1740793788.391172,-0.007541773892016868,0.1577343733333499,-0.14524214255079024,-0.11469780411363675,nan
1740793788.395078,0.12476692796921837,0.6015307855664397,-0.2553565662967818,-0.5510922623586645,nan
1740793788.398984,0.11172288855358221,0.6944456816507412,-0.27853993161473817,-0.7531071306148224,nan
1740793788.40289,0.08763723362388251,0.40189496815259906,-0.210474401709705,-0.46057339551189236,nan
1740793788.4067981,0.1267283886187537,-0.01156539598836706,-0.06303269686621037,0.1648711498283398,nan
1740793788.4107041,0.13732086783768135,-0.28758312676005177,0.08832345750834215,0.6519757231635414,nan
1740793788.4146101,0.012964165587106684,-0.3969649863988833,0.14033337759820555,0.6640447147289571,nan
1740793788.4185162,-0.1753722955305909,-0.4477169517223344,0.06852316937672429,0.29993860879646483,nan
1740793788.4224222,-0.22707254482036773,-0.4571282213066005,-0.03137080517416555,-0.06370522504164544,nan
1740793788.4263282,-0.06023391629357478,-0.3132330126746021,-0.04259762585004329,-0.1821078044956382,nan
1740793788.4302342,0.16087503697602357,0.033390735715530424,0.040995284935601256,-0.1340131051802744,nan
1740793788.4341402,0.20140169206491856,0.4267064479469296,0.11694824013869755,-0.12347580419566775,nan
1740793788.4380462,0.02790821016270109,0.6232126796954246,0.11017094630727721,-0.191629427273712,nan
1740793788.441952,-0.15993326139116049,0.5306168341362593,0.06327151460754178,-0.20244555467177902,nan
1740793788.445858,-0.17202056162382212,0.26799318547704726,0.05695284275999179,-0.07621821023784339,nan
1740793788.449764,-0.036561828676790704,-0.008046058582139963,0.06959059309083057,0.0745120724750351,nan
1740793788.4536722,0.07329976539135974,-0.2578264032352768,-0.01597376419273025,0.09370577269758144,nan
1740793788.4575782,0.07125117385546967,-0.49036570623485903,-0.23943424264271435,0.0008613683615866955,nan
1740793788.4614842,0.036379632347099344,-0.6068441455542324,-0.44664955895377356,-0.030853423523733516,nan
1740793788.4653902,0.05931896473404285,-0.4381169129245333,-0.41349210655615964,0.08635985228414571,nan
1740793788.4692962,0.09735328224104575,0.013749865808944684,-0.09358822873672105,0.22766427159910888,nan
1740793788.4732022,0.04896677042166102,0.4548325745173795,0.30671142720405686,0.22054169480171829,nan
1740793788.4771082,-0.0698194402015558,0.5358206003553247,0.5296492968566022,0.07664108447310686,nan
1740793788.4810143,-0.1209080970021415,0.22861741860657,0.5071571194891219,-0.036194766500862285,nan
1740793788.48492,-0.03937014012006202,-0.11272826262506225,0.356671137291345,-0.04754618929695647,nan
1740793788.488826,0.049109763408286766,-0.12957094769553068,0.16648156572179426,-0.09466131782411692,nan
1740793788.492732,-0.015314979836804396,0.13759662836249972,-0.11672680363948783,-0.2984115962861863,nan
1740793788.496638,-0.1848476976368396,0.29786704817212334,-0.526929788635764,-0.4993601874401565,nan
1740793788.500547,-0.22169896709584597,0.06881631832191042,-0.8674319174224752,-0.36993355450232424,nan
1740793788.504453,0.004680387935220288,-0.3861478628793933,-0.7942289125015176,0.1556302285973241,nan
1740793788.508359,0.31528913897217115,-0.6307724249956885,-0.18591208043098273,0.6747808006064038,nan
1740793788.512265,0.40280872439597243,-0.42521449392644994,0.6163520364600595,0.6824240145326465,nan
1740793788.516171,0.19148987814105065,0.04990138486006068,1.0386004914059703,0.1481888187492461,nan
1740793788.520077,-0.08337533309248732,0.4287096485824046,0.7908947431881999,-0.394849881607036,nan
1740793788.523983,-0.18322149249659017,0.5236508252276766,0.1322644304029653,-0.4185742184722491,nan
1740793788.527889,-0.15255099958633725,0.3998609706259426,-0.4000250408120922,0.011203165181371872,nan
1740793788.5317948,-0.19588304313293922,0.17043472357281594,-0.49733741237068113,0.3295773507621693,nan
1740793788.5357008,-0.31895078648983144,-0.13471563606524695,-0.29022892817825974,0.14795571742679134,nan
1740793788.5396068,-0.26093106970543994,-0.455548364247007,-0.09987835163532227,-0.302075959051956,nan
1740793788.5435128,0.12994541436241755,-0.5853404644642531,-0.07505817949456445,-0.48394251684125694,nan
1740793788.5474217,0.5687302704728258,-0.32784204592216354,-0.11450572158012141,-0.21708585676386186,nan
1740793788.5513275,0.5694165594455899,0.20887668679524085,-0.07535686735528437,0.14596940911568132,nan
1740793788.5552335,0.043424292598404475,0.601216428930584,0.050197672373413826,0.21862655434892705,nan
1740793788.5591395,-0.49333261420107405,0.5041633925772516,0.1812551164553248,0.0751223669994789,nan
1740793788.5630455,-0.4581777244440187,0.033213784876511075,0.2760584759731674,0.08686366507919117,nan
1740793788.5669515,0.100854442299947,-0.34417253128453457,0.32997716370074776,0.34012615191880696,nan
1740793788.5708575,0.5160277234305478,-0.31996992387963596,0.28235288533786296,0.4561527298924303,nan
1740793788.5747635,0.2699821904591747,-0.06326428435957904,0.04139335048329306,0.10508715290254099,nan
1740793788.5786695,-0.37880863060560355,0.037061679742956384,-0.3433674562321059,-0.4619755263793195,nan
1740793788.5825756,-0.6892443217928381,-0.11999757055292924,-0.6067038227181759,-0.6352801733439599,nan
1740793788.5864816,-0.3107774058656996,-0.22878474085655345,-0.47888783268845914,-0.21731433494962665,nan
1740793788.5903873,0.3253830003831465,0.003778464793863344,0.002707054130322963,0.2609058998789335,nan
1740793788.594296,0.5613486943709275,0.4378434348317743,0.46380707565502827,0.1782149054003402,nan
1740793788.598202,0.29366805167934507,0.623408246262446,0.5369485328101276,-0.33557634956595955,nan
1740793788.602108,-0.0027875576058117267,0.32240316653812506,0.21723187049164783,-0.4813536426885246,nan
1740793788.606014,0.013261247533778055,-0.21851044934578628,-0.16832158251536622,0.18896148031092216,nan
1740793788.60992,0.09230575271138453,-0.5668787236013845,-0.32367972257126293,1.0623700785164711,nan
1740793788.613826,-0.1724689738408171,-0.5684945362453153,-0.2422760744580011,1.0623875026340663,nan
1740793788.617732,-0.6239149531664362,-0.39162700639097825,-0.09303966979203944,-0.045614022248732615,nan
1740793788.621638,-0.6009472023723266,-0.1659065710809229,0.045175406597580715,-1.2288533194243838,nan
1740793788.625544,0.16349282990839117,0.2077067580581824,0.21850731579507765,-1.2706946132402033,nan
1740793788.62945,0.9708813340443683,0.7589816338257828,0.3898993901776303,-0.15466227494346158,nan
1740793788.6333559,0.82586715805819,1.1027061764263593,0.353878622529936,0.9076719667840594,nan
1740793788.6372619,-0.30816979150967905,0.6820285275941316,-0.019778667606110686,0.8736435987260199,nan
1740793788.6411705,-1.2428435153996789,-0.5070375472976809,-0.5116499056156806,0.028605426680263963,nan
1740793788.6450765,-0.8170911888469105,-1.5972615572724387,-0.681220387904617,-0.47663500829251376,nan
1740793788.6489825,0.6855218080919712,-1.5354658593802302,-0.33949974924405,-0.10263814402311776,nan
1740793788.6528885,1.6854339373544107,-0.19186059871529312,0.19957552072643445,0.44202705631836753,nan
1740793788.6567945,0.9982713873545204,1.3494481222894685,0.453396625363923,0.18929407096844164,nan
1740793788.6607006,-0.8166843874504675,1.7771699396578793,0.32164423956859023,-0.7518439989184769,nan
1740793788.6646066,-2.0173571777412085,0.8349004483764317,0.15831148937656744,-1.2395736977741745,nan
1740793788.6685123,-1.5173381870760578,-0.4885973783548065,0.2470160056091199,-0.5007265212238239,nan
1740793788.6724184,0.09012186568892308,-1.0588928918227447,0.3621320151236268,0.8764623192646288,nan
1740793788.6763244,1.3818412308351713,-0.7346161894771533,0.05194588485210706,1.61827260499134,nan
1740793788.6802304,1.6508183637173752,-0.2874379109620517,-0.6546693895935085,1.2381665989841408,nan
1740793788.6841364,1.2841249716360092,-0.30091483825846904,-1.0709918161272216,0.42191439964681837,nan
1740793788.6880448,0.7558640032088166,-0.4382191549335096,-0.5896299091237621,-0.10424806487696477,nan
1740793788.6919508,-0.1654823674148607,0.025806580592439315,0.4798304533531765,-0.5991606580185578,nan
1740793788.6958568,-1.781155495801312,1.0936656371712707,1.0860881238586282,-1.7038773549751387,nan
1740793788.6997628,-3.284685246921567,1.788881131493057,0.5928104452366486,-2.9524831871618367,nan
1740793788.7036688,-2.9524973881564653,1.1773960406644397,-0.4055619926067299,-2.623516191755053,nan
1740793788.7075748,-0.018744762559374756,-0.48132437024725994,-0.6952636420655658,0.32104214996476094,nan
1740793788.7114809,3.8216878331593844,-1.837663242401013,0.10251734212894772,4.315774733651389,nan
1740793788.7153869,5.407118625673879,-1.7786607689979794,0.9667207900417473,5.957742459802826,nan
1740793788.7192926,3.0460560506256686,-0.5323694969764886,0.626526978566132,3.25160090080731,nan
1740793788.7231987,-1.5881102129885103,0.6528509359158837,-0.8105577964486523,-2.0134837650133623,nan
1740793788.7271047,-4.790751926558098,0.8490468162380367,-1.7482042250700884,-5.607124191823226,nan
1740793788.7310107,-4.211282769511723,0.30494670536876356,-0.8601547659019172,-4.826535440606499,nan
1740793788.734919,-0.8916406117535844,-0.047354467364501475,1.2037174773155268,-0.988502525156128,nan
1740793788.738825,2.021080291908489,0.259366335415854,2.2618705481224137,2.167006389592368,nan
1740793788.742731,2.389568166413605,0.7697994132665438,0.9430895719913148,2.344776335180276,nan
1740793788.746637,0.8098277310095343,0.757373647521264,-1.6147173183588073,0.6476237319186406,nan
1740793788.7505429,-0.532535870638961,0.09635879821360463,-2.748683456641778,-0.24612042439178858,nan
1740793788.754449,-0.2962642579281599,-0.6732484198340815,-1.062552015308537,0.7027052511054394,nan
1740793788.758355,0.8938639679677659,-1.0372644634793602,1.9590236733846063,1.9665174139156516,nan
1740793788.762261,1.4675797541369118,-1.0081294423414795,3.348037160608245,1.5672717522632045,nan
1740793788.766167,0.6294366035179617,-0.8503057128011732,1.6632260661536435,-0.5127287316410872,nan
1740793788.770073,-1.0118271385637712,-0.5236637080300219,-1.5475063462958831,-2.4105697957671763,nan
1740793788.773979,-2.1999735688856683,0.28868532841769734,-3.3342775993226166,-2.57589976709769,nan
1740793788.777885,-2.1189055750761945,1.5234948117247773,-2.251988342905755,-1.3158915377090272,nan
1740793788.781793,-0.8520762226989086,2.3606899730182023,0.4198443267679017,-0.037087621567468455,nan
1740793788.7856991,0.8327381372457755,1.8370696718986699,2.204284185718061,0.5455284934300446,nan
1740793788.7896051,1.9610859649522903,-0.05620765776648631,1.8757392658530414,0.9173567496033161,nan
1740793788.7935112,1.8772527669713273,-2.0639499792597316,0.3062687298194186,1.591180040696231,nan
1740793788.797417,0.7099883215512224,-2.689533722515538,-0.827696744475653,2.064893286459701,nan
1740793788.801323,-0.5857518419562775,-1.5958706007745191,-0.7766085808576458,1.4017273355268838,nan
1740793788.805229,-0.9368537451206123,0.10713075008390571,-0.09447024522106633,-0.3572355861980581,nan
1740793788.809135,-0.1858716493498,1.037233778256969,0.33802372386726787,-1.9119011541242446,nan
1740793788.813041,0.6350669461429578,0.9162150374453848,0.24728028069440464,-2.054603141792659,nan
1740793788.816947,0.3308302460006009,0.6426403029460099,-0.08356709701434269,-0.9999718843633415,nan
1740793788.820853,-1.0607968556522005,1.0144185099806513,-0.39690715155633155,-0.019530395819386318,nan
1740793788.824759,-2.1092752768276952,1.6060435750347883,-0.6419047644925469,0.1405234833652886,nan
1740793788.8286672,-1.4589078923215413,1.170855973366686,-0.6681644193272693,0.040300301931087336,nan
1740793788.832573,0.6005289901125495,-0.7926807660709762,-0.15994667531296666,0.5703326713992873,nan
1740793788.836479,2.294275416280129,-3.079733525360921,0.8600493417880204,1.5518900349721196,nan
1740793788.840385,2.199188857503182,-3.6520305947226106,1.6495280622676225,1.7999167865050154,nan
1740793788.844291,0.7163110055002728,-1.6049078935476544,1.2849297528005377,0.6291324476023914,nan
1740793788.848197,-0.5176710301086324,1.7739974727953323,-0.2420563038656781,-1.1259148850811136,nan
1740793788.852103,-0.5752355023598203,4.00495378343313,-1.6973378134606927,-1.9406418449493585,nan
1740793788.856009,-0.20274980528656397,3.541763265309235,-1.7141221674269904,-1.300729120639292,nan
1740793788.859915,-0.6417362686355782,0.9821536034366819,-0.2879577369371106,-0.1720178904957085,nan
1740793788.863821,-1.7883848966444003,-1.6813917770291327,1.0871406885269541,0.30567940217753053,nan
1740793788.867727,-2.071161212990085,-2.8500839004627085,0.991405620970426,0.19256784117933348,nan
1740793788.8716328,-0.37435260698121126,-2.375174534094252,-0.3092829968386774,0.4271275327213579,nan
1740793788.8755417,2.2649255086593647,-1.122364010032693,-1.107562546796266,1.2797706066676802,nan
1740793788.8794477,3.4005462086963028,0.12149785265950772,-0.2150822162471866,1.7037975122259479,nan
1740793788.8833537,1.7636908988805506,1.1343130158911094,1.5443534458904205,0.5945051691351136,nan
1740793788.8872597,-1.199856556128754,1.8701263274034083,2.1057037849610474,-1.5535637555616033,nan
1740793788.8911657,-2.7072124865789746,2.0124856183882045,0.4656625431445124,-2.798103536203894,nan
1740793788.8950717,-1.522114425933728,1.1957779137596785,-2.0397551088916095,-1.7804763545877687,nan
1740793788.8989778,0.8152276699572939,-0.38194834047992754,-2.9978895353620443,0.6760675927461685,nan
1740793788.9028838,1.7434908067127097,-1.8197671264056794,-1.4186221250728153,2.3440526713976095,nan
1740793788.9067895,0.4307078798430271,-2.1707287590509763,1.2436859467149606,1.9187763239621352,nan
1740793788.9106956,-1.4929688358677349,-1.2536867145774198,2.6320903623327347,0.2438515484077065,nan
1740793788.9146016,-1.8713488338677986,0.22113275262905938,1.852151213710562,-0.8756099901948091,nan
1740793788.9185076,-0.3309018189763835,1.291889792767221,0.09950967098060357,-0.7289916124759033,nan
1740793788.9224164,1.5377630380124074,1.4567864524983494,-0.9439043168734136,-0.18681644310302936,nan
1740793788.9263225,2.058739109015243,0.8449138790409296,-0.9278682106087167,-0.2508440993456188,nan
1740793788.9302282,1.1169478941864777,-0.07850550005820361,-0.7882046961849573,-0.6859779076035072,nan
1740793788.9341342,-0.13864068397828874,-0.8161038861334599,-1.122876848714333,-0.49323561291865653,nan
1740793788.9380403,-0.8197521052115255,-0.9751315065487353,-1.1914916325405267,0.5014690634895195,nan
1740793788.9419463,-1.0693636829892987,-0.4237617007748305,0.08742338866997248,1.16183469429455,nan
1740793788.9458523,-1.3358610867698144,0.49487961475661074,2.334554535779785,0.4515181990046301,nan
1740793788.9497583,-1.3917099137188447,1.03713955689841,3.4849310101370614,-1.0104474837926285,nan
1740793788.9536643,-0.5490057695364274,0.6444716893036924,1.7980644741969831,-1.3820805376101395,nan
1740793788.9575703,1.1837036448208431,-0.4176261621650891,-1.9550994822117036,0.23923706806539277,nan
1740793788.9614763,2.6134068235758865,-1.1637142092967174,-4.703485471973252,2.450713405991977,nan
1740793788.9653823,2.392734746946066,-0.8466295952480919,-3.8191541764450148,2.7797465807269215,nan
1740793788.969291,0.4895448818284667,0.19117451590373083,0.25903194703675403,0.340396749523516,nan
1740793788.973197,-1.643926760129225,0.8224958668195712,4.223232530606973,-3.0147733602445124,nan
1740793788.977103,-2.470251809921899,0.39975501699216537,4.819366022888619,-4.384802744669153,nan
1740793788.981009,-1.7737905244785024,-0.4395468428004218,1.6982004340067234,-2.583291720957743,nan
1740793788.9849148,-0.549783433006597,-0.4709414508715654,-2.4408428072703776,0.881026019018515,nan
1740793788.9888208,0.31762484252295903,0.6037696546786716,-4.346458101449765,3.414938399287295,nan
1740793788.9927268,0.9013779506883579,1.6109909885587956,-2.8931634487976834,3.639829819438598,nan
1740793788.9966328,1.6445661008015136,1.1250321521198716,0.35645536665941324,2.0981447195432628,nan
1740793789.0005388,2.2675948383911826,-0.8201695470012766,2.805724668212938,0.1357901211734344,nan
1740793789.0044448,1.7648078213426006,-2.5237558820830945,2.928645133986458,-1.39909153992252,nan
1740793789.0083508,-0.3140623438082479,-2.2986660235524607,1.1092968323997587,-2.3195753972426134,nan
1740793789.0122569,-2.8455470831357124,-0.25051956774449796,-1.0638521602769988,-2.5041968218225694,nan
1740793789.0161655,-3.8147385130643605,1.8187947505078865,-2.116033835808586,-1.7201688442311038,nan
1740793789.0200713,-2.2030529033570563,2.2676954226933073,-1.584413599350818,-0.13084141130814794,nan
1740793789.0239773,0.9038408658091971,1.1590527541863678,-0.09476273330610527,1.410642433626966,nan
1740793789.0278833,3.225739501563169,-0.13400957082287066,1.205180801369335,1.9631540845391262,nan
1740793789.0317893,3.2928717776993346,-0.6060819244073773,1.4378107957022277,1.4126695437509984,nan
1740793789.0356953,1.5152995627118107,-0.5385917277894613,0.5553494023668195,0.5590531728524506,nan
1740793789.0396013,-0.5741225497712856,-0.7155313110827084,-0.6832436329596095,0.1873376975239268,nan
1740793789.0435073,-1.8228447194217676,-1.1379487889026885,-1.3169891461142962,0.20847624831816136,nan
1740793789.0474133,-2.0861834831720647,-0.9731439822168173,-0.9114605938677274,-0.0960420977571507,nan
1740793789.0513194,-1.6734079895832876,0.2062145633558988,0.17433366360165653,-1.0343312589123215,nan
1740793789.0552254,-0.7075801666643351,1.5645547871066139,1.1541946209812803,-1.9518441921417746,nan
1740793789.0591311,0.7042675681988682,1.7656842548455862,1.418385345384165,-1.8602823880251873,nan
1740793789.0630398,1.9443543377367762,0.5272296968652156,0.85710046701342,-0.5301910483592076,nan
1740793789.0669456,2.0661683849900734,-0.949116973714083,-0.21589375737507127,1.1928869949631526,nan
1740793789.0708516,0.7740846793843131,-1.2801080132254692,-1.2795899312567274,2.1581992665651772,nan
1740793789.0747576,-0.9766724676810596,-0.4213232923897977,-1.7739901168622507,1.8796640977606434,nan
1740793789.0786636,-1.7234850269694741,0.40672116181067913,-1.315715584474694,0.7484010057469247,nan
1740793789.0825696,-0.9539082534982405,0.2647438954133693,-0.020639117070038685,-0.49859913173716514,nan
1740793789.0864756,0.36317616249316353,-0.40225283824410263,1.3635006828114338,-1.3127290083506524,nan
1740793789.0903816,0.8586058075239776,-0.4482676389062871,1.88417295408584,-1.4299078406964458,nan
1740793789.0942876,0.2540155564185623,0.4008761182464923,1.1894932693195288,-0.7999411196886961,nan
1740793789.0981936,-0.4648418691249411,1.1074024624748517,-0.07244391861425324,0.2942737443319296,nan
1740793789.1020994,-0.3591682388150441,0.624688375294451,-0.8206323007000746,1.1386973460100729,nan
1740793789.1060054,0.3012001677765649,-0.6665800464261261,-0.6127320664248441,0.9813838836755946,nan
1740793789.1099138,0.4719079212215969,-1.255643577880569,-0.07510756659499124,-0.20474208976561464,nan
1740793789.1138198,-0.19428101832178937,-0.30367121923253143,-0.14260261258430368,-1.427186172233418,nan
1740793789.1177258,-0.7570488116915045,1.1968651268290933,-0.9056622027775489,-1.4338733279566358,nan
1740793789.1216319,-0.15425037267200914,1.410345444505037,-1.4020225362741097,0.03962855960161542,nan
1740793789.1255379,1.252931384165287,-0.22153368030306556,-0.6791998629538997,1.8364700014203503,nan
1740793789.129444,1.7893787734849669,-2.1620270129650843,1.0246860007568244,2.3608210368613407,nan
1740793789.1333497,0.3589195821604193,-2.2968233511567777,2.3471824238790013,1.084273646597707,nan
1740793789.1372557,-2.0206482431434187,-0.18433960641321367,2.112375787685058,-0.9451778033740897,nan
1740793789.1411617,-3.0021179756661787,2.404720705948068,0.48600811555447826,-2.1131707519798484,nan
1740793789.1450677,-1.365995052708351,3.218722874971965,-1.2386852357208287,-1.7220558648503046,nan
1740793789.1489737,1.5403399689289115,1.6561097454393303,-1.9068316527340818,-0.46741109026625616,nan
1740793789.1528797,3.0733064147915052,-0.8643631698723255,-1.4218853385634656,0.44877526862825445,nan
1740793789.1567879,1.966638467558783,-2.444458234912928,-0.48253350444672544,0.5254746059247337,nan
1740793789.160694,-0.4735620776648285,-2.3686565599932283,0.29613569748112023,0.25754935470934676,nan
1740793789.1646,-1.8730353419493415,-1.2838845326410255,0.7791649923828426,0.3735756847558882,nan
1740793789.168506,-1.2426737520791822,-0.1133870469597472,0.9776601584917652,0.9575455121410987,nan
1740793789.172412,0.2696343979223924,0.8277321711530162,0.7298942565003962,1.3681138770940038,nan
1740793789.176318,0.9134431234092815,1.6332139280177542,-0.023400427608533104,0.9335321186806114,nan
1740793789.180224,0.22624824943056893,2.105543803027409,-0.8043630507954073,-0.34921033358370135,nan
1740793789.1841297,-0.7691786834748431,1.6699050562095095,-0.8324927796075658,-1.7543414799769599,nan
1740793789.1880357,-0.9573842498448147,0.10822309867022663,0.10227548606878915,-2.3694781785541386,nan
1740793789.1919417,-0.29245446338137365,-1.8106629408482617,1.1691503974618112,-1.7336777235784346,nan
1740793789.1958477,0.4748500011051049,-2.711180620485504,1.2008536441599889,-0.12957979249299972,nan
1740793789.1997538,0.8243411070991558,-1.7904163152026875,-0.04060049560482283,1.5827810814433922,nan
1740793789.203662,0.8474494307847672,0.34830237675239256,-1.4700506138687734,2.4547017061256438,nan
1740793789.207568,0.7219572251302411,2.086541858236103,-1.7222741711692562,2.0077689326946997,nan
1740793789.211474,0.29238436125223993,2.1171518665192117,-0.5617753834322105,0.5487945054223771,nan
1740793789.2153797,-0.5441278840919604,0.529531768943574,0.8830810895360118,-1.008153091982431,nan
1740793789.2192857,-1.2872215469616053,-1.3004353072736636,1.3119864618828758,-1.7569688759623565,nan
1740793789.2231917,-1.150413487635165,-1.8968597298077607,0.5506539150632184,-1.4162350609390753,nan
1740793789.2270977,-0.0727590291776009,-0.8975155859138326,-0.4137732046148524,-0.4504778641002285,nan
1740793789.2310038,0.9190055860819426,0.739453702367086,-0.5703111486334326,0.3867983546801521,nan
1740793789.2349098,0.7343184730979826,1.6556652539911918,0.12261424179464761,0.6512463635170301,nan
1740793789.2388158,-0.43213413758445907,1.2652247393403457,0.8669508261441776,0.42557833148527097,nan
1740793789.2427218,-1.1422136748195242,0.12361397930948194,0.925400193739752,0.06836961877265434,nan
1740793789.2466278,-0.3184214351648825,-0.7622902381639831,0.23526401326987298,-0.14158586363672365,nan
1740793789.2505367,1.3936968431007672,-0.9135957184172193,-0.7435487840454392,-0.11658259122069357,nan
1740793789.2544425,2.1987058756145426,-0.6522100241888044,-1.4981383964499964,0.13243534800111506,nan
1740793789.2583485,1.1151022170620835,-0.48706266849339164,-1.676981858780931,0.5226678501930284,nan
1740793789.2622545,-0.9211366038851441,-0.42127839480656315,-1.07762620785793,0.8017785006369206,nan
1740793789.2661605,-2.09895874727684,-0.03637663282585876,0.23598058309888878,0.5830290463777379,nan
1740793789.2700665,-1.6742291895805903,0.7672134562211511,1.720087033961518,-0.30895024316059005,nan
1740793789.2739725,-0.5404045547475679,1.3628444773772257,2.4938140802396576,-1.457471389976265,nan
1740793789.2778785,0.10824421074035194,0.9819283359650676,1.9769645624583991,-1.9589646122134288,nan
1740793789.2817845,0.2244187197477947,-0.28349131341014944,0.44762607586144937,-1.1405363043546655,nan
1740793789.2856905,0.644627422115927,-1.3023442238701484,-1.1476355147506518,0.6909501541688016,nan
1740793789.2895966,1.5782250328781027,-0.9752821822451463,-1.996545535820807,2.269579882130793,nan
1740793789.2935023,1.9791238056146627,0.49956061347055575,-1.9750052193364236,2.3271878905858596,nan
1740793789.2974112,0.8064960577226344,1.6250548594717524,-1.4106277579382875,0.7172838282704289,nan
1740793789.3013172,-1.355727036263672,1.0492486180190985,-0.5138239359940389,-1.3421498251503947,nan
1740793789.3052232,-2.535062378363196,-0.9783210741214404,0.6944988217215913,-2.2225419348983504,nan
1740793789.3091292,-1.4842918426010152,-2.693165383640277,1.9067915780449536,-1.25609679376828,nan
1740793789.313035,0.7479426737749926,-2.4284638039610367,2.342086917971659,0.6774503084453606,nan
1740793789.316941,1.798890819060826,-0.16849985542720855,1.409394290604738,1.887410759495519,nan
1740793789.320847,0.584097798206884,2.4365071537705862,-0.42480284362535925,1.3130986365527064,nan
1740793789.324753,-1.440537140171689,3.499338533277324,-1.758057487344647,-0.5684218276070391,nan
1740793789.328659,-1.863085540794434,2.3655257420091407,-1.5352605421688974,-2.146347043367422,nan
1740793789.332565,-0.005513316375583159,-0.07634958615361358,-0.18263520957993543,-2.042375489653661,nan
1740793789.336471,2.302284001754049,-2.224604879175977,0.7767651579908359,-0.2684240538239904,nan
1740793789.340377,2.6995177016446883,-2.8661355549369882,0.3472055822267389,1.8061024055057293,nan
1740793789.3442857,0.775526643844339,-1.817378623552471,-0.8467449981755922,2.6236701212169997,nan
1740793789.3481917,-1.6338240244387117,0.07582295446703767,-1.2650256573010574,1.7071120413538667,nan
1740793789.3520975,-2.4643976350926238,1.4770936505229206,-0.19706975231263685,-0.06978408663843787,nan
1740793789.3560035,-1.4014824170461402,1.4434260149903313,1.4170928936590907,-1.3782602865120093,nan
1740793789.3599095,0.1971954222979849,0.18469762220530236,2.0051725666737914,-1.5976178172557116,nan
1740793789.3638155,0.9730358574627147,-0.996265328297029,1.0426797212671406,-1.149378796665379,nan
1740793789.3677216,0.7835673380072209,-0.8074629055592978,-0.48439097788377883,-0.7795047818768824,nan
1740793789.3716276,0.34193966123326014,0.7320351169716145,-1.2519036262845207,-0.6407092221236197,nan
1740793789.3755336,0.1312975416403876,2.1444948139899247,-0.9691846530624634,-0.19807206043378586,nan
1740793789.3794396,0.025480880210996103,1.8708740411937943,-0.42149067271933655,0.9489285037198599,nan
1740793789.3833456,-0.176253523493455,-0.11793460137322961,-0.3161131247397695,2.288433993203548,nan
1740793789.3872516,-0.2943804955122018,-2.2087635336624034,-0.4295053353392443,2.6396999036689492,nan
1740793789.39116,-0.0633555643278545,-2.7361529992215807,-0.05098775455216531,1.299437091768205,nan
1740793789.395066,0.3454443701257811,-1.5733190921799582,0.9230875300264031,-1.078616781236628,nan
1740793789.398972,0.4267394049721867,0.0025520435652762424,1.6545018323309035,-2.8699790050542493,nan
1740793789.402878,-0.005304634175194227,0.8942365436021721,1.2352409421273483,-2.8523772895311477,nan
1740793789.406784,-0.5231852862209176,1.252065176788235,-0.2405410422744606,-1.2407509273157042,nan
1740793789.41069,-0.6054063690138586,1.7718966989554992,-1.6385553642374255,0.6184180270726994,nan
1740793789.4145958,-0.29203931775572467,2.2677886240996634,-1.8337749159569736,1.5312480334809695,nan
1740793789.4185019,-0.06948160180150509,1.5748065685865633,-0.7362201562857074,1.4004039632179217,nan
1740793789.4224079,-0.11924357394406271,-0.8339629258113584,0.7077311837708457,0.961545098809505,nan
1740793789.4263139,0.007497541288081887,-3.5092252380859223,1.4261725806341734,0.7678097725164376,nan
1740793789.43022,0.7293452194130846,-3.9749086482098317,1.095791392651259,0.6148537061345445,nan
1740793789.434126,1.5919504223684802,-1.3222002155910693,0.2351933535682125,-0.010256586632347898,nan
1740793789.4380343,1.4732305639361893,2.42807679737379,-0.400463105078112,-1.081496004038,nan
1740793789.4419403,-0.14543212935141725,4.020337318372712,-0.48328249509401633,-1.8464151860105973,nan
1740793789.4458463,-2.261264591928833,2.1607365921938184,-0.28783262725703235,-1.5621163417687596,nan
1740793789.4497523,-3.025502542047481,-1.1829231946678884,-0.3064762643740136,-0.3327623098211631,nan
1740793789.4536583,-1.5099716054467658,-2.8217859116804638,-0.67289966011029,0.9117720519884636,nan
1740793789.4575644,1.25598195699003,-1.5425219828679262,-0.922985805180364,1.3053625400724156,nan
1740793789.4614704,3.122135412722436,0.9205966679627269,-0.39543113935416835,0.8515213904183456,nan
1740793789.4653764,2.720249064248308,1.975443733851373,0.9898761689952766,0.29221681607327943,nan
1740793789.4692822,0.5630264706458065,0.8532210547009286,2.33461133240979,0.21906993857748505,nan
1740793789.4731882,-1.6077828219703079,-0.9540930295158928,2.3384156695406633,0.42515066462729534,nan
1740793789.4770942,-2.392293952970349,-1.600221243141971,0.5235991006403842,0.2106571369869312,nan
1740793789.4810002,-1.6791505260853608,-0.7459956357465275,-2.054299651860989,-0.7049231077628957,nan
1740793789.4849086,-0.3245944984181376,0.5264452328720602,-3.4918664860376594,-1.690097434586267,nan
1740793789.4888146,0.7810314821893066,1.1618933536196008,-2.6491465782271484,-1.7227967986493333,nan
1740793789.4927206,1.2774989402283876,1.0218539167553091,-0.16343636579444845,-0.44117004528214576,nan
1740793789.4966266,1.2399244086292929,0.4613860468953565,2.1524905882955943,1.352586917796473,nan
1740793789.5005324,0.8408794313053134,-0.3558489777366357,2.9024865750310447,2.298412834062337,nan
1740793789.5044384,0.20221465485263812,-1.3093368964687508,2.0814763829525527,1.660320317480608,nan
1740793789.5083444,-0.5402555237243372,-1.779884662592048,0.6180170489037452,-0.02759361262874104,nan
1740793789.5122504,-1.1634446420020892,-0.9362820162065233,-0.7129860092198311,-1.4514114412387689,nan
1740793789.5161564,-1.385170505183682,1.1124100600414357,-1.6901447037589294,-1.6603187596192939,nan
1740793789.5200624,-0.9809291790305482,2.806155281973151,-2.1615385444969504,-0.7886092266800532,nan
1740793789.5239685,0.03421950553402381,2.3751126317516613,-1.7075337961926564,0.2554241468480422,nan
1740793789.5278745,1.2406112833985015,-0.20568463191510453,-0.1755552604181328,0.7220938424953196,nan
1740793789.5317826,1.8889288839366274,-2.8136524538864176,1.6140973069505506,0.6086636944355462,nan
1740793789.5356886,1.373856427122757,-3.10052203650601,2.2407266470758036,0.3874143372416376,nan
1740793789.5395947,-0.156520262173284,-0.8416979419087022,1.1063036508195305,0.30642356649418906,nan
1740793789.5435007,-1.679793431613088,1.8405890395458315,-0.6948862442294499,0.12236658914048179,nan
1740793789.5474067,-2.0050663366365926,2.6469778405192588,-1.3508153477670217,-0.4314314843233287,nan
1740793789.5513124,-0.8092414322775563,1.2923487903911517,-0.30444899968727895,-1.0553162288541003,nan
1740793789.5552185,0.9858430188592614,-0.5735729089790148,1.040361881039603,-1.001833767008565,nan
1740793789.5591245,1.953323862651118,-1.3590657338812313,0.8837903510891051,0.07140650656384481,nan
1740793789.5630305,1.3733925792161212,-1.0227066158844502,-0.8117087567936069,1.4510030422081697,nan
1740793789.5669365,-0.21344828633933347,-0.5324075743322932,-2.1313582670024442,1.8203732801970993,nan
1740793789.5708425,-1.563970270222269,-0.3283907601367605,-1.3622541470330867,0.5642070845952474,nan
1740793789.5747485,-1.7690562320557834,0.11321057804642937,0.9405549608677739,-1.399516987279987,nan
1740793789.5786567,-0.8184154987247945,1.1580349851137748,2.444973996045608,-2.295363012630218,nan
1740793789.5825627,0.60524338392576,2.010986370044021,1.6229411630635064,-1.1842161197726586,nan
1740793789.5864685,1.6643880620780203,1.3934289538597275,-0.5387604877746273,1.0064191791142658,nan
1740793789.5903745,1.7682284021784682,-0.7644943865751915,-1.6958164376699985,2.2720806364741204,nan
1740793789.5942805,0.80059340249715,-2.7709202456612148,-0.8199871294568312,1.458741951337416,nan
1740793789.5981865,-0.7317779027578993,-2.705805820551509,0.7346058286047039,-0.6005578184431376,nan
1740793789.6020925,-1.8266796843130528,-0.4705800486445503,0.9683571800553525,-1.9250508208822965,nan
1740793789.6059985,-1.6267911170158176,1.9808057957073175,-0.35302604463228965,-1.3567268904201704,nan
1740793789.6099045,-0.23020101043514507,2.5785474449864316,-1.4903985791175423,0.36016222160198635,nan
1740793789.6138105,1.1933108003953454,1.1514645369017185,-0.9097567025508313,1.4607495717942038,nan
1740793789.6177166,1.3812151939509238,-0.6247679108444758,0.8287605479928487,1.0036973784140315,nan
1740793789.6216226,0.23899138245180215,-1.1408015790434363,1.7447037128709748,-0.2809045930467969,nan
1740793789.6255312,-0.9835013891046821,-0.42499631642306956,0.822311817892792,-0.9455196470154144,nan
1740793789.6294372,-0.9555491472463575,0.24933640700119772,-0.7886149427191704,-0.4292686670666637,nan
1740793789.6333432,0.29825299093574653,0.02049476887952563,-1.1805751905682909,0.45354119561068434,nan
1740793789.6372492,1.3904256858648276,-0.6506421845327774,0.020459451522967905,0.5731453050378413,nan
1740793789.6411552,1.075450017194034,-0.7387233911576958,1.229173578731963,-0.19719915539959915,nan
1740793789.6450613,-0.3749780111116021,0.00863979569887523,0.8165062845981127,-0.8900970661817972,nan
1740793789.6489673,-1.472788418855262,0.7915345106851623,-0.9350153323286643,-0.6063101086541534,nan
1740793789.6528733,-1.1510964169663467,0.7714215574560442,-2.1229623564472075,0.44424097110954297,nan
1740793789.6567793,0.1160211181954895,0.07060082923268253,-1.3674131088788108,1.18361657795883,nan
1740793789.660685,0.9405777732928188,-0.42726237692815766,0.6921886614463341,0.8575542651763909,nan
1740793789.664591,0.6002422426903851,-0.1626395161734454,2.163028248036626,-0.18261883419464525,nan
1740793789.668497,-0.26348891673085123,0.45630439289052505,1.9009865108075898,-0.9231462926542332,nan
1740793789.672406,-0.541328313820027,0.5767080657412945,0.474167299998336,-0.7749722553644374,nan
1740793789.676312,0.020264662504319443,-0.07781192083917562,-0.7589472270035389,-0.08822069136927263,nan
1740793789.6802177,0.6331104358468184,-0.8799713758883941,-1.123751796865948,0.36981712387713156,nan
1740793789.6841238,0.5221288387564657,-0.9950916097536178,-0.9675836154219346,0.2687442657538601,nan
1740793789.6880298,-0.14648058729225957,-0.2751272824935031,-0.7928411053369155,-0.055158391329271694,nan
1740793789.6919358,-0.5591030951364988,0.6179799802285757,-0.5318200110341619,-0.12374505394729646,nan
1740793789.6958418,-0.30224224083382106,0.9156546764789965,0.1346664675091885,0.11687673194073027,nan
1740793789.6997478,0.17841533551117028,0.46924194670428476,1.0195213773784382,0.3218294875618295,nan
1740793789.7036538,0.22016043055801424,-0.21289259677443298,1.3921900859348997,0.22282508593426834,nan
1740793789.7075598,-0.197931283425401,-0.5336318293288189,0.7990362914983484,-0.07145115551863614,nan
1740793789.7114658,-0.46912313877065426,-0.33169333825688857,-0.30282381698242317,-0.2605985060285428,nan
1740793789.7153716,-0.17231843538915578,0.0995406723685973,-0.9489975082200172,-0.2165774251034209,nan
1740793789.7192802,0.38717568844139216,0.37658653414018417,-0.6753495506145972,-0.07174975943263458,nan
1740793789.7231863,0.5769546971555396,0.3415473379794474,0.0402399382653384,0.0070120326579931865,nan
1740793789.7270923,0.22615489326781174,0.08569070505445976,0.3769887279984853,0.0129383642231758,nan
1740793789.7309983,-0.20379213741995666,-0.21211507136151558,0.06842544781220808,0.03269492068605934,nan
1740793789.7349043,-0.23751523720016432,-0.41151373106777905,-0.41207077974527134,0.0743975188157236,nan
1740793789.7388103,0.03678213954349795,-0.4307866902187586,-0.4786162543208646,0.06069238014928395,nan
1740793789.7427163,0.1525143980000641,-0.2432713061154992,-0.06593623285271813,-0.019263698588120617,nan
1740793789.7466223,-0.08270055561788088,0.08997675854542773,0.4093125221897763,-0.051860674926584846,nan
1740793789.7505283,-0.34247634193052123,0.40508384654964885,0.5729856556582466,0.048485240425794704,nan
1740793789.7544343,-0.24330717841280425,0.5142308301835792,0.42755070905026604,0.1824801617755421,nan
1740793789.7583401,0.1256181129804922,0.34713842385432325,0.19394849122240684,0.15319431867271593,nan
1740793789.7622461,0.3111678215770351,0.02280942817396613,-0.008383331915556161,-0.07679343812053413,nan
1740793789.7661548,0.09295795066066301,-0.23878903040401875,-0.21867936009960323,-0.2919169937568859,nan
1740793789.7700608,-0.22288578193540923,-0.298489736881175,-0.44405709142482813,-0.2512719787283619,nan
1740793789.7739668,-0.19880872598132016,-0.2008975091892933,-0.5541720819972181,0.017781097442406038,nan
1740793789.7778728,0.16574007768115995,-0.09679936432700231,-0.41524336633403836,0.22959805028048208,nan
1740793789.7817788,0.427496050661014,-0.06990120626526378,-0.06515022102125538,0.16501472022891944,nan
1740793789.7856848,0.25709959088353457,-0.05861105418809325,0.30353437030721936,-0.07358238529340508,nan
1740793789.7895908,-0.15628020108136,0.039076344723174214,0.511323488367255,-0.18945436183667477,nan
1740793789.7934966,-0.35689878644354656,0.20246826094261844,0.4992782518429199,-0.048705378669930036,nan
1740793789.7974026,-0.18711375963251436,0.2738351980792807,0.30115751867161533,0.16757939510343536,nan
1740793789.8013086,0.057435675540044494,0.1353741841630146,-0.004104450539842914,0.19686349332428155,nan
1740793789.8052146,0.0495468631245339,-0.1203174878041898,-0.2832142276907273,0.018856462726745484,nan
1740793789.8091207,-0.14510274513187293,-0.24957533150267955,-0.3721800141175197,-0.1312458021089559,nan
1740793789.813029,-0.18678970462158206,-0.11604293375033184,-0.2102934869193613,-0.0680860683284059,nan
1740793789.816935,0.05910868274121742,0.1379608132960574,0.043941547723297086,0.10752023190059973,nan
1740793789.820841,0.32747931371106337,0.22824443925734697,0.11750408896778294,0.1361719664522281,nan
1740793789.824747,0.29542924416707417,0.046324389183361674,-0.09017952572924552,-0.07058293429104694,nan
1740793789.828653,0.0034901876770355826,-0.20426323835055654,-0.35295643670996435,-0.30835101533181336,nan
1740793789.832559,-0.19651091165396556,-0.23172334216185944,-0.3221572792175472,-0.3129472735531136,nan
1740793789.8364651,-0.09332658725533757,0.0006996623205053356,0.0942110559254176,-0.06110930719559352,nan
1740793789.8403711,0.12275506826044588,0.21573956389978247,0.5973723507742739,0.21735341728962865,nan
1740793789.8442771,0.12170768602846109,0.1379339377554762,0.7728385117309565,0.30841848484820794,nan
1740793789.848183,-0.13069794056296574,-0.16949024440280064,0.4784813413486069,0.22574198285395827,nan
1740793789.852089,-0.32719055252997087,-0.3474062958762944,-0.06258603552653726,0.12936448092370467,nan
1740793789.855995,-0.2126030457538284,-0.13665325398840647,-0.5150169500676424,0.09267289394001788,nan
1740793789.8599033,0.09529243785964835,0.3128866748740693,-0.7068389221521953,0.027690594534431533,nan
1740793789.8638093,0.2600265413011688,0.5733534833990849,-0.6535029017033512,-0.15304300008944768,nan
1740793789.8677154,0.1425072504384456,0.3728939949588286,-0.4098320474826967,-0.3707354935470201,nan
1740793789.8716214,-0.05239955431629342,-0.13425428664108818,-0.007386513719953863,-0.43602077934040245,nan
1740793789.8755271,-0.062357240856160775,-0.5314873222204071,0.45903151427115335,-0.25686666615254017,nan
1740793789.8794332,0.10097782869044565,-0.5342504640564756,0.7833955668237905,0.05954311987834107,nan
1740793789.8833392,0.19170243841543,-0.20476379455432828,0.7753963661887322,0.3216463335707377,nan
1740793789.8872452,0.06018573609046869,0.17494869698945958,0.43343737769144036,0.42532308763633975,nan
1740793789.8911512,-0.16315527552069994,0.36954624846529677,-0.05405233045032307,0.38323915869096337,nan
1740793789.8950572,-0.24553204778423166,0.3246177622408323,-0.477999852041958,0.22920636269879352,nan
1740793789.8989632,-0.1332648358770242,0.12100774874328418,-0.7322882865279619,-0.025032625398322825,nan
1740793789.9028692,0.020587240399364794,-0.11377036994049068,-0.7688282501428586,-0.31512479373825475,nan
1740793789.9067774,0.07643367171801164,-0.2507111345497451,-0.5237753375369099,-0.47642880070140103,nan
1740793789.9106834,0.058349322115485,-0.2044632381642623,0.0061026457012561975,-0.36168296269799954,nan
1740793789.9145894,0.0572121424893803,-0.005725787752093194,0.6166501934173231,-0.025175551821993977,nan
1740793789.9184954,0.06891792478285307,0.18736711857570573,0.9402665726099482,0.2697760458525753,nan
1740793789.9224014,0.017660245701961008,0.2146718075697655,0.7400953547019027,0.28644141846396176,nan
1740793789.9263074,-0.08348877026495159,0.07474032714940697,0.15824829346203526,0.05600168929467654,nan
1740793789.9302135,-0.10145284868084735,-0.07530872876520944,-0.39366268062205945,-0.1543953977306578,nan
1740793789.9341192,0.03622262010405001,-0.10628955933923782,-0.6099560677231354,-0.12482358443840218,nan
1740793789.9380252,0.1963661319400064,-0.0669417496633677,-0.5146928097560257,0.09554735064077592,nan
1740793789.9419312,0.16936940521431146,-0.09455498222297426,-0.3062816733292752,0.2662503229512214,nan
1740793789.9458373,-0.05830615534010507,-0.191673133846063,-0.0739132522703804,0.2225865720046879,nan
1740793789.9497433,-0.2500346571316251,-0.17931251713104546,0.22390407022473047,0.021444370667971058,nan
1740793789.9536514,-0.19091661824329392,0.06819377827841096,0.5231411791338683,-0.1684460434386878,nan
1740793789.9575574,0.04016654098318281,0.39131137105805214,0.5614565812716605,-0.2553620167725692,nan
1740793789.9614632,0.15638219310662854,0.4559924236016279,0.15964535959262788,-0.259639691315123,nan
1740793789.9653692,0.019482906210231344,0.13613642468305076,-0.44296162733755556,-0.2014081810832875,nan
1740793789.9692752,-0.17956200611176615,-0.28755979494148254,-0.7015764279320619,-0.044545826189070395,nan
1740793789.9731812,-0.15537141808710578,-0.40168970370171597,-0.3192832750747442,0.20548988834573956,nan
1740793789.9770873,0.10921305382138664,-0.12576005976882046,0.3714651960051955,0.40301448118799815,nan
1740793789.9809933,0.3312646726786295,0.18750531751303107,0.7017287264557371,0.3531824421687735,nan
1740793789.9848993,0.2697101568790452,0.16585531616828725,0.3637280615479505,0.03499877031446248,nan
1740793789.9888053,0.009657995573288976,-0.13643638525749407,-0.2683563023461435,-0.3134710283308708,nan
1740793789.9927113,-0.1645704289038411,-0.3083803606519476,-0.565199309408691,-0.39367837663801053,nan
1740793789.9966173,-0.13139096755734878,-0.09710466263594861,-0.31838994911699137,-0.1412617479915727,nan
1740793790.0005262,-0.05657534608219137,0.2639173369418124,0.10720697355340783,0.2053576341603925,nan
1740793790.004432,-0.1286582872758893,0.334872906812317,0.26612751060986,0.341715220095036,nan
1740793790.008338,-0.26949541809426814,0.02700384131780814,0.12764957229430654,0.18181755206491693,nan
1740793790.012244,-0.21913852897652716,-0.2613126620699652,-0.006302381047778403,-0.10161426075840467,nan
1740793790.01615,0.10203314796011471,-0.12834489149883238,0.02901837577403386,-0.2820755183666612,nan
1740793790.020056,0.4309915677355967,0.3052286728581165,0.06448532842986889,-0.2754784870342701,nan
1740793790.023962,0.4368495133851032,0.49358218061188097,-0.0840418783571985,-0.14127744941837728,nan
1740793790.027868,0.1097679557042629,0.10861569110010796,-0.26569468631020615,0.03704206119434433,nan
1740793790.031774,-0.21901061783089493,-0.5305779011044474,-0.15081943643285362,0.2082828281787823,nan
1740793790.03568,-0.2564901259083394,-0.7761015696780011,0.2737344735943343,0.31168713489935573,nan
1740793790.0395858,-0.06407875546214455,-0.3687568181116376,0.5578160969028423,0.26607860707041975,nan
1740793790.0434918,0.06318589486284808,0.27700444174502203,0.27874428266398793,0.05990900719135404,nan
1740793790.0474007,-0.021089354146485592,0.5480471586894851,-0.3893320332422472,-0.17575959008809366,nan
1740793790.0513067,-0.15612553484642472,0.30487545072883365,-0.7752001028636856,-0.25644444519648213,nan
1740793790.0552127,-0.11627347756856622,-0.025240343993289466,-0.44470266755702914,-0.13603002829013972,nan
1740793790.0591185,0.08149104724599444,-0.008355993851650378,0.2774763360202718,0.027827102868429748,nan
1740793790.0630245,0.20223092177549262,0.27325196408922825,0.6469317883681379,0.043597719205548696,nan
1740793790.0669305,0.10166289339682259,0.3490059454880587,0.3328682233407655,-0.08987333854246106,nan
1740793790.0708365,-0.09074398893147506,-0.04139892034997871,-0.2257769297039147,-0.17713563976554375,nan
1740793790.0747426,-0.14297664641407634,-0.6044763198858607,-0.3556205416037864,-0.06059512352658508,nan
1740793790.0786486,-0.009775688803721486,-0.8004851652014019,0.0643566031022865,0.18006157420937693,nan
1740793790.0825546,0.133409197814995,-0.42642535237258095,0.48595265262339066,0.30942669802941125,nan
1740793790.0864606,0.13345524535424932,0.19150018089429455,0.35457109896825884,0.20722054586125085,nan
1740793790.0903666,0.041874680403517654,0.5715532746414652,-0.24709499268268761,0.002363355637928605,nan
1740793790.0942752,0.003306785068907804,0.5486348695548336,-0.7065921840671258,-0.0916050321668498,nan
1740793790.0981812,0.027673470291432748,0.33001497993361184,-0.5673961572066134,-0.03535645947182564,nan
1740793790.102087,-0.02165951947929176,0.15679039900349653,0.012345644027507947,0.0034816303737029387,nan
1740793790.105993,-0.20021162686198643,0.030895360459600126,0.4922856072819755,-0.1167785099627508,nan
1740793790.109899,-0.3411018762987918,-0.18559670018696842,0.5235887232169929,-0.30569641536287395,nan
1740793790.113805,-0.23052964569678996,-0.48366579610131666,0.21239231958263707,-0.3253446026133377,nan
1740793790.117711,0.10016494786408853,-0.6298914317544432,-0.11147864455145222,-0.07405009830459357,nan
1740793790.121617,0.35760347309840634,-0.40787271236591005,-0.2426229578703306,0.27019451171971226,nan
1740793790.125523,0.30838027103287297,0.10967370828081417,-0.1875540265620446,0.4235361383620135,nan
1740793790.129429,0.05878036314848675,0.5793377148277499,-0.03417249622723162,0.28997898560644925,nan
1740793790.133335,-0.06869212930987846,0.6818682308390436,0.13356245698820265,0.041754155682667826,nan
1740793790.1372411,0.0667633367927193,0.3872347063211284,0.21189374919685078,-0.09088495359678803,nan
1740793790.1411495,0.23611257503982525,-0.05654968683323566,0.10515235014957383,-0.06507951577181785,nan
1740793790.1450555,0.11020459861566867,-0.3603008534086802,-0.14571568997887768,-0.031142364799280443,nan
1740793790.1489615,-0.3193899841994279,-0.4102623808892043,-0.32909440007010426,-0.11858931913163169,nan
1740793790.1528676,-0.6728488385928502,-0.29015706350644005,-0.26047986439647597,-0.2686422819701412,nan
1740793790.1567736,-0.5671028730571586,-0.1424531137980422,-0.011665188292069521,-0.3010258072167319,nan
1740793790.1606796,-0.027653854687704607,-0.02831716756213816,0.15158480190871274,-0.12140489573128223,nan
