timestamps,TP9,AF7,AF8,TP10,Right AUX
1740794525.6716201,0.30829892268928905,0.12917758326609696,-0.37726479303275456,0.4020222776829873,nan
1740794525.6755257,0.743930014044942,0.3627426054431562,-0.8375319768087816,0.5404272406691584,nan
1740794525.6794312,0.8926150772010395,0.4462292100989972,-0.4856113556949735,0.30063697037417975,nan
1740794525.683337,0.611353811154992,0.42388452868750126,0.35415620139029935,-0.050311040508987534,nan
1740794525.6872425,0.010524198275755695,0.24781148635445058,0.950528190306537,-0.190644521244858,nan
1740794525.691148,-0.5302862394560443,-0.07757299209309548,0.8059359978432135,-0.08304507608828958,nan
1740794525.6950536,-0.6521530882880869,-0.3732134175258277,0.04739434324444251,0.02940632165104194,nan
1740794525.6989594,-0.35756244301218637,-0.41303602941325535,-0.7241359296791647,-0.060767210302325576,nan
1740794525.702865,-0.0061014721317072685,-0.1710719853813846,-0.9471951508805544,-0.2813661080779964,nan
1740794525.7067704,0.07139513072746619,0.13176958453221663,-0.5300186596192299,-0.37870279038180105,nan
1740794525.710676,-0.08335079005568566,0.25700845769265407,0.13473054529113834,-0.21276041530775283,nan
1740794525.7145817,-0.15222400450579499,0.1772977798590076,0.5387551040556825,0.10329703340024357,nan
1740794525.7184925,0.0446788698693694,0.03856393944385946,0.47062341901666244,0.34862461183987514,nan
1740794525.722398,0.323674400474709,-0.0559158565949074,0.12700682493604415,0.412429400369382,nan
1740794525.7263036,0.37316842109618387,-0.13406487842347767,-0.13257404085144112,0.3321703187830532,nan
1740794525.7302094,0.14742695102462974,-0.21958967631038742,-0.12434027856942405,0.1692740290219035,nan
1740794525.734115,-0.07994524383450412,-0.21160424318500928,0.04387235616302291,-0.06287072084820608,nan
1740794525.7380204,-0.06826461747702327,-0.002026611284616167,0.14597770389438552,-0.32395416377652975,nan
1740794525.741926,0.08362557990309344,0.30738518252990077,0.08057451189588208,-0.47331954359681017,nan
1740794525.7458315,0.07283298944772314,0.42592570993451395,-0.0665071289451918,-0.3623092463231292,nan
1740794525.7497373,-0.1956545041835376,0.18913363203509764,-0.1600020629990716,-0.017788281907840084,nan
1740794525.7536428,-0.446686999961591,-0.19907673434972403,-0.1605548906709403,0.32149154750967746,nan
1740794525.7575483,-0.3472764836571022,-0.3458362541297427,-0.12059638779133011,0.4033883772931204,nan
1740794525.7614539,0.07446681492012795,-0.11448280397588409,-0.08039854623286309,0.1962034587537271,nan
1740794525.7653642,0.41912572540109444,0.19302051126400283,-0.022074789460153964,-0.0980313477525958,nan
1740794525.7692697,0.3458613551369335,0.17450096030352114,0.06957069225971256,-0.25449441065117095,nan
1740794525.7731752,-0.051091580700642604,-0.1849404554429425,0.14884710496943987,-0.2166730812430921,nan
1740794525.7770808,-0.34777870113354586,-0.4637750292583234,0.1532391627149593,-0.07886334943451935,nan
1740794525.7809863,-0.24519641013675544,-0.28087567902706045,0.09286615248901921,0.06276516354541467,nan
1740794525.784892,0.13987575961595586,0.24756571699772517,0.05010384975000463,0.18292649803445415,nan
1740794525.7887976,0.43736701684413887,0.611873674864595,0.0715188818132489,0.26501145879309174,nan
1740794525.7927032,0.4099291577943729,0.4616841819508009,0.09218974844057083,0.24458997738789148,nan
1740794525.7966087,0.1334763859845352,-0.02581987844428563,0.008045204663367446,0.0740610975078184,nan
1740794525.8005145,-0.16010470632055943,-0.3678248881189817,-0.17931581410206296,-0.17616669172246988,nan
1740794525.80442,-0.32966533742479015,-0.30432525490698914,-0.3308472745609882,-0.3446040417005858,nan
1740794525.8083255,-0.38611726547726183,-0.025349830205188367,-0.3086001019601147,-0.3328427648189194,nan
1740794525.8122349,-0.37442833750968013,0.11490086199323127,-0.12680120569656667,-0.19913553932240996,nan
1740794525.8161404,-0.27969109257584834,0.00880139209094339,0.06821118480500957,-0.06512826443051441,nan
1740794525.820046,-0.06730552123155659,-0.14526167701244813,0.16618511674742917,0.04409143686409145,nan
1740794525.8239515,0.23038262253938735,-0.1388330785939445,0.20223212873036878,0.2055556266260049,nan
1740794525.827857,0.503402509968112,0.0028930790837873796,0.2729890197246789,0.42910391709227647,nan
1740794525.8317628,0.6272934973519563,0.10719826592892068,0.368695027758138,0.5461930326580927,nan
1740794525.8356683,0.5211032026381891,0.10214377931196243,0.3414120102975176,0.34973788396156524,nan
1740794525.8395739,0.17717671142875296,0.083960919342773,0.06836780506952798,-0.13831536683847173,nan
1740794525.8434794,-0.3051987357984327,0.14049331739088364,-0.36951634561271757,-0.5974316342543232,nan
1740794525.8473852,-0.7055803142374308,0.19797657084516715,-0.703998214273029,-0.6714084618074636,nan
1740794525.8512907,-0.7732851420401873,0.10914874554696102,-0.6907938431877338,-0.31333588696983383,nan
1740794525.8551962,-0.42246114776293897,-0.13472761778162665,-0.3119692475929347,0.15923369945879315,nan
1740794525.859105,0.14007291513822853,-0.3519200035213203,0.2132153409182784,0.36873630260090395,nan
1740794525.8630106,0.5339587969286624,-0.35345392800909564,0.5963201801928943,0.2250360399698975,nan
1740794525.8669162,0.5140224118701279,-0.14013794729955695,0.6671957978331141,-0.034718692512695035,nan
1740794525.8708217,0.1784120948299084,0.11315050874659273,0.4469549902874857,-0.12206326795825226,nan
1740794525.8747272,-0.1418646043560412,0.2437389461384055,0.09298941408576411,0.023436751511777744,nan
1740794525.878633,-0.19995547690421983,0.22983907978287077,-0.2153543079545331,0.2226589584947715,nan
1740794525.8825386,-0.030100142265051755,0.14426468228705017,-0.3739670311129739,0.27247537714101117,nan
1740794525.886444,0.15124812805992427,0.04238697169613925,-0.3830697798824094,0.1339945039648529,nan
1740794525.8903496,0.18609332017989266,-0.06261602517405021,-0.2982728340018225,-0.07476107501912796,nan
1740794525.8942554,0.08539835511915171,-0.14327404307786484,-0.15482130217676793,-0.21927242423890175,nan
1740794525.898161,-0.05887855643089654,-0.14210262132392812,0.0482398262984707,-0.25477305305526965,nan
1740794525.9020665,-0.19041797567200475,-0.03907967132431853,0.27781159735193967,-0.21947661147929218,nan
1740794525.9059746,-0.2857119968678932,0.09470437065445955,0.40696494156297885,-0.16503438149694452,nan
1740794525.9098802,-0.29240911558872723,0.14669468732718707,0.2899047901873694,-0.10503383379711721,nan
1740794525.9137857,-0.1536915663205203,0.0671400182295327,-0.05808041524594248,-0.01335739584256628,nan
1740794525.9176912,0.0892159131657333,-0.09007340811054214,-0.3851067271608276,0.13734925988117327,nan
1740794525.921597,0.2790757510028349,-0.22025101510638856,-0.38902348518215407,0.3221515160477261,nan
1740794525.9255025,0.2845457942108133,-0.2374520679589018,-0.02857355745510619,0.43990065187213256,nan
1740794525.929408,0.14916787994011899,-0.10399420854289515,0.38352005070535916,0.36807461955895115,nan
1740794525.9333136,0.04722997016257708,0.15056105773239073,0.4632762698606604,0.08200842391951128,nan
1740794525.9372194,0.0759149385583604,0.3988865933518333,0.14589762393539027,-0.2730992970463503,nan
1740794525.941125,0.13416292268112365,0.4444576639746418,-0.2506272468559968,-0.46795107560934013,nan
1740794525.9450305,0.049015060901915625,0.17326881566814437,-0.3781900166033422,-0.38885827602617085,nan
1740794525.948936,-0.1964446902581167,-0.2777408027548277,-0.2275598718744323,-0.15157252610113067,nan
1740794525.9528437,-0.41491536529510936,-0.5590230045858924,-0.07857338862474465,0.016273329010395333,nan
1740794525.9567494,-0.410767765639575,-0.40863344791440936,-0.10008891311390206,0.018738019432994073,nan
1740794525.960655,-0.18522133424548987,0.05734050521947259,-0.11498550233225582,-0.011147892597237934,nan
1740794525.9645605,0.0866061467728407,0.41079781057126086,0.1424950927629814,0.11199195990059144,nan
1740794525.968466,0.2542869286286787,0.32800788675232245,0.5833602945821804,0.3685002652557485,nan
1740794525.9723718,0.30979924980608586,-0.0688023595384225,0.7347841922180867,0.5071252328268737,nan
1740794525.9762774,0.3048788810243183,-0.3364508859821075,0.25790692422475014,0.30882120645941474,nan
1740794525.980183,0.22707684548963925,-0.18796231035245234,-0.5628045168394482,-0.14541501845871732,nan
1740794525.9840884,0.03296998452979069,0.2025022046754392,-0.9956195204195927,-0.5154673997839875,nan
1740794525.987994,-0.2110910569998724,0.4060905356942686,-0.6016573847001117,-0.5236054788434721,nan
1740794525.9918997,-0.31513171003308754,0.21361580065020158,0.2620709962809659,-0.21234429946399055,nan
1740794525.9958053,-0.16039352863698683,-0.16139712544462026,0.7760222618670618,0.1282208193168222,nan
1740794525.9997168,0.1190088336419493,-0.3537595222496177,0.5009232599529346,0.2581618111346865,nan
1740794526.0036225,0.2280540203871285,-0.24265416714640975,-0.18729814963899452,0.17833459824749487,nan
1740794526.007528,0.02054969111748541,-0.01848040536703105,-0.5401664403048333,0.04631754327244928,nan
1740794526.0114336,-0.31808538794821506,0.09860668877149692,-0.24580439625330616,-0.02479070715331954,nan
1740794526.0153391,-0.4429967098065496,0.09926518028637416,0.2917395038099914,-0.038532836996576184,nan
1740794526.019245,-0.20145426133415675,0.1076732880023943,0.46462580523466007,-0.02771834026156752,nan
1740794526.0231504,0.21928195752493168,0.1510086896717896,0.13538407861337748,0.017020892495563444,nan
1740794526.027056,0.49396396652165336,0.11792598736401323,-0.2791686762957088,0.09497074664907404,nan
1740794526.0309615,0.467235496428051,-0.04821894288976963,-0.3366898362810867,0.12760463283456394,nan
1740794526.034867,0.24050235230848135,-0.21755606786908668,-0.05019846956362387,0.024654579618694553,nan
1740794526.0387728,0.00036944714955075125,-0.2139183216297279,0.20362699874367818,-0.16950444077036522,nan
1740794526.0426784,-0.1661494182262944,-0.04736073863663123,0.16076057706095895,-0.26217702867542997,nan
1740794526.0465894,-0.2738141573906555,0.08911423268690488,-0.06337553097885938,-0.10893038496788518,nan
1740794526.050495,-0.327636326480297,0.07271817375616281,-0.1809009832608293,0.18685876070950283,nan
1740794526.0544007,-0.28602984934253667,0.012560777050759992,-0.09100974335641511,0.334651063146251,nan
1740794526.0583062,-0.1383352488713821,0.08289107189550393,0.05048879926114768,0.1539710794695998,nan
1740794526.0622118,0.04002513402016853,0.24162770951528126,0.07597764051059162,-0.21365034189054133,nan
1740794526.0661173,0.150866604671449,0.2369000798808509,0.011180170281819666,-0.43057560290678276,nan
1740794526.070023,0.17228632312209588,-0.05960016316933243,-0.0019459103300870548,-0.30086723238906926,nan
1740794526.0739286,0.15869138079388723,-0.4168160952895015,0.0827768393671522,0.04846236897744961,nan
1740794526.0778341,0.15062768324793227,-0.45872456949462725,0.16012068476617786,0.32698760689429945,nan
1740794526.0817397,0.12816565400754384,-0.1138806795782927,0.1209154413374984,0.37719329998596823,nan
1740794526.0856452,0.06753163053909333,0.26122029652036116,-0.015472793404172897,0.2735149353096439,nan
1740794526.089551,0.0010141567993194136,0.2832483266695602,-0.14479334365380517,0.15460989288692847,nan
1740794526.0934618,-0.024864609446945202,0.005132193405226301,-0.20390688767986237,0.036697348248026916,nan
1740794526.0973673,-0.035021005841846066,-0.1418913776546385,-0.20035069344583367,-0.15716731123929367,nan
1740794526.1012728,-0.10956413013554096,0.10865717305684991,-0.14116523478213464,-0.4165338987358712,nan
1740794526.1051786,-0.2565295703630464,0.484865133440653,-0.008146125439767806,-0.5715087075335247,nan
1740794526.1090841,-0.34650656350411246,0.4596598923240749,0.16867022234404058,-0.44378437985125835,nan
1740794526.1129897,-0.23491421053629166,-0.10941816085175811,0.27244362340504236,-0.04941417139442571,nan
1740794526.1168952,0.050440221495096645,-0.743428020497195,0.20545508413386598,0.3844297364733286,nan
1740794526.120801,0.2993972283862016,-0.8209706154567894,0.02746870684202235,0.6069593661371275,nan
1740794526.1247065,0.33112775877142825,-0.2487803282641912,-0.08007620858960779,0.5324647287291681,nan
1740794526.128612,0.18650847539019058,0.4327147453932564,-0.02308646867195747,0.25908792896399085,nan
1740794526.1325176,0.06545632756441438,0.6212124522632572,0.0766400713909752,-0.04733997875145929,nan
1740794526.1364233,0.08398697367365905,0.2575901895857469,0.02186677327362648,-0.25885450770385027,nan
1740794526.1403334,0.1497528570949723,-0.17971868913179126,-0.20092979808231998,-0.3172656367171444,nan
1740794526.1442392,0.0992104570880351,-0.22539791428181108,-0.3713857489048041,-0.23935487400403593,nan
1740794526.1481447,-0.09410292658310845,0.11157125173555593,-0.2792799765167854,-0.12075653849382491,nan
1740794526.1520503,-0.30425703492705714,0.42950601490052354,0.02550724447643422,-0.08534896382865127,nan
1740794526.1559558,-0.4190890096497658,0.38037380141022076,0.2854997559279409,-0.164166576625406,nan
1740794526.1598616,-0.4361209725479308,-0.024800764727266642,0.3242703656628965,-0.2225580425908967,nan
1740794526.163767,-0.3655036803345937,-0.4942496442442589,0.2123125022929493,-0.07101321506870113,nan
1740794526.1676726,-0.1284501204925165,-0.7277289713406098,0.12071400463984656,0.3032281785809909,nan
1740794526.1715782,0.32973567753663174,-0.5952443471229399,0.08165514027178754,0.6423366229414676,nan
1740794526.175484,0.8250318327318039,-0.15735235238189127,-0.017897291989723948,0.6254759917980818,nan
1740794526.1793895,0.9660576095428435,0.376451596393523,-0.21664390396568467,0.20238692643100994,nan
1740794526.183295,0.5239669313351711,0.72280306984476,-0.3612387724304693,-0.3140484719594985,nan
1740794526.1872041,-0.24519266011365554,0.6811609920035644,-0.2817302257555632,-0.5344143127774026,nan
1740794526.1911097,-0.7661571244951545,0.30711463775634573,-0.03405738596449839,-0.3710263023688201,nan
1740794526.1950154,-0.6997083848779184,-0.09826208399571822,0.13915312889593445,-0.09582633215802665,nan
1740794526.198921,-0.2790256486141372,-0.25548033359521727,0.11022379544642262,-0.016005110281273518,nan
1740794526.2028265,-0.01590526969308903,-0.18514768338985438,0.03314257561835867,-0.13823763523151258,nan
1740794526.206732,-0.10177582992316525,-0.16376066095970504,0.12463246056069048,-0.1986734751848435,nan
1740794526.2106378,-0.21616655008392188,-0.3629686207539,0.32763684570396984,-0.004310051247856502,nan
1740794526.2145433,0.022354488008874043,-0.5843672507073235,0.3283255203580085,0.32648588058593947,nan
1740794526.2184489,0.5198696042835733,-0.44511788504327743,-0.03538816844313157,0.4996615976283604,nan
1740794526.2223544,0.7661845238166093,0.14978376502125534,-0.4812979762481741,0.3777374500026254,nan
1740794526.2262602,0.4418533259509072,0.794694678529244,-0.5363547654396764,0.10906369066869417,nan
1740794526.2301657,-0.16727474130580613,0.9283091734025304,-0.09475442234180773,-0.07773184483690355,nan
1740794526.2340744,-0.4731643011638972,0.4042695822632875,0.3980015963225,-0.1366013530715883,nan
1740794526.23798,-0.25499249375044436,-0.32977394829635465,0.41588717482198323,-0.20028597256632497,nan
1740794526.2418854,0.11111561963666114,-0.6545812125067347,-0.03961021485171574,-0.3415652351506944,nan
1740794526.245791,0.1306305508296338,-0.3676702499395776,-0.4245302895919457,-0.42987809517059516,nan
1740794526.2496965,-0.21752117604248927,0.1607533110531299,-0.2791475161783056,-0.28226262047931333,nan
1740794526.2536023,-0.4894434991348528,0.38762829263032467,0.23141492312476591,0.07838298574117553,nan
1740794526.2575078,-0.3400125709506193,0.11450306422769829,0.5078690258425301,0.39305226291223866,nan
1740794526.2614133,0.0763787389922245,-0.3742745602286316,0.21946770506967747,0.4233825456531475,nan
1740794526.2653189,0.3413913813719388,-0.6188352071049562,-0.3100658664788405,0.19987878020512057,nan
1740794526.2692246,0.2981911008159493,-0.3914062794209428,-0.48184452364921543,-0.027072115724708887,nan
1740794526.2731302,0.18260915742031092,0.15030932148252615,-0.10913306195386183,-0.0674757510832415,nan
1740794526.2770357,0.2287878513779713,0.626546544365892,0.38753394595315005,0.026694245083350932,nan
1740794526.2809439,0.31516565271652436,0.7287148876153142,0.4730243319896083,0.06992584826819705,nan
1740794526.2848494,0.14367526595443333,0.4221419359942197,0.07794922994177203,-0.01932208585168283,nan
1740794526.288755,-0.2895045153495621,-0.05605435468069887,-0.3802493905245549,-0.1436250747409099,nan
1740794526.2926607,-0.5892385375726985,-0.38787425856745184,-0.48814713752481914,-0.17724717925500072,nan
1740794526.2965662,-0.41458720727339354,-0.41839470297737497,-0.23352620120167975,-0.1259943206653328,nan
1740794526.3004718,0.06758961654972152,-0.2564195657022103,0.09156066794058981,-0.094517974766784,nan
1740794526.3043773,0.3316398375467102,-0.1308178032026393,0.2589167160924028,-0.12357555371426122,nan
1740794526.308283,0.10249316885668867,-0.1354137739149755,0.2730060841419987,-0.1228525676912207,nan
1740794526.3121886,-0.31157956065419373,-0.1381588366172296,0.22453021048774405,0.01088605006245255,nan
1740794526.3160942,-0.3778710298363136,0.029502838892405046,0.12485625653445273,0.24369239703938467,nan
1740794526.3199997,0.0389236752870862,0.3197432416234105,-0.043767428917937,0.4130609541956381,nan
1740794526.3239055,0.5322794551259481,0.4751060025052932,-0.19839834545520507,0.384629991320947,nan
1740794526.327813,0.6314910890460673,0.3191417067993758,-0.20220425969704245,0.1735307293578715,nan
1740794526.3317184,0.30450535013011,-0.01466921312172885,-0.05514180960578713,-0.09030543586323682,nan
1740794526.3356242,-0.08784179194967145,-0.21954221399857993,0.05993431001569691,-0.282167135697875,nan
1740794526.3395298,-0.2538995257015139,-0.17253642610583647,-0.008671783788339119,-0.3485458171590449,nan
1740794526.3434353,-0.24656695693492442,-0.06482546525968726,-0.1693233244632946,-0.291288300488272,nan
1740794526.3473408,-0.26707837269393575,-0.12312949487188907,-0.180189399115151,-0.14785626467621293,nan
1740794526.3512466,-0.3387504029850383,-0.2750814067371591,0.04016316470263875,0.00031517027626419623,nan
1740794526.3551521,-0.30142779851515367,-0.21991233393606607,0.283253359215699,0.056894050588654904,nan
1740794526.3590577,-0.08557491409331329,0.1446158906983589,0.29097702090135924,0.008075437789127133,nan
1740794526.3629632,0.15743735998530686,0.4917779012672809,0.07354120012628486,-0.02075828442850146,nan
1740794526.366869,0.25591797541511146,0.3953085535908385,-0.1046694604737654,0.12310613505802157,nan
1740794526.3707745,0.24659472007422512,-0.12780901464176278,-0.060233597428801515,0.4094183924719155,nan
1740794526.374686,0.2880976996961944,-0.5475588138396223,0.08326143094505538,0.5714595322747262,nan
1740794526.3785918,0.38011170817120105,-0.3862343186272067,0.07055374372476213,0.34745168764386974,nan
1740794526.3824973,0.31328036355314975,0.2132874203047125,-0.13968812195380995,-0.1972999427722862,nan
1740794526.3864028,-0.03422817618516674,0.6128275786775976,-0.31308996886590446,-0.6501988876241402,nan
1740794526.3903084,-0.4495637483978862,0.38922539542690304,-0.241285029091334,-0.6296929886744991,nan
1740794526.394214,-0.5696081055214297,-0.19380308381023725,-0.007533982215785704,-0.1908183037279962,nan
1740794526.3981197,-0.3100614532984307,-0.5065244956932476,0.13202465267276983,0.2066728092050201,nan
1740794526.4020252,0.015361819207142568,-0.27503346588544264,0.08593795655326243,0.17910652651183803,nan
1740794526.4059308,0.07294587856746736,0.15340558105411675,0.028517751749698575,-0.15936689034248755,nan
1740794526.4098363,-0.08284473897198577,0.27784746702934143,0.13309277105462,-0.31540472276756587,nan
1740794526.413742,-0.10484762454468641,0.030091223652962056,0.3083167624747673,0.028908246585980277,nan
1740794526.4176476,0.16203553940883406,-0.22555725244049094,0.30671729973518025,0.6288095319490787,nan
1740794526.4215586,0.44716939711046927,-0.2031389427244326,0.06369103062420525,0.8957720604549986,nan
1740794526.4254642,0.3991076804615491,-0.01599946859258304,-0.20117372688742508,0.5019183801741393,nan
1740794526.42937,0.06625411170593479,0.07266467078884851,-0.2709333826670942,-0.2714988040587152,nan
1740794526.4332755,-0.13882204905939338,0.05640058648544926,-0.21375231880351186,-0.8028784330123665,nan
1740794526.437181,0.020492810089179452,0.15066383822742138,-0.25406865946359364,-0.7218231444960431,nan
1740794526.4410865,0.2600621117941646,0.37996512319044456,-0.394721900358175,-0.21802642890652765,nan
1740794526.444992,0.1119306675170703,0.4284862614566643,-0.3385152025414746,0.20332622571283426,nan
1740794526.4488978,-0.44975408487761154,0.051849371601082876,0.11208253670216296,0.22058923388107426,nan
1740794526.4528034,-0.8969711023498581,-0.4846031395658991,0.6804457602833693,-0.04944385276243889,nan
1740794526.456709,-0.7310136983562769,-0.6227061020856496,0.8286025146362398,-0.23106777061173778,nan
1740794526.4606144,-0.06002084160204271,-0.21789567283725986,0.3855885720902291,-0.07034649745897592,nan
1740794526.4645202,0.5349137750638729,0.18774601955707834,-0.18963644588168174,0.34038347010307796,nan
1740794526.4684308,0.661365672793311,0.010301980999310607,-0.3169851125235017,0.6512537923923627,nan
1740794526.4723363,0.477967488549596,-0.5380072966464289,-0.005464780062685942,0.5516049529765715,nan
1740794526.4762418,0.3543886638463311,-0.5567935764535797,0.14143984413635102,0.04371216320258039,nan
1740794526.4801474,0.34365531135864,0.43251285317900984,-0.29615095299670385,-0.5146624816689971,nan
1740794526.4840531,0.18214141642993928,1.6683292517996258,-0.9362322265319035,-0.6706375256583414,nan
1740794526.4879587,-0.2293357679673134,1.770502239333171,-0.9703287174363063,-0.28093807212739297,nan
1740794526.4918642,-0.5860494070302446,0.28392623086149466,-0.15547510807650775,0.2920493822249323,nan
1740794526.4957697,-0.5612071601847216,-1.6160197523684912,0.7961963276876858,0.4574952599781234,nan
1740794526.4996755,-0.28616674405099773,-2.2147594943465276,0.9953657699982827,-0.02118759023045655,nan
1740794526.503581,-0.2054847249457241,-1.04941481334818,0.4412439775350504,-0.7064783830782033,nan
1740794526.5074866,-0.42744309620510335,0.6009345722263636,0.04177401725105051,-0.8493190484188488,nan
1740794526.511392,-0.46403285946282113,1.1180605555534924,0.4607878231531533,-0.1588535133033357,nan
1740794526.5153022,0.16559032679313662,0.2832903914495348,1.1486904880935582,0.8255706677899528,nan
1740794526.5192077,1.1638099914920645,-0.5919749692085811,0.8321988311174391,1.2358850458728072,nan
1740794526.5231133,1.5825859302475012,-0.24621996538085508,-0.9427317796836684,0.7713245958078486,nan
1740794526.527019,0.8646781626883455,1.0684134037162532,-2.9667867012714657,-0.005076290798886695,nan
1740794526.5309246,-0.4160992291329826,1.8690621352500687,-3.3302744130171957,-0.34248587596812274,nan
1740794526.53483,-1.104081032095934,1.0839903212149085,-1.3072035623245841,-0.1851381940812099,nan
1740794526.5387356,-0.7460192413741664,-0.800646726430977,1.812085418150432,-0.1891434043199658,nan
1740794526.5426414,-0.07856852587761438,-2.2593964238300526,3.8300354685927855,-0.7978259967295179,nan
1740794526.546547,-0.08281898111958731,-2.2051948372647936,3.540457022764917,-1.491622255054746,nan
1740794526.5504525,-0.7295190788863972,-0.843168294191206,1.5308941392306743,-1.234125828387909,nan
1740794526.554358,-0.9809126593078867,0.7615710025061432,-0.6980647267768697,0.2671006112763247,nan
1740794526.5582638,-0.10735252324246285,1.6669073195300461,-2.1219894027290094,1.9576607262875656,nan
1740794526.562173,1.278111179573575,1.579667297579105,-2.644350221256534,2.34625570988465,nan
1740794526.5660784,1.7954797222091528,0.7498606070738006,-2.486281649214738,1.0466892001133505,nan
1740794526.569984,0.8755730639991103,-0.2925188288633956,-1.6019646193049646,-0.7615974838581501,nan
1740794526.5738895,-0.5318007683857928,-0.9200074049642465,0.0745864074610263,-1.527369224292394,nan
1740794526.5777953,-1.005256656440391,-0.7136102438409024,2.002645624821606,-0.8853272995035584,nan
1740794526.5817008,-0.2573760650166731,0.11003980952711392,3.06255765617353,0.1253396033529847,nan
1740794526.5856063,0.5775140966167213,0.6838640863202148,2.4636247637561213,0.3415144082447661,nan
1740794526.5895119,0.30519963628374064,0.24821922001777424,0.5887848533723159,-0.27095353272148953,nan
1740794526.5934176,-0.9074922139928228,-0.9295263799237194,-1.2320568889397407,-0.7750623742921862,nan
1740794526.5973232,-1.6851745411234302,-1.6050123127739466,-1.8761135627419996,-0.4813049907102997,nan
1740794526.6012287,-0.9741099294794334,-0.8028744106010794,-1.3377630185315512,0.309991793706287,nan
1740794526.6051342,0.7733420925604974,0.9970249695598252,-0.5003577749949155,0.8346758579328378,nan
1740794526.6090431,2.0185995108816743,2.1754260201243847,-0.11498507344909746,0.8191725281805711,nan
1740794526.6129487,1.6419412499590509,1.6226906651318593,-0.12296058762516048,0.6024860033635688,nan
1740794526.6168542,-0.029454250548424234,-0.07491801900826855,0.030188861434917186,0.41478843647930874,nan
1740794526.6207597,-1.5686879875518303,-1.3017521642714491,0.5775469074835646,-0.017086636701150997,nan
1740794526.6246655,-1.6819691112211577,-1.1912853418271787,1.0915930718476852,-0.8795999765510208,nan
1740794526.628571,-0.214042114122208,-0.43243126567414536,0.9771421039392404,-1.562694143450232,nan
1740794526.6324766,1.7410222130161221,-0.1774136014234635,0.18917064548580306,-1.0792061526938075,nan
1740794526.636382,2.572143353002658,-0.46698268370000595,-0.6500646774989868,0.6105687713621646,nan
1740794526.6402879,1.286303075125419,-0.2264229792575996,-0.8589477095185472,2.066957760330307,nan
1740794526.6441934,-1.5807310470864824,1.0836141863872106,-0.36269172516219145,1.6699847142424524,nan
1740794526.648099,-4.0113903663878165,2.295542704017605,0.2760612699503737,-0.48473327630317353,nan
1740794526.6520045,-3.852798520963283,1.5978183642563557,0.45055547304482263,-2.388509895869356,nan
1740794526.6559126,-0.7017021041091592,-1.1446462639919712,0.0783922069900964,-2.1455097592579424,nan
1740794526.6598184,3.349895858801918,-3.6170880732219257,-0.4131612852602954,-0.04725021666185599,nan
1740794526.663724,5.180133348088725,-3.1402827342946966,-0.5854938558052413,1.7589572331220855,nan
1740794526.6676295,3.3236958963959844,0.38843617439913286,-0.3877635632762836,1.715879716596668,nan
1740794526.671535,-0.6209584509140749,3.9831182178675197,-0.06263966181577156,0.5412122138741101,nan
1740794526.6754405,-3.4025455098244892,4.321754309234377,0.23480560656130395,0.10476301330970719,nan
1740794526.6793463,-3.097946932565717,1.0241330887182587,0.5844302659548172,0.8758227923176749,nan
1740794526.6832519,-0.7178870449367643,-2.9629406264443525,1.021739760081513,1.1886291266959323,nan
1740794526.6871574,1.120476837950042,-4.253292589613745,1.2215102854100788,-0.5733778452656225,nan
1740794526.691063,0.9313854939708704,-2.1549109390551617,0.6639407901893963,-3.4825412933476976,nan
1740794526.6949687,-0.4045542298243338,1.0549795079198798,-0.7389216665165388,-4.540225184253922,nan
1740794526.6988742,-1.0067436911593277,2.654898287715469,-2.220142100511881,-1.9482860365402537,nan
1740794526.7027817,-0.17514287675454115,1.9486393598213436,-2.564498987239207,2.536519380260607,nan
1740794526.7066872,1.074159539029109,0.3143915658775544,-1.1629699948341592,5.1096177476602405,nan
1740794526.710593,1.4434407380569996,-0.6739121805565231,1.2474101651814007,3.8112393942475857,nan
1740794526.7144985,0.82272900567554,-0.7122074320728476,2.984658900956766,0.4465212102262287,nan
1740794526.718404,0.10283001626489759,-0.4626573599220159,2.750954876680124,-1.628494922268608,nan
1740794526.7223096,-0.1491371939325855,-0.3677116516900989,0.7342035389614622,-1.2336830360467161,nan
1740794526.7262151,-0.3112569741021719,-0.223674737545828,-1.5359417619221334,-0.2811305593900958,nan
1740794526.730121,-0.8984331188797254,0.17951079291752897,-2.461673355839576,-0.9768527474830341,nan
1740794526.7340264,-1.5565195852831573,0.503363153987912,-1.634943012990713,-2.843090067738176,nan
1740794526.737932,-1.3303130351831438,0.2700840913226151,-0.0026652459996641506,-3.226232113381078,nan
1740794526.7418375,0.05821623577812289,-0.3500703427104024,1.0885475223218042,-0.6587675237732074,nan
1740794526.7457433,1.592214401643367,-0.5707533846234777,1.0197063275698062,3.0511166661367577,nan
1740794526.749655,1.9103810262640382,0.03992195822394315,0.23334202835063333,4.60089416542686,nan
1740794526.7535605,0.7695289976689134,0.86940719694546,-0.36377173293673226,2.7842217537821963,nan
1740794526.757466,-0.7033929559748775,0.8572407767208262,-0.2604532447767104,-0.3128387439925216,nan
1740794526.7613716,-1.2367235278579354,-0.21016574441726132,0.29822792997307845,-1.8080945785086995,nan
1740794526.7652774,-0.6544827545543037,-1.2803854329484619,0.6568051293287722,-1.1519231244348331,nan
1740794526.769183,0.21610093483487974,-1.1253097859464665,0.39616691053929226,-0.26141184696921793,nan
1740794526.7730885,0.6282064188349686,0.23717167480322543,-0.30326450141289485,-0.7836568969065487,nan
1740794526.776994,0.5733860916530956,1.4575620403877867,-0.8603987447887993,-2.003179853530213,nan
1740794526.7808998,0.3821543748452867,1.2793291140421654,-0.8398984304774201,-1.8924128826922975,nan
1740794526.7848053,0.0791336274514373,-0.1057345976179326,-0.3358546845962712,0.1683958181621245,nan
1740794526.7887108,-0.5249541506517639,-1.293384272739921,0.172733667941858,2.445961596641326,nan
1740794526.7926164,-1.2250216198752555,-1.2008622256387775,0.35343590351752774,2.806521755911999,nan
1740794526.7965276,-1.3373791777902753,-0.15190112595608474,0.36903878879287333,1.1179296078070406,nan
1740794526.8004332,-0.45388122937954045,0.6523031774594851,0.6095914950008909,-0.7630213758960841,nan
1740794526.804339,0.9084546561333889,0.553389945983262,1.0566851047046986,-1.2203194395600325,nan
1740794526.8082445,1.7078953745013705,0.060766553596202304,1.0645362227963369,-0.5213405671917922,nan
1740794526.81215,1.4365863970204154,0.034768172302137496,0.009614510552014496,-0.04569045742523356,nan
1740794526.8160555,0.5515970425170206,0.5224969667139535,-1.7615596466442311,-0.3657904701298907,nan
1740794526.819961,-0.2105849502118675,0.7002650531667111,-2.8423102152531645,-0.6887812773619985,nan
1740794526.8238668,-0.6704648592788456,-0.024825854588964292,-1.9591377545855562,-0.18356744206231435,nan
1740794526.8277724,-1.0876946262703988,-1.1371412241466199,0.5974030044864055,0.7455930627700869,nan
1740794526.831678,-1.3791253996491066,-1.4811934832387799,2.9073692133541726,0.9560059192453656,nan
1740794526.8355834,-0.9687839864811338,-0.5715659683900118,3.078506096196778,0.10924194715421463,nan
1740794526.8394892,0.3089295334552756,0.7941679116720399,1.0813210358523309,-0.8340648981366375,nan
1740794526.8433998,1.4927873347453608,1.3609992801110378,-1.192656821224275,-0.8170443522465815,nan
1740794526.8473055,1.2776187046874508,0.7468785694814113,-1.8332946787842366,0.018811894797262592,nan
1740794526.851211,-0.3185624778587057,-0.22835152687195007,-0.8091779578463962,0.6260727694438597,nan
1740794526.8551166,-1.5336875495555613,-0.5393106635958708,0.19170247515993005,0.46644139727829337,nan
1740794526.8590221,-0.6586472106402516,-0.08198952490845934,-0.19881107269737658,0.11933978405117121,nan
1740794526.8629277,1.7552153958332926,0.3446029013163014,-1.4051443153883294,0.3053843499176976,nan
1740794526.8668334,3.0389251856322037,0.08609700413458353,-1.5658290309093479,0.7324576520094056,nan
1740794526.870739,1.2040767803837062,-0.5839275601018293,0.2358168755519157,0.4307688361743803,nan
1740794526.8746445,-2.552260822722199,-0.8404704281542466,2.7006898652933784,-0.8022541482285014,nan
1740794526.87855,-4.664601510893585,-0.31933247652064767,3.5009501190182832,-1.8337240239449335,nan
1740794526.8824558,-2.801354274595492,0.4702080748181797,1.6777528485742867,-1.4357386631052922,nan
1740794526.8863614,1.5562525155195488,0.7730372607287357,-1.3439668684009487,0.1448735254260389,nan
1740794526.8902717,4.462260899599853,0.43712872648514545,-3.1683153211521433,1.343650904723921,nan
1740794526.8941772,3.4393889252429193,-0.02465243154293799,-2.680892719011674,1.08797868306263,nan
1740794526.8980827,-0.17352587484978912,-0.13572160442205405,-0.799516144965525,0.037404221941345316,nan
1740794526.9019883,-2.8456743452872892,0.015359594731901002,0.7963272894061361,-0.3142253536459681,nan
1740794526.905894,-2.5015662549183673,0.03382208119124666,1.314348376564345,0.4495190765716445,nan
1740794526.9097996,-0.25199426823799814,-0.17907140636700797,1.1465918444782597,1.1643071361286983,nan
1740794526.913705,1.323063427035927,-0.3246009801440525,0.8944987968406837,0.6195431191469071,nan
1740794526.9176106,1.0457754289940744,-0.20312617733686295,0.5865954352289859,-0.8453451738182742,nan
1740794526.9215164,-0.034745330528528635,-0.0509926180643217,-0.023905648803650148,-1.7274252879508432,nan
1740794526.925422,-0.366847987852733,-0.17720332117772794,-0.7486575723467153,-1.2145595958625428,nan
1740794526.9293275,0.20510932689007685,-0.383514522915219,-0.9795012197685323,-0.11334498500440363,nan
1740794526.933233,0.5518264881335125,-0.07659488108773482,-0.46263389470378474,0.30939420537884393,nan
1740794526.9371424,-0.07920352256794855,0.8830836106090377,0.2496407472271313,-0.0028060572893340067,nan
1740794526.941048,-1.0564813181345911,1.6606805404716736,0.3743902391492688,0.05606567691675716,nan
1740794526.9449534,-1.165572259161242,1.1437256599381687,-0.15658887156633497,1.0561334722381313,nan
1740794526.948859,-0.10105744810591014,-0.7114691644588329,-0.5849753378856547,1.9956912463314478,nan
1740794526.9527645,1.1623610051455717,-2.4580175100474575,-0.24113220518244577,1.438664940099673,nan
1740794526.9566703,1.4468618672213414,-2.4004079333751673,0.6142665343798867,-0.5398707112647781,nan
1740794526.9605758,0.5640385572395302,-0.3474163696858603,1.0573549200447188,-2.1617940940036955,nan
1740794526.9644814,-0.6346887189454257,2.027651241466368,0.5640898711222069,-1.922243350705504,nan
1740794526.968387,-1.1818631631361445,2.7240774019202103,-0.3956722603972497,-0.34135252097034596,nan
1740794526.9722927,-0.790880875497298,1.297238183251253,-0.9018817758775453,0.721071341669039,nan
1740794526.9761982,0.12329053246931748,-0.8441789424100556,-0.5748739219784992,0.3586888972195428,nan
1740794526.9801037,0.9019907374926922,-1.9286701689355437,0.12877698454946776,-0.3657444544130179,nan
1740794526.9840174,1.035732735406629,-1.434835796789662,0.5346051886033667,0.036961928338461056,nan
1740794526.987923,0.3757051979192903,-0.2260730818388803,0.43891528267813734,1.3778185156981622,nan
1740794526.9918284,-0.725835307390679,0.6273985676050023,0.1047902978868799,1.8820183034736375,nan
1740794526.995734,-1.4888975784997691,0.8403019970860585,-0.22221400085095808,0.45230590624550043,nan
1740794526.9996397,-1.2187900686950464,0.7515666986075078,-0.5289582093863453,-1.7456348995364355,nan
1740794527.0035453,0.01936241256739408,0.5643519126064146,-0.7603013522199864,-2.4632011814343993,nan
1740794527.0074508,1.3015333069494883,0.11535352498758682,-0.6066063593196673,-0.9586734365339485,nan
1740794527.0113564,1.6271408474532987,-0.6244299152429835,0.17629889406354385,1.152105178202362,nan
1740794527.0152621,0.8678470698762537,-1.1771566444203116,1.2584156966222575,1.8017247379727208,nan
1740794527.0191677,-0.16479988056487854,-0.9653378246202997,1.7871750728388633,0.7722720380207497,nan
1740794527.0230732,-0.6373057586018476,-0.028702108836438884,1.1324313724235162,-0.3632844948666914,nan
1740794527.0269787,-0.5365013842363956,0.9033921715449901,-0.42824280164027523,-0.3923542326267217,nan
1740794527.030887,-0.46297156869075895,1.1330898137238412,-1.855506109689943,0.12256572936971319,nan
1740794527.0347927,-0.7069252780703904,0.6475352281319812,-2.199702025992259,-0.11027484578913388,nan
1740794527.0386982,-0.8335176717435785,-0.03454352622361878,-1.305506313134139,-1.1337387327543822,nan
1740794527.0426037,-0.32120109146044695,-0.5054007912202567,0.21891217425690532,-1.5325623712095147,nan
1740794527.0465093,0.6126459272987518,-0.7284909713201403,1.5373869993338711,-0.3133608927850156,nan
1740794527.0504148,1.1527267336243312,-0.7092765125321108,2.0411565279571118,1.6014965677596722,nan
1740794527.0543206,0.8798664535321329,-0.26791815935520424,1.5157817184208826,2.296953605831894,nan
1740794527.058226,0.3126907485203626,0.582785973758317,0.2102122114039511,1.1172976327715904,nan
1740794527.0621316,0.20461852873600048,1.201858184033984,-1.1504010178436674,-0.5881352937681937,nan
1740794527.0660372,0.4581926408980352,0.7346428352724667,-1.6793233453860046,-1.1579440153392895,nan
1740794527.069943,0.15712960337160883,-0.7829193341531402,-1.011995418183006,-0.5760966348856633,nan
1740794527.0738485,-1.1404997895429807,-1.9932926324122051,0.23200714106051695,-0.22113153230697052,nan
1740794527.0777562,-2.4446387037990958,-1.3783015074109246,0.8866300665597029,-0.8263004743359973,nan
1740794527.0816617,-2.1361691313414948,0.9650431125646521,0.3694147865493915,-1.3983915149329402,nan
1740794527.0855672,0.14210094579991597,2.9958817880916415,-0.6422161369108204,-0.5728718778544081,nan
1740794527.0894728,2.705859315209384,2.575233979903156,-0.8576075830168712,1.3546375478168582,nan
1740794527.0933785,3.3023235746986317,-0.2680961562466616,0.20788744134080248,2.4673534267957837,nan
1740794527.097284,1.3965922003433577,-3.1322144522168087,1.5783086012750247,1.4697022214745903,nan
1740794527.1011896,-1.2411077875223453,-3.4876743641363084,1.750502272077091,-0.6333639790086985,nan
1740794527.1050951,-2.3479937548835967,-1.0969487363090118,0.2969066876560726,-1.610526567629899,nan
1740794527.109001,-1.4080089748533873,1.8768119055580978,-1.5877960348210864,-0.6121431522804958,nan
1740794527.1129065,0.09711987548967063,3.053287142669919,-2.22175761501438,0.8650867869766717,nan
1740794527.116812,0.5475159039701271,1.9308038518761148,-1.0752773386106411,0.8404475488252046,nan
1740794527.1207175,-0.06496980637706318,-0.11502328130528044,0.7676978663392168,-0.7486982103149004,nan
1740794527.1246293,-0.42806598547328045,-1.4924453220361933,1.7145418276665583,-2.0146547512832873,nan
1740794527.1285348,0.2940989818537173,-1.6931039232042104,1.1303148658872781,-1.4119646385520759,nan
1740794527.1324403,1.3848267217672958,-1.1096779779358243,-0.24426510194905068,0.49103407079923084,nan
1740794527.136346,1.4524729407678147,-0.17524655759243915,-1.1308786918084315,1.8191668060902,nan
1740794527.1402516,0.13147285454582108,0.8796342467495266,-0.8465546371419966,1.592739611537681,nan
1740794527.1441572,-1.428517050102128,1.6239906364611285,0.25259376153287755,0.5761369510105893,nan
1740794527.1480627,-1.808299315473092,1.4027606288788226,1.1824827029471372,-0.03941676588549087,nan
1740794527.1519685,-0.8044657139459801,0.07427397018808743,1.1121399838962291,-0.15877944230708535,nan
1740794527.155874,0.5014947957816414,-1.4577993251892014,-0.022787565322499724,-0.5191324341267483,nan
1740794527.1597795,1.0138656480073167,-1.9052509892070821,-1.4030370522467541,-1.2229931522071271,nan
1740794527.163685,0.6822429813631807,-0.9173751922130612,-1.8452488043896556,-1.3061222409934001,nan
1740794527.1675909,0.24105069331034334,0.5133951967562321,-0.7605674180260404,-0.09866681101073234,nan
1740794527.1715019,0.16464830422489002,1.1589416426459296,1.1540084024544375,1.46495248566217,nan
1740794527.1754074,0.18742236852627253,0.8794246031010963,2.289261589390226,1.596983735083519,nan
1740794527.179313,-0.1315679854172437,0.5327090967311771,1.519716032336328,-0.17003921521351167,nan
1740794527.1832185,-0.6602752110192321,0.6293543780407008,-0.5990353607617149,-2.0854836753000314,nan
1740794527.1871243,-0.7795435106963651,0.5610790689293966,-2.1724625459585347,-1.927372554055693,nan
1740794527.1910298,-0.19875644259965775,-0.4701206249127577,-1.7451554919890637,0.46346505730002074,nan
1740794527.1949353,0.5544165785987395,-1.992809430386055,0.2201030678024081,2.8341500446466563,nan
1740794527.1988409,0.6468668060425565,-2.360868272913972,1.781399958492028,2.85469563220665,nan
1740794527.2027466,-0.08839988775802245,-0.6340372248242747,1.5035737286600848,0.5249153808928392,nan
1740794527.2066522,-0.8581966083741469,1.951072801733932,-0.11367343927431178,-1.980430625923811,nan
1740794527.2105577,-0.6991526793795081,2.948709664283034,-1.3004842907098177,-2.6610189858889632,nan
1740794527.2144632,0.4560105075543898,1.3044744220195301,-0.9812674119041698,-1.504121506695871,nan
1740794527.2183738,1.5871072819616252,-1.3549173739149563,0.18424751632625794,0.02274911764118465,nan
1740794527.2222793,1.528104638303909,-2.372157462876122,0.7679070017388364,0.7738442039166847,nan
1740794527.2261848,0.12806002696585053,-0.8965452819114105,0.280844584520175,0.8063594001809283,nan
1740794527.2300904,-1.525025205847027,1.2858175578021032,-0.4147640917062516,0.6885811301062164,nan
1740794527.2339962,-2.0636489407469276,1.8300785005546218,-0.34938482741288385,0.5718036563375162,nan
1740794527.2379017,-1.0828004801903335,0.38013607874872357,0.3140068953511989,0.2714047356819315,nan
1740794527.2418072,0.5104243138857227,-1.285684566140167,0.5913130927954297,-0.0849355046886282,nan
1740794527.2457128,1.3655265447057015,-1.4658602576396127,0.05481351865196393,-0.06177234461922826,nan
1740794527.2496183,0.9406967989596073,-0.3596048749341558,-0.564298354494528,0.3406944394590735,nan
1740794527.253524,-0.0633427250997542,0.5383763021156753,-0.35792652476284614,0.4023224020822994,nan
1740794527.2574296,-0.4932406297607349,0.445567119876651,0.4717680407841108,-0.461065950816116,nan
1740794527.2613351,0.04949360066879957,0.08802889502728879,0.7564593423709304,-1.7015896422116865,nan
1740794527.2652452,0.8193203912661224,0.4163037729943816,-0.13528494679680636,-1.9613107411757835,nan
1740794527.2691507,0.7635647951284751,1.0984293184274925,-1.3177179492927575,-0.581559280879108,nan
1740794527.2730563,-0.2927250798611257,0.8744319020398473,-1.2848243022681334,1.4702958816889509,nan
1740794527.2769618,-1.3914884339313098,-0.640350643898932,0.2647058236800649,2.4822956799640843,nan
1740794527.2808676,-1.4251369440185868,-2.09403806851804,1.87367678154247,1.742773804267275,nan
1740794527.284773,-0.3202776611078386,-1.7708430338399503,1.8301186091561237,0.1399448400033608,nan
1740794527.2886786,0.8693704912990047,0.33265615462971343,0.076612699590714,-0.9777597390857168,nan
1740794527.2925842,1.0779745841957984,2.2589205135217565,-1.6663092744825407,-1.185474728797364,nan
1740794527.29649,0.3329066240849856,2.0938065529357828,-1.7281050020970714,-0.9972227162978272,nan
1740794527.3003955,-0.3601556674950034,-0.010501560731803816,-0.2239227078877769,-0.7993678820166122,nan
1740794527.304301,-0.19490352475046482,-2.0397459592982616,1.1830864952831632,-0.334840629438828,nan
1740794527.3082066,0.5398351543177183,-2.2173591727713067,1.1174561949750634,0.5855933484406434,nan
1740794527.312116,0.8417807838345923,-0.6276995320392745,-0.14445254005884617,1.3338525550163887,nan
1740794527.3160214,0.17600806057640342,1.2165554207531333,-1.1497718259767817,1.0036418190685383,nan
1740794527.319927,-0.9105736480489247,2.018374856954045,-0.8642368643496408,-0.2935064673822293,nan
1740794527.3238328,-1.4018478254010753,1.6217147875346662,0.3779890635688221,-1.2083554635320068,nan
1740794527.3277383,-0.8897394946346368,0.5629401629008834,1.3814492008738968,-0.6290957766212186,nan
1740794527.3316438,0.10586762727475207,-0.6975081292488194,1.2771028569884917,0.8415758940037055,nan
1740794527.3355494,0.8178541509182279,-1.8173513126660426,0.17058678598281313,1.4034317732761696,nan
1740794527.3394551,0.9939858606414262,-2.2243127904662434,-1.1187182701510874,0.1883204174585827,nan
1740794527.3433607,0.8726046944853801,-1.3543170560125632,-1.7156112785077022,-1.5431694942840504,nan
1740794527.3472662,0.6010112355673042,0.5436736390913777,-1.1964389779579896,-1.751192628469725,nan
1740794527.3511717,0.011709763660306356,2.1889876932323435,0.18557943683699696,-0.038179552827017904,nan
1740794527.3550775,-0.9160045693179837,2.297597968099514,1.5633154863845191,1.7733017110542424,nan
1740794527.3589861,-1.6215106555405587,0.8856682784342493,1.9245618184456565,1.696808258975485,nan
1740794527.3628917,-1.3362871984966471,-0.7116625529972989,0.8847473247284146,-0.12572849889901203,nan
1740794527.3667974,0.012897566042827099,-1.2487472921409766,-0.847105598337288,-1.6222527579772918,nan
1740794527.370703,1.4761754904490985,-0.8014495479670739,-1.9274423695232032,-1.221395910629381,nan
1740794527.3746085,1.8815921764199426,-0.39120277908166495,-1.527650343824805,0.4017996592075927,nan
1740794527.378514,0.9750970595877518,-0.540076723338746,-0.08334336387159327,1.2829358529048869,nan
1740794527.3824198,-0.36939795939749404,-0.6182295424512468,1.1648638496859143,0.5493287019113424,nan
1740794527.3863254,-1.1005070840973357,0.17902972869960682,1.370386015930694,-0.6799863174670717,nan
1740794527.390231,-0.9970969404086509,1.501207074377753,0.7393138456371829,-0.8325666714989507,nan
1740794527.3941364,-0.6205335327268019,1.959975340158201,0.03319837914249877,0.17393039079616948,nan
1740794527.398042,-0.4160811373089507,0.7118954755113631,-0.3456200822423153,0.9591807228317334,nan
1740794527.4019477,-0.17499716220250594,-1.3677021135472136,-0.5689217288721535,0.48998437405635414,nan
1740794527.4058607,0.4761500810699157,-2.414513910169572,-0.8038840829776476,-0.6692984962798618,nan
1740794527.4097662,1.2771972557599987,-1.4711214058030386,-0.795591902524843,-1.1410602336785474,nan
1740794527.4136717,1.3919576876839854,0.5661045981804879,-0.25361308088909107,-0.4284554337108211,nan
1740794527.4175775,0.39435591217530835,1.9420387127515528,0.5353310503000744,0.6061769359907629,nan
1740794527.421483,-1.0132236511316772,1.7607986615926008,0.8629062294444534,0.908315755330167,nan
1740794527.4253886,-1.553457434089968,0.5561431165439453,0.4733739786072233,0.4286568177936785,nan
1740794527.429294,-0.7048738246630938,-0.6231200375235737,-0.013618565549754352,-0.08223562441859758,nan
1740794527.4331996,0.6836189976064976,-1.2645076461091471,0.13708917119389083,-0.17315414022047537,nan
1740794527.4371054,1.2372956718969748,-1.4122647736866776,0.698028708737893,-0.13461464435669113,nan
1740794527.441011,0.45666954323524567,-1.052207291987456,0.5881665426504634,-0.3348578741768985,nan
1740794527.4449165,-0.8352682767670706,-0.02367178887570683,-0.7132714732256275,-0.5622797701212094,nan
1740794527.448822,-1.4021491297796758,1.360674445422184,-2.150765317076868,-0.3538736736642716,nan
1740794527.4527297,-0.7880562535603325,2.067072829514297,-1.9908816371310991,0.22879542276107723,nan
1740794527.4566352,0.4274581499338116,1.2242423275306644,0.12329297671382063,0.5882251187960823,nan
1740794527.4605408,1.3493739345201956,-0.7031300048987355,2.387867462999554,0.4163863792705894,nan
1740794527.4644463,1.5030475381872084,-2.020353534649588,2.543428268582938,0.13600668009772876,nan
1740794527.468352,0.9186548987050427,-1.4290117255003725,0.3689765267831561,0.22751989634637257,nan
1740794527.4722576,-0.14306037701291466,0.5003659935340031,-1.9019444173831686,0.3834335066681642,nan
1740794527.4761631,-1.2557523705204117,1.7699362807119716,-1.9082006255271142,-0.14001862295016898,nan
1740794527.4800687,-1.7637880283971983,1.0117489155770107,0.26732999402481084,-1.2504312465943213,nan
1740794527.4839742,-1.12219407827267,-1.0226072880606485,2.176881968346897,-1.6536381188741205,nan
1740794527.48788,0.4021137891357889,-2.1930209245864374,1.6793950794191996,-0.3098330782380574,nan
1740794527.4917855,1.565634520132323,-1.1708969404494571,-0.7765156446785327,1.8899328867909442,nan
1740794527.495691,1.155614495414622,1.2129666810225386,-2.7406295561892735,2.6050568207499243,nan
1740794527.499598,-0.6104715885906334,2.813552285553442,-2.410259188031629,0.6362873004016413,nan
1740794527.5035036,-1.9401339591228846,2.2196702823295023,-0.31870838930394396,-2.302057973815926,nan
1740794527.507409,-1.1419938266587368,-0.07496753615268544,1.609918003370615,-3.0731307380873294,nan
1740794527.5113149,1.4265587247899174,-2.3139953837904415,2.2006298252179346,-0.5728901084464814,nan
1740794527.5152204,3.3613409326140573,-3.0111198279264557,1.8059311238606532,2.771607232559931,nan
1740794527.519126,2.4964091493277047,-1.8931394640004229,1.173785176449863,3.4390322400647184,nan
1740794527.5230315,-0.7689648967221573,0.24745642284101793,0.27026328849245745,0.6380201834061714,nan
1740794527.5269372,-3.646682833863984,2.2179983412568753,-1.2907111764263997,-2.7948420884129197,nan
1740794527.5308428,-3.6300135979308563,2.9896174733775522,-2.9560018989608032,-3.4762333626057074,nan
1740794527.5347483,-0.9319408870275284,2.101073425283007,-3.165336547467058,-1.0416335186829593,nan
1740794527.5386539,1.8540001833815258,-0.016682368933663518,-1.0360149692439278,1.770038442355129,nan
1740794527.5425594,2.4490059919801754,-2.092047629267519,2.159837567889498,2.357744647725531,nan
1740794527.5464706,1.0274572268753523,-2.7698417789810432,3.8107983055715393,0.9187527432388901,nan
1740794527.5503762,-0.37866879878753024,-1.6855085162025258,2.52235549367793,-0.372519710865449,nan
1740794527.5542817,-0.31417725050364953,0.16692548416905753,-0.38555674623278424,-0.25613780767943806,nan
1740794527.5581875,0.6383243078350971,1.3159236689062883,-2.2310951231722465,0.3358906844211868,nan
1740794527.562093,0.8650250410269678,1.17604518469315,-1.7371621191121236,-0.05430490499531199,nan
1740794527.5659986,-0.20379215457765992,0.48284887158443557,-0.13370796177056105,-1.2503604166050017,nan
1740794527.569904,-1.4453424009038442,0.3168479747097977,0.545819217596369,-1.659793491978857,nan
1740794527.5738099,-1.4727432463260803,0.8039479055877514,-0.13243376658765918,-0.47576620374126494,nan
1740794527.5777154,-0.3102787016141652,0.980853113058007,-0.7241889647343319,1.1387834453558707,nan
1740794527.581621,0.6986474567144955,0.004701161991272385,0.04707174628829637,1.4850770653475824,nan
1740794527.5855265,0.5542478722245977,-1.6770028334392169,1.5131779846987965,0.48695270487659365,nan
1740794527.5894322,-0.23749631885279845,-2.5871745069828074,1.7746353232823127,-0.2976191466850649,nan
1740794527.5933425,-0.39090756018751643,-1.7067643963475114,0.07304905609469554,0.15075688509510177,nan
1740794527.5972483,0.4903330127329225,0.41097881058669367,-2.0607696496407577,0.8591231177916502,nan
1740794527.6011539,1.3735409716607985,2.1162475651992785,-2.3611036749669556,0.17293485443917428,nan
1740794527.6050594,1.0508785113411523,2.2230765641296997,-0.3691291353524874,-1.7721769160024485,nan
1740794527.608965,-0.3435727016822144,1.0176892170604523,1.961127532385745,-2.742062434893322,nan
1740794527.6128707,-1.4052841603356567,-0.25045256635722873,2.3275288698138428,-0.9911693614456136,nan
1740794527.6167762,-1.0581073159319025,-0.7087972920150338,0.5199922374459043,2.2949908685059848,nan
1740794527.6206818,0.20733480553208256,-0.5606523265985244,-1.4522986920979137,3.878685291212342,nan
1740794527.6245873,0.9084858928191522,-0.5255847983836642,-1.6084388854544012,1.9522319750829968,nan
1740794527.628493,0.271350633170309,-0.8307961725189075,-0.07665402781502317,-1.7410170716297146,nan
1740794527.6323986,-0.9191134647323103,-0.9568785556365472,1.2231293332257653,-3.677607852312189,nan
1740794527.6363041,-1.2525522373766498,-0.36406841652794136,0.7968677479642814,-2.257648161684501,nan
1740794527.640214,-0.2744112458195178,0.724460780684002,-0.8203449186197044,0.7159373999018686,nan
1740794527.6441197,1.0811590444013113,1.4317704927706894,-1.7511128181589941,2.275686013031986,nan
1740794527.6480253,1.5816604061616242,1.1236116670821037,-0.8580869569479762,1.4764333750265257,nan
1740794527.6519308,0.9613357268395957,0.09006249484955156,1.0763876648525827,-0.06087040703369258,nan
1740794527.6558363,-0.01998296420131234,-0.7388809364813026,2.226133744582972,-0.48401761652744957,nan
1740794527.659742,-0.5780183235570251,-0.7257371174813837,1.5748627317512827,0.14831960201829322,nan
1740794527.6636477,-0.6613052923061931,-0.10713286197276925,-0.20224282350208048,0.375725198335154,nan
1740794527.6675532,-0.6726364545029468,0.3503299078801547,-1.564194628917302,-0.4949158276620589,nan
1740794527.6714587,-0.7311084127296409,0.1867442838999266,-1.593914158101607,-1.451501755133382,nan
1740794527.6753645,-0.5213708256826736,-0.33085278166180465,-0.6428714135260775,-1.153260594415023,nan
1740794527.67927,0.1304339909026439,-0.589503751225568,0.28914236096735296,0.2842419865885304,nan
1740794527.6831756,0.8200868686640045,-0.31566063283015316,0.5785385301659228,1.3930354902648796,nan
1740794527.687085,0.9305296638492381,0.19410849214850506,0.36982761967322625,1.1373258684858751,nan
1740794527.6909904,0.36855706285976986,0.47428795931123036,0.1565442947154063,0.08029130126237656,nan
1740794527.6948962,-0.28105967220843037,0.3945253910900226,0.18615209146634332,-0.4605742953126106,nan
1740794527.6988018,-0.4112035211589856,0.20059733048424735,0.30844052500754965,-0.07895631306706634,nan
1740794527.7027073,-0.058123645981974455,0.1297847238531635,0.2735654641514218,0.3581729019976528,nan
1740794527.7066128,0.2266605974538223,0.12515717203677323,0.041288448739927305,-0.004982809561637106,nan
1740794527.7105186,0.09420721786171089,-0.015653861012143635,-0.21732780984044367,-0.8351284317018411,nan
1740794527.7144241,-0.21544617097344193,-0.3008078799669493,-0.3387498539092295,-1.0493611997357568,nan
1740794527.7183297,-0.2661499097060406,-0.4857695056589229,-0.31805372864119624,-0.2410749266858329,nan
1740794527.7222352,-0.028312226740079684,-0.3762902283890896,-0.25447436568427995,0.771558174941648,nan
1740794527.7261407,0.11360050122815867,-0.08529145717499585,-0.20474587852111392,0.9493794433378389,nan
1740794527.7300465,-0.07124026790313115,0.10780677673368554,-0.12557684876027472,0.2741752939124168,nan
1740794527.7339551,-0.31213761151451735,0.11567917947009473,0.04889637837269974,-0.32492806971869453,nan
1740794527.737861,-0.2000887372126546,0.13387272406605163,0.2994708972544382,-0.18971383420261012,nan
1740794527.7417665,0.22164138882474838,0.32317774021327916,0.5031989447823024,0.29308710828039,nan
1740794527.745672,0.460984203200154,0.5095139239045496,0.5206632842487304,0.29651169869243066,nan
1740794527.7495775,0.21798711439852164,0.3522145403346931,0.3074452841136586,-0.31818661816232374,nan
1740794527.7534833,-0.17551880959855162,-0.17586623157319012,-0.04462854108161611,-0.8147978362837874,nan
1740794527.7573888,-0.14784571170800367,-0.6272060771749816,-0.36643497214446424,-0.5324536639633913,nan
1740794527.7612944,0.34228933881080453,-0.5371323648624369,-0.5213358743368668,0.2769198204047308,nan
1740794527.7652,0.6658204814448444,-0.003559790642860048,-0.48070026543598127,0.7666772975335756,nan
1740794527.7691057,0.26816351906029595,0.35725003819177237,-0.311532333890886,0.5115125661717091,nan
1740794527.7730112,-0.5980295294674759,0.1186224754657751,-0.09842474348381415,-0.06662742876082464,nan
1740794527.7769167,-1.1031576938206555,-0.40233135287807265,0.11969869880126303,-0.31800270282748555,nan
1740794527.7808251,-0.8002308282110887,-0.46944687052408623,0.3355547303875658,-0.15469079797370872,nan
1740794527.7847307,-0.1283342114810327,0.1772800771057656,0.5070204129762084,-0.017068970433552492,nan
1740794527.7886362,0.19159363179926595,0.918955862746437,0.5331294991666387,-0.1694903965771629,nan
1740794527.7925417,0.110934126333515,0.9013492855937965,0.3319307735169209,-0.3264711171398814,nan
1740794527.7964475,0.2980629668399241,0.032227515606970604,-0.04341221844632294,-0.09259268455464727,nan
1740794527.800353,1.1336902162967335,-0.8483996367651987,-0.39087873221061675,0.42163884738015617,nan
1740794527.8042586,1.9180412027257876,-0.8791426453019142,-0.507148790245746,0.6662161322255367,nan
1740794527.8081641,1.4370513594452845,-0.13664983453778248,-0.373268215383139,0.32791651991597565,nan
1740794527.81207,-0.5824211758900677,0.48124156544001695,-0.17491308958261026,-0.2690680113552206,nan
1740794527.8159754,-2.804493625915157,0.315236384003859,-0.103009658370743,-0.5532272879303589,nan
1740794527.819881,-3.34333189516162,-0.30662024246948155,-0.13124254850259087,-0.36935998662279995,nan
1740794527.8237865,-1.5678742434884185,-0.5104611034907589,-0.03355437254477709,-0.07323948496812177,nan
1740794527.8276944,1.2273958128077784,0.04247437974767828,0.335113355382372,0.00664887509235913,nan
1740794527.8316,2.9851854067388546,0.7450686471448111,0.7880957901173922,-0.01765769869180896,nan
1740794527.8355055,2.663654313678624,0.7835622135037983,0.9025666881332852,0.1519735944135684,nan
1740794527.839411,0.8928789645981281,0.10826126914021932,0.4253558840646136,0.4681314253902513,nan
1740794527.8433168,-0.8975450561617615,-0.5411636416177262,-0.41633693092451135,0.5062757391285164,nan
1740794527.8472223,-1.7404572864253198,-0.5514582399429802,-1.0564323017663084,0.03099615865036537,nan
1740794527.8511279,-1.5607438710620947,-0.13832892031469574,-1.0779775808274497,-0.5823284224209905,nan
1740794527.8550334,-0.7438687664768796,0.020836191900142888,-0.5583395567809104,-0.6849776314335475,nan
1740794527.8589392,0.3113289212224997,-0.2763863947808793,0.07414605989623647,-0.10543618002903977,nan
1740794527.8628447,1.1848564019831629,-0.46745206603438216,0.4844002680192885,0.5961180076230254,nan
1740794527.8667502,1.3642846525223251,0.022842531048870587,0.6700878134373319,0.7092962274916977,nan
1740794527.8706558,0.5829413735028504,0.925639161413213,0.765095947768957,0.1301403809681973,nan
1740794527.8745625,-0.7183910888374706,1.2841043857760677,0.7203575104107182,-0.5643998901286069,nan
1740794527.8784683,-1.535259783525191,0.5209567307657608,0.3244450218922436,-0.7593076478863732,nan
1740794527.8823738,-1.1584912839081303,-0.8180406030437566,-0.42426653892438043,-0.39026948988041704,nan
1740794527.8862793,0.09809744299934725,-1.5446000630936803,-1.0884690017694771,0.13395773993405738,nan
1740794527.8901849,1.1593277787842289,-1.0254323457546803,-1.102698349246638,0.4501737070919556,nan
1740794527.8940907,1.2268008117661968,0.21574726744413963,-0.3727052741196902,0.5303476975561132,nan
1740794527.8979962,0.48565663434078055,1.093397189850113,0.5203378225899838,0.4932417288307493,nan
1740794527.9019017,-0.24631706021348904,1.0219812980403853,0.8315107719798206,0.3298863180161428,nan
1740794527.9058073,-0.4429306904605665,0.3123081606893848,0.39325462362315644,-0.041445440384096525,nan
1740794527.909713,-0.29423324918492894,-0.3519291669267639,-0.21889123112923214,-0.5145817568445273,nan
1740794527.9136186,-0.252806328719271,-0.6061686096238861,-0.3079328829596126,-0.7684602486283876,nan
1740794527.917524,-0.38828596040946045,-0.5290250204432596,0.19470272048281953,-0.581383807641375,nan
1740794527.921435,-0.36880993359199965,-0.29238437849603244,0.6675564272804579,-0.09699995703003352,nan
1740794527.9253407,-0.007519288699767456,0.05700175343958907,0.4880987095710143,0.3156162244371345,nan
1740794527.9292464,0.4082778777803648,0.446399880445703,-0.28620436792838483,0.4441898408820326,nan
1740794527.933152,0.4535850510269813,0.6281531070438795,-0.9724126497410189,0.3869592291211221,nan
1740794527.9370575,0.11659835941928044,0.38430637848233656,-0.9586719859195936,0.32141486216341386,nan
1740794527.940963,-0.1684450943465822,-0.14313218514267484,-0.2803520239570763,0.23752252439157887,nan
1740794527.9448688,-0.05933995306947036,-0.5015909494587153,0.4863024300354374,0.0041927515040604225,nan
1740794527.9487743,0.2706814091743142,-0.40020775986641977,0.807171720446586,-0.3438823654143265,nan
1740794527.9526799,0.35783307919355406,-0.048306678375198434,0.6043313466383792,-0.5335430139903375,nan
1740794527.9565854,0.028231172165715412,0.09672316904910523,0.16473134906500464,-0.3475061909982955,nan
1740794527.9604912,-0.39312209926262004,-0.10135633599226082,-0.20609715080353888,0.07463926673856112,nan
1740794527.9643967,-0.4823939797862254,-0.27743244305157283,-0.37006335321850614,0.3407366520269399,nan
1740794527.9683073,-0.20483961176620663,-0.025960749851527538,-0.30497354958597717,0.22710079847159861,nan
1740794527.9722128,0.09839150448865183,0.5462526299905037,-0.04620689669108075,-0.08334209977163741,nan
1740794527.9761183,0.1518384322872236,0.8667413093985633,0.25727101269837643,-0.23042603395241928,nan
1740794527.980024,0.031444296593494625,0.5205271868389222,0.3401088010428719,-0.0865260287150252,nan
1740794527.9839296,-0.02376132723397347,-0.27153481628892473,0.03057473877985446,0.14373627391375932,nan
1740794527.9878352,0.04443007166055943,-0.8695953808160124,-0.49626674721477304,0.2156097510420565,nan
1740794527.9917407,0.08841755735405504,-0.8596519548994485,-0.7697214971476509,0.12792649557186575,nan
1740794527.9956465,0.03555972266847409,-0.39400785495422314,-0.4367036047812511,0.05279999285287529,nan
1740794527.999552,0.02971861513320819,0.08982250508031946,0.3542589869699089,0.05428365403874388,nan
1740794528.0034575,0.20380774163539278,0.3534893433504226,1.0268140167051572,0.004975124147360458,nan
1740794528.007363,0.40488691967367235,0.47138693089078826,1.0676000492096336,-0.18660096170716317,nan
1740794528.0112686,0.3040757721616938,0.5432910306216169,0.45001868194080696,-0.3707423549579117,nan
1740794528.015179,-0.18558459014525733,0.47554406620739936,-0.39879795168700277,-0.2948239716895324,nan
1740794528.0190845,-0.7138645879752751,0.13821349545819037,-0.9808821999557487,0.05769988566309038,nan
1740794528.02299,-0.8175299984333533,-0.3474712069839785,-1.0469426652662999,0.373548469776146,nan
1740794528.0268955,-0.40983926060759784,-0.6299142263066247,-0.6288409077370836,0.33037171712297775,nan
1740794528.0308013,0.14678102410337854,-0.4849818010488951,0.07505220243617888,-0.024557222830115237,nan
1740794528.0347068,0.4607132021231928,-0.07946124169472123,0.7601939756041167,-0.30074763675128535,nan
1740794528.0386124,0.49806218511910866,0.19848602459320597,1.061295973339546,-0.19128361812869318,nan
1740794528.042518,0.48210944701015485,0.1543318221241151,0.7388738258081269,0.18428957168976398,nan
1740794528.0464237,0.4941756130279917,-0.03395399562226673,-0.06344575320035814,0.4137604992297894,nan
1740794528.0503292,0.3403256911980037,-0.06180652652243302,-0.8064687643019282,0.24454948968396728,nan
1740794528.0542347,-0.1289041923734316,0.1423613069381867,-0.9424614121486018,-0.15719843346078285,nan
1740794528.0581403,-0.6872301925971257,0.3560275834758835,-0.3944693784136016,-0.40899688448716603,nan
1740794528.0620496,-0.8776911098815261,0.3324596382913685,0.3687586544651004,-0.31839118587676807,nan
1740794528.0659552,-0.5102935893283618,0.06492314974809321,0.7688502753599362,-0.04207379064770271,nan
1740794528.0698607,0.09302708206941171,-0.23247941041771597,0.615493093178521,0.13347302854878554,nan
1740794528.0737662,0.42866215255825507,-0.35366123769378766,0.16139068355270947,0.10122772111184092,nan
1740794528.077672,0.3367818150803284,-0.26739060035817197,-0.26395479762537843,-0.003412571234329804,nan
1740794528.0815775,0.1057824329130171,-0.08730619481575867,-0.5528251253311416,-0.0038243548509298898,nan
1740794528.085483,0.06469013210335431,0.05702218300415957,-0.7230177545134362,0.11435556227371728,nan
1740794528.0893886,0.19157792872201845,0.10284737023934115,-0.6629073157212276,0.21033221291864385,nan
1740794528.0932944,0.20774434719270593,0.06245117171939965,-0.17294137998345221,0.15931299149289763,nan
1740794528.0972,-0.007816223338591149,0.0018506167886987244,0.671743256552672,-0.015129954397329415,nan
1740794528.1011055,-0.2403400119351166,-0.0001224679138277022,1.335952865423662,-0.17131648295369922,nan
1740794528.105011,-0.22044060530183018,0.0794375217732573,1.2034411810145242,-0.1887652242014678,nan
1740794528.1089196,0.015981403812852825,0.16620405634696173,0.22055257969556527,-0.07632779469177223,nan
1740794528.1128254,0.1620798601011975,0.15294906433571612,-0.9220851493312001,0.041436067218817894,nan
1740794528.116731,0.023231765778138725,0.030369124359885778,-1.3692914963549496,0.041842937032120026,nan
1740794528.1206365,-0.24264252622707216,-0.0788999771148404,-0.8908382480719181,-0.07525809583712897,nan
1740794528.124542,-0.32592466805087156,-0.06492873107246863,-0.04852865856850217,-0.17509050169790166,nan
1740794528.1284478,-0.14063607585883092,0.004092029548133219,0.43070014591554245,-0.11329441290920653,nan
1740794528.1323533,0.0981626873339235,-0.06465101334826316,0.37765253077418903,0.1054903853435815,nan
1740794528.1362588,0.16890132316075857,-0.32411339010644513,0.22025416858431662,0.3031668844838436,nan
1740794528.1401644,0.11362254384985504,-0.5275615934113269,0.35695814724818065,0.2935494143300197,nan
1740794528.1440701,0.1433849144902971,-0.3345815907367023,0.6327838563035606,0.08325746737309717,nan
1740794528.1479757,0.3220290344785598,0.28158164092243904,0.5344725505120052,-0.12025431387964845,nan
1740794528.1518812,0.4472721346281572,0.8917496417261122,-0.13585068324983257,-0.13069797898954733,nan
1740794528.1557894,0.2804364730781842,0.9623949669611055,-0.9117270685984719,0.0015909842232222945,nan
1740794528.159695,-0.16459821324474258,0.374909103968752,-1.0746248471482336,0.04280390861297065,nan
1740794528.1636007,-0.6151673319761155,-0.4385058400829986,-0.4031406372488953,-0.13780175200112474,nan
1740794528.1675062,-0.7939641901799869,-0.8945178323616674,0.5487278076839489,-0.37675732779909765,nan
1740794528.1714118,-0.6242098500153993,-0.7689860965883016,0.9534381672611023,-0.3699877917469639,nan
1740794528.1753173,-0.20559707730171034,-0.30306273219041024,0.488251723525489,-0.02341914048503409,nan
