timestamps,TP9,AF7,AF8,TP10,Right AUX
1740793663.955436,0.10996408634750872,-0.047072621343599706,0.19383492769459143,-0.20490166935231566,nan
1740793663.959342,-0.09590251868145049,-0.047725311528977826,0.1276564184897077,-0.22089839421155286,nan
1740793663.9632478,-0.2919073625283467,-0.06361424288201478,-0.10906341200795565,-0.18351137496982792,nan
1740793663.9671538,-0.30092745942516314,-0.062384945383292915,-0.18097311468425029,-0.037352687671557354,nan
1740793663.9710598,-0.0665743677793795,-0.011833383761484875,0.012626466641281094,0.2181084768131084,nan
1740793663.9749658,0.27202792843818524,0.07791737115707732,0.24358549006269542,0.4500761612888994,nan
1740793663.9788718,0.46208282890644187,0.1375653210238564,0.26420555968936665,0.4771509348271903,nan
1740793663.9827778,0.34100984935215883,0.09389148184100078,0.1009656536943218,0.24570337192084424,nan
1740793663.9866836,-0.008623346810569752,-0.03736923388988005,-0.031193348912326318,-0.1085965799341596,nan
1740793663.9905896,-0.3146413141357495,-0.1353274632200496,-0.04110112712272175,-0.3888001597052667,nan
1740793663.9944956,-0.3537917654813157,-0.09014190245064081,-0.05998548351521247,-0.498370791979595,nan
1740793663.9984016,-0.15224884363015306,0.05999818031869726,-0.1999347364210847,-0.4560320359758319,nan
1740793664.0023105,0.054772314203968685,0.14763547642428237,-0.32818090550119533,-0.29221623821291315,nan
1740793664.0062165,0.0700233751580897,0.06301740360002692,-0.2064500098967652,-0.00773621163517048,nan
1740793664.0101223,-0.06422227360358043,-0.10078213104315047,0.15774669615526984,0.34035660363919107,nan
1740793664.0140283,-0.12253989927825011,-0.14089512420360414,0.43002934993888364,0.5785993956734136,nan
1740793664.0179343,0.0452442447725765,0.007273351364580364,0.3082277726781665,0.5333726872243462,nan
1740793664.0218403,0.3273441150086328,0.1666861377656528,-0.09074085193329133,0.22682318054808656,nan
1740793664.0257463,0.4407336040090318,0.11468797170804432,-0.3211137687463532,-0.10295022094594045,nan
1740793664.0296524,0.2163032927896367,-0.13447551905203428,-0.11784185705428016,-0.23152723263403407,nan
1740793664.0335581,-0.2121651826039016,-0.3112257255854468,0.2713378191180783,-0.1798278083677062,nan
1740793664.0374641,-0.5128989042549503,-0.18935594967234795,0.35320197321510877,-0.16144243502311104,nan
1740793664.0413702,-0.4550609029501088,0.13947481291150057,-0.032232680752983196,-0.2933203345206572,nan
1740793664.0452762,-0.10891880939368696,0.3531756030543584,-0.499211415475011,-0.42302378100659255,nan
1740793664.0491848,0.23826979749812002,0.25980341889869135,-0.5322156324412112,-0.30168541231488405,nan
1740793664.0530908,0.34908446499484197,0.004882512266074931,-0.05967185797299181,0.09373359986864242,nan
1740793664.0569968,0.218104782586116,-0.12230364300700967,0.4655282919636682,0.4860099466338726,nan
1740793664.0609028,0.016784985090106196,-0.042024832455305465,0.5550469056949676,0.5778022566290673,nan
1740793664.0648088,-0.09944062345780491,0.039872970931617444,0.18173640239101113,0.35958190054716344,nan
1740793664.0687149,-0.10798459290452254,-0.07795567797348112,-0.2463867052465606,0.0822940079085395,nan
1740793664.0726206,-0.07124280964929679,-0.30807136941260294,-0.34855709760872394,-0.05620189098234793,nan
1740793664.0765266,-0.03017926990792505,-0.361346939038191,-0.12898879195940324,-0.11440876118389406,nan
1740793664.0804327,0.01895102886161211,-0.1025105516741868,0.11709622152089129,-0.2563478885454612,nan
1740793664.0843387,0.06479458944772473,0.26923986402996897,0.15892955987147087,-0.461329037657625,nan
1740793664.0882447,0.057195503408535436,0.43963089910046516,0.02563596341893285,-0.49116621064643134,nan
1740793664.0921507,-0.023026755562025557,0.3243171471566349,-0.1081101610709867,-0.18255296068329038,nan
1740793664.096059,-0.0984313799594458,0.11792931173384429,-0.13118260127295855,0.2951759258086399,nan
1740793664.099965,-0.05696416790193863,0.011794878137728249,-0.058164693757182216,0.5597027974628578,nan
1740793664.103871,0.09843595741899058,-0.03659335296887323,0.04746125233175635,0.4044248701295351,nan
1740793664.107777,0.20239076380570245,-0.18559744235048042,0.13297321945604038,0.014954317990452137,nan
1740793664.1116831,0.0867660308847592,-0.41814571368606585,0.1495741620855994,-0.2342511504360767,nan
1740793664.1155891,-0.2022871021939398,-0.49020308659253736,0.06556418808612081,-0.16722432740173468,nan
1740793664.1194952,-0.39489591359095855,-0.21999332787807985,-0.0716125557579708,0.052383006520930545,nan
1740793664.123401,-0.2557887448758012,0.24128982496760418,-0.1340101991108604,0.14941983849255105,nan
1740793664.127307,0.1480395473072763,0.5219071449384131,-0.04307236862465341,0.03946173112009623,nan
1740793664.131213,0.47870310688307244,0.41842778718593726,0.10255204798851363,-0.12930745519850273,nan
1740793664.135119,0.45223250175128515,0.10184846322580446,0.10064507270317169,-0.18776669382712297,nan
1740793664.139025,0.11600900890379669,-0.10055898392104423,-0.10951707656901807,-0.12476517564344902,nan
1740793664.1429334,-0.2209189223415028,-0.07387313290265646,-0.32006960023855346,-0.04324622840219953,nan
1740793664.1468394,-0.31756033045325727,0.005427389374895173,-0.2499314622085791,-0.002472090116730526,nan
1740793664.1507454,-0.2165660759708439,-0.058603256808688726,0.11952649780329785,0.0335884991710038,nan
1740793664.1546514,-0.12156019826562874,-0.2266144272255173,0.46835340217953,0.10203462603498432,nan
1740793664.1585572,-0.11737839918125774,-0.2970436503332324,0.45398873011833524,0.16036680280969842,nan
1740793664.1624632,-0.08627668808967262,-0.17673039604374088,0.0831903364868694,0.13786093181439782,nan
1740793664.1663692,0.09033519842584656,0.018754995409156528,-0.29144988000158983,0.04023878875286416,nan
1740793664.1702752,0.3211657027262016,0.14368226756801275,-0.3558080407890192,-0.04464511707191141,nan
1740793664.1741812,0.373416720176282,0.20435151344418298,-0.15588112087550063,-0.05195489309435403,nan
1740793664.1780872,0.15175242949098625,0.28500770779663026,0.0093286232371024,-0.0158796317709757,nan
1740793664.1819932,-0.15764614303387858,0.34170328118955245,-0.02721283388916027,-0.017943280931301316,nan
1740793664.185899,-0.27049338180345367,0.1995953005970684,-0.11524578991555008,-0.07898174102790567,nan
1740793664.1898074,-0.11090020489658106,-0.1867167194938281,-0.017291760355969504,-0.13414888361968622,nan
1740793664.1937134,0.11426640731007798,-0.5544089837571307,0.2507202493315009,-0.11525951043723166,nan
1740793664.1976194,0.1508847061382242,-0.5411167557721646,0.40578261881198946,-0.02966894348243408,nan
1740793664.2015254,-0.038138457337903796,-0.09954658141531036,0.23457392125958174,0.05670088677629883,nan
1740793664.2054315,-0.2673645581012009,0.38406500820445694,-0.13495572289342367,0.09531209691244495,nan
1740793664.2093375,-0.3429120107439125,0.4673919442214036,-0.3622813827781648,0.09201893942972747,nan
1740793664.2132435,-0.22178525037228158,0.12656035085988288,-0.26731374511539086,0.07829182501549196,nan
1740793664.2171493,0.0278435396389156,-0.22486360471197495,-0.003887062430928126,0.07363784876381817,nan
1740793664.2210553,0.3296551609574402,-0.2089815075566973,0.14998514644907954,0.08005726648335204,nan
1740793664.2249613,0.5907727031308231,0.09643913755901941,0.10356369171924015,0.08469820347350518,nan
1740793664.2288673,0.6401787183054809,0.2761786712939475,-0.005253694512533707,0.04997421404553355,nan
1740793664.2327733,0.3118479604992213,0.08198990914700775,-0.040114546256078035,-0.07054790821796694,nan
1740793664.2366824,-0.326726868883978,-0.2772067559090525,-0.032966359889845684,-0.261203656638725,nan
1740793664.2405884,-0.884582285521262,-0.38863738689975424,-0.0753664721578201,-0.39094545880752746,nan
1740793664.2444944,-0.9169916775372476,-0.1144261358889459,-0.119737845223934,-0.2921660767418396,nan
1740793664.2484004,-0.3561447386179067,0.26575800355703333,-0.0075159582606781315,0.05161342792255997,nan
1740793664.2523062,0.3678104387974391,0.3853081557380958,0.27687725774705985,0.41365649874074556,nan
1740793664.2562122,0.7083998458330953,0.1811105978410765,0.4749583703461793,0.4920006064137151,nan
1740793664.2601182,0.5156325343470445,-0.09416393569230448,0.2890235398016379,0.21433823243925226,nan
1740793664.2640243,0.12729476422046923,-0.1955482054983766,-0.23987744307906472,-0.15499057402027713,nan
1740793664.2679303,-0.05265282205565004,-0.13081815989951334,-0.6766036648352409,-0.2704965934159917,nan
1740793664.2718363,0.006168295013854346,-0.06973151407096165,-0.5976371987138276,-0.07473860026397422,nan
1740793664.275742,0.007102399419839401,-0.0917561534033969,-0.048891599449765316,0.13911447665886034,nan
1740793664.279648,-0.22736096652473442,-0.10433142435113364,0.4652445842550672,0.06889321390232142,nan
1740793664.2835572,-0.4796201435383749,8.464052861229115e-05,0.4877469747307232,-0.22993862776396448,nan
1740793664.2874632,-0.38658115258876546,0.18321002016989943,0.07833510190252838,-0.38982984840276935,nan
1740793664.2913692,0.08431576462353862,0.2984115482287825,-0.2647376670179003,-0.15850004115600314,nan
1740793664.2952752,0.5258644301490174,0.2525598044327531,-0.1505996227540938,0.2825656146003034,nan
1740793664.299181,0.5098910527152095,0.08145350069351233,0.2795699603441401,0.4933428158627409,nan
1740793664.303087,0.05821531590197431,-0.12159122653754914,0.5048974787544324,0.2585174162535158,nan
1740793664.306993,-0.3804694177453616,-0.2901628398231411,0.187944877670632,-0.17380887799014,nan
1740793664.310899,-0.4156860953694716,-0.3748878504453631,-0.4495875686288204,-0.37146276855099997,nan
1740793664.314805,-0.10215691092946708,-0.3071292343535996,-0.828246552383418,-0.18868442807793076,nan
1740793664.318711,0.18786674969027026,-0.05165236651646832,-0.5756318280048145,0.11070314957169324,nan
1740793664.322617,0.20890875915163168,0.29072318903461214,0.11655358223431753,0.19462397777315701,nan
1740793664.3265228,0.06828569805218812,0.49414364718785087,0.680974929199881,0.043324302317549634,nan
1740793664.330432,0.013188921008063438,0.38666792611420153,0.6981644443343712,-0.07572538819931263,nan
1740793664.334338,0.09669022560065531,0.029448101567048118,0.2436856396646719,0.022758710004624497,nan
1740793664.3382437,0.1420825162813254,-0.31098997780723153,-0.24049045319721932,0.19803468903669366,nan
1740793664.3421497,0.009755441691625568,-0.38940261433380763,-0.3798481131503779,0.16195368539102845,nan
1740793664.3460557,-0.20573788832907208,-0.1837604697980714,-0.176849656803492,-0.14690081299718732,nan
1740793664.3499618,-0.2968351858906859,0.1137897725567624,0.0661868010666527,-0.4536425784840848,nan
1740793664.3538678,-0.20294786875266713,0.2753336530418246,0.08543270759075673,-0.43687539217816834,nan
1740793664.3577738,-0.0626726386672881,0.20090835905020143,-0.09505121057452451,-0.07818004498410339,nan
1740793664.3616798,-0.0034860559343631854,-0.044214778907323234,-0.22694149439822336,0.3253836857409913,nan
1740793664.3655856,0.034509044205570986,-0.2888473637442686,-0.11756423714772685,0.4780721335219812,nan
1740793664.3694916,0.19390788638348574,-0.34905943574175285,0.1669691793192867,0.35738931335632634,nan
1740793664.3733976,0.44739292512749773,-0.13825800189532042,0.3683194116652005,0.15768465645409657,nan
1740793664.3773065,0.5431959872154638,0.23868882579626624,0.2900893310693621,0.02411503016982087,nan
1740793664.3812125,0.2609582339909804,0.5086288910934682,-0.015961135204814278,-0.08470185303058306,nan
1740793664.3851185,-0.30148723190167853,0.4287895288435343,-0.30277516021438927,-0.26493432121947497,nan
1740793664.3890245,-0.7538170271332562,0.025040844386555506,-0.35254380410107095,-0.46742083274135826,nan
1740793664.3929303,-0.7510327719204561,-0.38591124313503594,-0.15471150207224088,-0.499246112226966,nan
1740793664.3968363,-0.300073926410127,-0.47165560394084277,0.11208292353963449,-0.2362504639874245,nan
1740793664.4007423,0.2630311958093402,-0.20407121612578402,0.2493457190263806,0.2034815076905616,nan
1740793664.4046483,0.5719639330187477,0.12259994444269383,0.19316511132192277,0.5318871341091204,nan
1740793664.4085543,0.5014560092292865,0.21013757913686584,0.03387500371842229,0.5403153171042254,nan
1740793664.4124603,0.19612010261889617,0.06087360881074544,-0.08408370314500731,0.27213369282529754,nan
1740793664.4163663,-0.09611706482187353,-0.07144927102751389,-0.08086703865208761,-0.04121088841994579,nan
1740793664.420272,-0.20362699013994667,-0.008103006676551498,0.008685989167987873,-0.19634712662790918,nan
1740793664.4241817,-0.11063905901885607,0.1516390487715057,0.07491813890183228,-0.17201471903423898,nan
1740793664.4280877,0.06158881441941706,0.1838454298625624,0.02749938037888678,-0.09737936189651754,nan
1740793664.4319937,0.13885118565510815,0.033358368035486835,-0.12200813452795027,-0.09760346793744482,nan
1740793664.4358997,0.016528317388476984,-0.1310241396738124,-0.25479629277451854,-0.17501560912239422,nan
1740793664.4398057,-0.24265747328693435,-0.1518510668921714,-0.23539937555536727,-0.22434427733385034,nan
1740793664.4437118,-0.43051513703802735,-0.07825132233703251,-0.03358938726358662,-0.14802131493849377,nan
1740793664.4476178,-0.35473823960129164,-0.05772528892507757,0.23426199974050602,0.044420682183255816,nan
1740793664.4515235,-0.01377256807131602,-0.08909884033281755,0.3952151891846031,0.2414783259763691,nan
1740793664.4554296,0.3844535031471331,-0.008429054206375847,0.36105595819319025,0.3266043060666092,nan
1740793664.4593356,0.5869832446568614,0.2373502063674718,0.18120885506560652,0.27115348861109523,nan
1740793664.4632416,0.48663858223262224,0.4080431257734,-0.03664331186243981,0.13814017263351808,nan
1740793664.4671476,0.16840492339606405,0.199677303887912,-0.23147356494821728,0.005580225487373549,nan
1740793664.4710562,-0.19354579102259103,-0.3309847928592507,-0.39204150126705445,-0.10049824405576546,nan
1740793664.474962,-0.4527144150444626,-0.6981873544755788,-0.475526720496023,-0.19364841366799718,nan
1740793664.478868,-0.5254687936778474,-0.4628624579498094,-0.38531351967545135,-0.26548815097588563,nan
1740793664.482774,-0.38244832451030875,0.24074517406278167,-0.0797418896908764,-0.2658125723416328,nan
1740793664.48668,-0.0679034975384017,0.7689535199928399,0.31225977879997624,-0.15870972857332882,nan
1740793664.490586,0.2764773351213278,0.6231945293831493,0.5494979266226278,0.016041828081278544,nan
1740793664.494492,0.46644704554571875,-0.014315242424052015,0.4964549485054176,0.1634939477325973,nan
1740793664.498398,0.404744938460505,-0.48334771981379293,0.26184033886638025,0.22157200325449242,nan
1740793664.5023038,0.1601616262462498,-0.37384328925225896,0.07149391555353016,0.2106764980730266,nan
1740793664.5062099,-0.09979657076723016,0.04607463290137975,0.0019775644921420214,0.1829672310162308,nan
1740793664.5101159,-0.25330447868450723,0.1865781191671,-0.09985653998662909,0.14021109964132542,nan
1740793664.5140219,-0.2877848845319579,-0.14743029669949748,-0.38407318993536615,0.03456266882477402,nan
1740793664.5179303,-0.2363430139312331,-0.518324718934303,-0.7202428764105724,-0.14231413936642337,nan
1740793664.5218363,-0.10551502368709113,-0.37169753270359956,-0.7485913172974594,-0.302152763964967,nan
1740793664.5257423,0.09494848852638842,0.2939098090134552,-0.267411363550036,-0.32581626764899163,nan
1740793664.5296483,0.2788187571773689,0.8755986890387275,0.4675654192743299,-0.18523314166627952,nan
1740793664.5335543,0.31157419471913395,0.7936126769687671,0.9161025710414423,0.025612151495815992,nan
1740793664.5374603,0.14892191516671913,0.09923043028360497,0.7649389979259603,0.18781614030026722,nan
1740793664.541366,-0.08549483264111023,-0.5895554211794003,0.23372619921228935,0.2589776892978168,nan
1740793664.545272,-0.21130179946041885,-0.722016502117083,-0.16940975507112646,0.25883884183678774,nan
1740793664.5491781,-0.17903477305050888,-0.3243039738329266,-0.17957494823530668,0.18558404529305886,nan
1740793664.5530841,-0.10128303667308317,0.11554904790039389,-0.010710508223312059,0.008225197139791193,nan
1740793664.5569901,-0.0824356964940223,0.19395214073125397,-0.053661806888768426,-0.2362377552771508,nan
1740793664.5608962,-0.07243631564154118,-0.033299811630209716,-0.40174645357238215,-0.3910143973441299,nan
1740793664.5648043,0.047217055831582644,-0.19184233752907548,-0.7394374018457384,-0.2994074382039305,nan
1740793664.5687103,0.24991891461702093,-0.026007961519523448,-0.6895921143233221,0.007488363244890806,nan
1740793664.5726163,0.32919533099011716,0.34228422283799487,-0.20254052093047967,0.2951941204303248,nan
1740793664.5765224,0.13904504054411582,0.5589945322132464,0.4262306997231834,0.3462475199612563,nan
1740793664.5804284,-0.17687267756386155,0.39432356770631694,0.8606993566978555,0.18063899030898856,nan
1740793664.5843344,-0.296298811366523,-0.048119684234302296,0.9667297330196466,0.00821015143582756,nan
1740793664.5882404,-0.0908297270399072,-0.44031442467459525,0.7717674846410105,-0.038090651076734774,nan
1740793664.5921462,0.18610278322319632,-0.523809535602232,0.3133346680775559,-0.05417922973521457,nan
1740793664.5960522,0.16805712668353576,-0.3126576140876741,-0.354387924443663,-0.19782402987675501,nan
1740793664.5999582,-0.17939066705238987,-0.0378228995979741,-1.0181779816496894,-0.4118553299641325,nan
1740793664.6038642,-0.4733958700513669,0.09304687821021668,-1.3042394568828384,-0.4200245842732417,nan
1740793664.6077702,-0.32697854158687534,0.08187613934443276,-0.9456766235241173,-0.05396863314488689,nan
1740793664.6116793,0.19988334554203183,0.09187795451694813,-0.0760691045593275,0.47316505356436434,nan
1740793664.6155853,0.6387765606733892,0.2231659293617238,0.7980571657031169,0.7191119760707322,nan
1740793664.6194913,0.6018909352806123,0.36387332730413635,1.1701342357157907,0.46497375986278533,nan
1740793664.623397,0.1615210117178368,0.2999150798153248,0.9038296505402992,-0.046192583368918586,nan
1740793664.6273031,-0.2870524568900674,-0.02083262076983165,0.2687264999585089,-0.3741987158182647,nan
1740793664.6312091,-0.46384927559442973,-0.3730764936657389,-0.32842429531079337,-0.3471533589058265,nan
1740793664.6351151,-0.41066617196997834,-0.45081686563258977,-0.618346870395972,-0.18581783296602766,nan
1740793664.6390212,-0.28643146497848515,-0.18661897229124363,-0.548158190615915,-0.1644293767676072,nan
1740793664.6429272,-0.1063899146043013,0.16065526851261985,-0.22428012933518035,-0.25109472686833606,nan
1740793664.6468332,0.20043888399165827,0.2641295449450054,0.14659397560290513,-0.17948892988936613,nan
1740793664.650739,0.5321688798144859,0.0602513281830175,0.3232297741769015,0.15453412930666496,nan
1740793664.654645,0.5869972438785382,-0.20462665736890345,0.17439813283551217,0.49652965755770645,nan
1740793664.658554,0.19639658000752477,-0.2481102617430815,-0.1725162054512077,0.5079922212480028,nan
1740793664.66246,-0.3841002754707971,-0.03137799117717128,-0.3834185908769481,0.17600537292076432,nan
1740793664.666366,-0.654746464910267,0.24390126905653897,-0.2157164676417185,-0.1617831228702753,nan
1740793664.670272,-0.38350776903831946,0.3664011942213286,0.21081431508673598,-0.21635072296624083,nan
1740793664.674178,0.13826254143436081,0.2888445516846304,0.4987811141019474,-0.07304064219869101,nan
1740793664.678084,0.4150669457236328,0.09360503793206491,0.3761591061641957,-0.03925013422071857,nan
1740793664.68199,0.2756387662662728,-0.12692241567021756,-0.011178609157911452,-0.21841211106505293,nan
1740793664.685896,-0.0032540503498330172,-0.30428518789253756,-0.262272156327832,-0.36305792858420993,nan
1740793664.689802,-0.08774192168400316,-0.36320024158239184,-0.17018756829522172,-0.19978157755099213,nan
1740793664.693708,0.019029797496097286,-0.25681980444773306,0.05859399211347902,0.1912183017538251,nan
1740793664.6976137,0.054197796201058426,-0.056035252620117125,0.07277288438108327,0.437128363054694,nan
1740793664.7015197,-0.1060400086718315,0.07561145832360612,-0.18627770725308346,0.3103964327396174,nan
1740793664.7054288,-0.2723270553688295,0.06781554459430983,-0.40269568421831753,-0.0034391496476292153,nan
1740793664.7093346,-0.20917300259402227,0.06411714469855949,-0.26118373865504074,-0.14365828007733564,nan
1740793664.7132406,0.03777189853960477,0.25153607115435783,0.1670634586372682,-0.015409340776751459,nan
1740793664.7171466,0.20298483684031599,0.5475677910684498,0.4856531586556321,0.1208002135192038,nan
1740793664.7210526,0.15929801127300378,0.5734675735893614,0.40666072809149423,0.01280894531122219,nan
1740793664.7249587,0.07153055345147535,0.06841053736072694,0.049777005776273156,-0.24138021596656303,nan
1740793664.7288647,0.12760634116453062,-0.6895819348510693,-0.2220571585990824,-0.31380539671750735,nan
1740793664.7327707,0.22725107689311713,-1.0326085263145428,-0.20855291857482794,-0.07277986491142924,nan
1740793664.7366765,0.09477361128427451,-0.5842894904767171,-0.042487996454360175,0.2326590363346102,nan
1740793664.7405825,-0.2954810193440871,0.2670224802312507,0.03326140376604994,0.26817607729670867,nan
1740793664.7444885,-0.5691867149338652,0.7186899111538062,-0.03115035025826978,0.017994091906479787,nan
1740793664.7483945,-0.35831267096512026,0.41315190141353714,-0.07615331848179695,-0.20647364336058213,nan
1740793664.7523034,0.20057932382014235,-0.16798411219398549,0.016893863048276076,-0.15324151248151216,nan
1740793664.7562094,0.5408414463361645,-0.2720218999085032,0.15044621963853666,0.07847037469136359,nan
1740793664.7601151,0.30139737017746965,0.2276594411887067,0.1291424538867301,0.1925697981145101,nan
1740793664.7640212,-0.2249628013180884,0.6703324339100859,-0.08676838070874984,0.07686971429978683,nan
1740793664.7679272,-0.41057073491254464,0.40053768717521115,-0.3063511026035603,-0.07788515041161337,nan
1740793664.7718332,-0.03328028465961463,-0.41813605581821023,-0.2965808837513915,-0.051388109441571794,nan
1740793664.7757392,0.451960299209921,-0.9530997323580312,-0.017528382664393414,0.11231564277354687,nan
1740793664.7796452,0.4537436982495378,-0.6548532285260543,0.33808573566768807,0.16754222256319432,nan
1740793664.7835512,-0.04980848523762614,0.12023566858311154,0.5118824004741491,-0.00921056378415633,nan
1740793664.787457,-0.4934905333421831,0.5518665141960728,0.3755632653997448,-0.25605712437221045,nan
1740793664.791363,-0.40657460468560525,0.3122293566921261,0.0062715668008001815,-0.3200502916542073,nan
1740793664.795269,0.04549093870471834,-0.1165313936857878,-0.37217493595872264,-0.14865369335926407,nan
1740793664.7991776,0.3038574964470513,-0.10892032887072807,-0.5248865196743263,0.07916894094386004,nan
1740793664.8030837,0.10918806317504809,0.313393196151193,-0.357240336218902,0.18426758663080128,nan
1740793664.8069897,-0.22148592571249903,0.5413774003569451,0.0007700600264425255,0.16547640976901362,nan
1740793664.8108957,-0.24077778518594656,0.17629702295463962,0.27135995695267817,0.12711454946173895,nan
1740793664.8148017,0.06452760468294765,-0.4545216959311635,0.2562273752576603,0.10850062774580053,nan
1740793664.8187077,0.30210708285123045,-0.6936626015444326,0.026162108133261208,0.06375037545732848,nan
1740793664.8226137,0.21251855445104043,-0.33717168398098196,-0.14000130677925862,-0.016280184652320763,nan
1740793664.8265195,-0.011861387164544773,0.16912833821270196,-0.04209094309651298,-0.060677222541325036,nan
1740793664.8304255,-0.030906793711938805,0.31397684427845585,0.2232690086127264,-0.035678728191063894,nan
1740793664.8343315,0.15195834402065414,0.10654459125254588,0.3638793832302783,-0.03188368894244231,nan
1740793664.8382375,0.1865661910839791,-0.047779018308094924,0.20841678102265287,-0.14790063471168607,nan
1740793664.8421435,-0.12866182147187064,0.06288179775544823,-0.12117397068982798,-0.3063912879377661,nan
1740793664.8460522,-0.5209689937551725,0.21262085831361002,-0.3673602154826331,-0.29026080065613136,nan
1740793664.849958,-0.5435962206057464,0.12053933758319026,-0.4096189493688967,-0.01388258509482138,nan
1740793664.853864,-0.1320188833210284,-0.12137459249588069,-0.3162845539757467,0.3129816012110757,nan
1740793664.85777,0.30451142696286204,-0.1842898791090784,-0.15834830922996537,0.39122371376134846,nan
1740793664.861676,0.3814022584412551,0.004528320305975429,0.1021937164182769,0.19359237702028256,nan
1740793664.865582,0.18635435693310545,0.13414521314208247,0.4586168947724232,0.011834720433742847,nan
1740793664.869488,0.10429614451606477,-0.0405386953964198,0.6765777925413132,0.08344647335238278,nan
1740793664.873394,0.26530773830138427,-0.2991330963139162,0.4432465781606003,0.25385348059252394,nan
1740793664.8772998,0.3562477171554608,-0.215711321742844,-0.21755177300934994,0.14235284608302987,nan
1740793664.8812058,0.05586011056485432,0.2183684265294246,-0.7872487902371117,-0.3433787214845419,nan
1740793664.8851118,-0.47756764901527243,0.4769033816084179,-0.6892261204472534,-0.7911448799191826,nan
1740793664.8890178,-0.7259701569706377,0.1439096337257946,0.06244123021246779,-0.6999293939874491,nan
1740793664.8929262,-0.41891031454320365,-0.4724975247253333,0.7650480125711989,-0.07395002610924765,nan
1740793664.8968322,0.13030085050848442,-0.6182336066446816,0.7059987114592116,0.5328301180842424,nan
1740793664.9007382,0.3857581225868716,-0.011749783442983247,-0.06951191853894531,0.6153515470688694,nan
1740793664.9046443,0.19760252403994752,0.738469576981883,-0.7767554552394784,0.2616145933597747,nan
1740793664.9085503,-0.08410180412961747,0.8060666285504738,-0.7196816400364195,-0.007914914898518617,nan
1740793664.9124563,-0.08494430096706229,0.12426016728956282,-0.017323601012320486,0.10130260317720949,nan
1740793664.9163623,0.1624811566320058,-0.5503711046629287,0.5805431759325183,0.3181055668427053,nan
1740793664.920268,0.34409632406587715,-0.5784471864379664,0.5456406744827071,0.1938964424142581,nan
1740793664.924174,0.29969125749209097,-0.18636696901744443,0.09169871980858323,-0.28877353840065534,nan
1740793664.92808,0.15672845034470867,-0.0625894113780929,-0.19638959914866755,-0.6648846031429607,nan
1740793664.931986,0.03862605335373821,-0.3479215853056809,-0.09980754937977676,-0.5532613533820842,nan
1740793664.935892,-0.15491708141960167,-0.39653526376595577,0.05243389003988911,-0.11471662506937672,nan
1740793664.9398005,-0.5273950222214601,0.30331643899266464,-0.07459616962594658,0.17375589802380384,nan
1740793664.9437063,-0.8527529407398482,1.2416962881915772,-0.31687302835352166,0.11879833233779001,nan
1740793664.9476123,-0.7059579630843934,1.3072131460875136,-0.22958635512495962,0.003327814546075036,nan
1740793664.9515183,-0.007862538023701513,0.1440128554876447,0.25465631390354854,0.14357974038742202,nan
1740793664.9554243,0.7333128247992742,-1.2378302553537193,0.6181962736600303,0.4283425465798565,nan
1740793664.9593303,0.9182435151039767,-1.48925664523899,0.33921772605607053,0.4745518019570297,nan
1740793664.9632363,0.5498305212931127,-0.4513799909416953,-0.4250431032374733,0.18646908214678812,nan
1740793664.9671423,0.21280456031480338,0.6662685878065804,-0.9231537590145502,-0.0748585672695953,nan
1740793664.971048,0.28278781081563004,0.7186924428894076,-0.6144358466632315,-0.002999176891765458,nan
1740793664.9749541,0.3675998543977918,-0.05903045713387199,0.23923276013998843,0.13595351729099067,nan
1740793664.9788601,-0.19614135544636788,-0.45997403008081017,0.8755776936003516,-0.22675085552954685,nan
1740793664.9827662,-1.314547562883327,0.09906426354276285,0.8390820290972992,-1.1102031309114577,nan
1740793664.9866753,-1.9320221112425082,0.8272141818605719,0.34777059208085837,-1.6439400641321296,nan
1740793664.9905813,-1.1216602224544472,0.6193736700535281,-0.11509508603280134,-0.8792768586848067,nan
1740793664.9944873,0.7119117829231767,-0.43188684525372123,-0.36623225262824954,1.0121052474887196,nan
1740793664.9983933,2.0363760272333793,-1.0562882084697047,-0.5399387281328659,2.577925394984331,nan
1740793665.002299,1.745356194011823,-0.41163537904771336,-0.6703986208929987,2.3673334338697276,nan
1740793665.006205,0.33290556393260295,0.7509228723978584,-0.533804197247559,0.41237924931326086,nan
1740793665.010111,-0.7053391221104198,0.9307638353371981,-0.016313948578116983,-1.6930465609404004,nan
1740793665.014017,-0.5719343344022513,-0.22250912399893563,0.5474902425800033,-2.280389674917834,nan
1740793665.017923,0.03622757543649991,-1.3416526508380047,0.6579377604035225,-1.147422578586652,nan
1740793665.0218291,-0.03879667838225439,-0.9413050764838291,0.2840418162751189,0.4059271090973613,nan
1740793665.0257351,-0.8607186237324435,0.6952546732409024,-0.020497381068181022,0.9861977635473724,nan
1740793665.029641,-1.2791190037376565,1.7094289345020104,0.1928248224808797,0.4208737015291727,nan
1740793665.03355,-0.42307193548019684,0.8416714273586414,0.5891159496801599,-0.3211075244154914,nan
1740793665.037456,1.0565880406907882,-0.9838635669312398,0.35213889918355024,-0.3312754097038364,nan
1740793665.041362,1.6135611360313185,-1.6423835423832542,-0.735135208553318,0.3035911937705479,nan
1740793665.045268,0.6245376166860179,-0.29365908532900553,-1.7410750977740346,0.7591405877180063,nan
1740793665.049174,-0.8037553016004199,1.552733252691608,-1.4291581845929533,0.4804221922641524,nan
1740793665.05308,-1.0751029816607107,1.7074848769069018,0.2902439035076528,-0.22688642554433422,nan
1740793665.0569859,0.05119725733704828,-0.18173967585688713,1.9849477672581664,-0.5967624244043284,nan
1740793665.0608919,1.207993419032487,-2.167219155865621,2.022638798814253,-0.265732171821172,nan
1740793665.0647979,1.0407938173526918,-2.125338895262644,0.28008154949164105,0.3457043581596188,nan
1740793665.068704,-0.2642854118880804,-0.052332856446609906,-1.6272268777620615,0.4887161371064346,nan
1740793665.07261,-1.3347762846210363,2.0045055837376022,-1.9178746914149853,-0.12797442741338402,nan
1740793665.076516,-1.2908304465949665,2.1775518593704675,-0.39290268438218207,-1.0038257998893598,nan
1740793665.0804248,-0.611709424511307,0.617035923793499,1.4393378605919365,-1.2713969772695413,nan
1740793665.0843308,-0.19587439488739591,-0.9675455881239887,1.9015458188054175,-0.48744102228561514,nan
1740793665.0882368,-0.00035561059674985723,-1.2821567886683924,0.6953106182580048,0.9141254565399155,nan
1740793665.0921426,0.8086958303220753,-0.6191432238505413,-1.0234217668458487,1.9165604259894502,nan
1740793665.0960486,2.306908398138615,-0.10403346206121648,-1.8703067879087976,1.7330978021047585,nan
1740793665.0999546,3.0156046266861236,-0.18720804194434623,-1.3829886813136576,0.45018851704207535,nan
1740793665.1038606,1.3047825307279117,-0.23367218806410642,-0.11926407583817793,-1.0583338616174425,nan
1740793665.1077666,-2.3563891983453216,0.4382154415772556,1.03174322639504,-1.8555477661445041,nan
1740793665.1116726,-5.106406502145634,1.4592661935256328,1.4733679393017975,-1.625606331160216,nan
1740793665.1155787,-4.220141792410847,1.6297744617361538,1.0742538864937277,-0.7188651237064236,nan
1740793665.1194844,-0.013667991930414656,0.25267949432202735,0.11730081059322434,0.3425284995744473,nan
1740793665.1233904,4.105539256941236,-1.8903678932443588,-0.7834874601013746,1.2480039925554405,nan
1740793665.1272993,4.775123589415003,-3.0160766648098325,-0.9638417400392019,1.7773828092487873,nan
1740793665.1312053,1.8603026059589405,-1.8903574610326055,-0.2515367395929036,1.5474528984918374,nan
1740793665.1351113,-1.6000323998991182,0.9583212085617765,0.6988724909350921,0.26046271882920025,nan
1740793665.1390173,-2.5540245225481226,3.472443118738011,0.8468945613841976,-1.6245997354260135,nan
1740793665.142923,-0.8494177626416887,3.6264040409824836,-0.21039582888897543,-2.731343896928339,nan
1740793665.1468291,1.0218414997205965,1.099256301749315,-1.6467202794365927,-1.7856935827268374,nan
1740793665.1507351,0.8005768435372205,-2.3139247020627445,-2.0219607254232255,0.9097688839266237,nan
1740793665.1546412,-1.2227684863696724,-4.0159252822757425,-0.6433212840459238,3.223220736279134,nan
1740793665.1585472,-2.736005611314422,-2.713906967119976,1.6692943925568147,2.912209750426242,nan
1740793665.1624532,-1.916966703608007,0.4351681598293188,3.2132220818737967,-0.09109065546366785,nan
1740793665.166359,0.8057624071506043,2.7696453247849884,2.8157258319856666,-3.2411715353213957,nan
1740793665.170265,3.327231573927065,2.4748892232359494,0.6939606979458777,-3.5990676076449173,nan
1740793665.1741738,3.8334643080714015,0.21564563152638044,-1.8794910844241937,-0.7187222254417743,nan
1740793665.1780796,2.1222743845619743,-1.5780800774881565,-3.5436152612650593,2.761416021049772,nan
1740793665.1819856,-0.6373377558541167,-1.1604146316663086,-3.529111094588685,3.608513612950073,nan
1740793665.1858916,-2.961775059625928,0.7803332299450291,-1.793461023705555,1.1552524427197466,nan
1740793665.1897976,-3.8164703164801703,1.8985828287972586,1.0204381673952854,-2.0819944422569003,nan
1740793665.1937037,-2.840227612494441,0.7267383203822579,3.627891437500665,-2.96886699835804,nan
1740793665.1976097,-0.4329698452204486,-1.6956385312027327,4.497143070119095,-0.8676326419553796,nan
1740793665.2015154,2.2086694173031662,-2.8558283796877535,2.8005059160264496,1.8587147071418637,nan
1740793665.2054214,3.535750795780577,-1.401609488980178,-0.6994660011181344,2.3666962458252208,nan
1740793665.2093275,2.6804447930733226,1.4000323345488614,-3.845130009661386,0.2136912156641508,nan
1740793665.2132335,0.2930690213955545,2.905934327297485,-4.552327616300177,-2.2961164865605155,nan
1740793665.2171395,-1.8084934046712344,1.7306211152842736,-2.419615474507926,-2.5097848032062573,nan
1740793665.221048,-2.121759384820025,-0.923826203619571,0.9714754481109357,-0.06565932046448218,nan
1740793665.2249541,-0.7574736904045851,-2.4972878835934362,3.341675673840999,2.7834647127073096,nan
1740793665.22886,0.7435741586741301,-1.5223580869355167,3.400159719287156,3.3293534009056063,nan
1740793665.232766,0.9303281206151295,1.086103139972028,1.5210743143041905,0.907024934073005,nan
1740793665.236672,-0.20389582520211771,2.95105900953395,-0.8828563503401572,-2.5216717784503593,nan
1740793665.240578,-1.3387966569432852,2.3225038722965023,-2.444268101887461,-4.079115107252539,nan
1740793665.244484,-1.2010017606892902,-0.514229773559571,-2.494987952711723,-2.3961165335216457,nan
1740793665.24839,0.2286126419835202,-3.4960754183598266,-1.1572478536922906,1.2686499313983515,nan
1740793665.2522957,1.7812901703431736,-4.312286031645197,0.799533243716739,4.046861831127871,nan
1740793665.2562017,2.1986638247397026,-2.068766154618595,2.2391734841808755,3.7474775413868877,nan
1740793665.2601078,1.1326521125274154,1.9766816275342862,2.233956024784547,0.5945622696910919,nan
1740793665.2640138,-0.7310431915866352,5.1182466121645245,0.7635060154966402,-2.961487808427581,nan
1740793665.2679222,-2.255069844238066,5.0316981588332785,-1.1180690375750495,-4.217962205515527,nan
1740793665.2718282,-2.5195260097276817,1.5559273876627329,-2.0533326402141965,-2.366746945180305,nan
1740793665.2757342,-1.2494542230770962,-2.9962303760635964,-1.5262269093584142,0.9781434312307726,nan
1740793665.2796402,0.9819403460811268,-5.47362422201413,-0.2487886265185001,3.2684470531159713,nan
1740793665.2835462,2.8582614450604678,-4.287925256157731,0.6469519826066372,3.1247857807789554,nan
1740793665.2874522,2.984367934049043,-0.5665549889867111,0.746320919096839,1.1723265641594025,nan
1740793665.291358,0.9708367825700502,2.9288902915551107,0.5720588174723026,-0.9343493855517975,nan
1740793665.295264,-1.926377198347917,4.065245721463961,0.7122653697254425,-2.062457028250031,nan
1740793665.29917,-3.5114909399903946,2.7280944054864413,0.9747255076096945,-2.154076572808807,nan
1740793665.303076,-2.454035927029686,0.3396658624098886,0.6334489959971118,-1.5736100510214166,nan
1740793665.306982,0.3815602410886957,-1.6081486066545427,-0.531214836527191,-0.43163095137244145,nan
1740793665.310888,2.5559261028182694,-2.449082256203125,-1.7175346640256959,1.1716929496217379,nan
1740793665.3147964,2.285295230535607,-2.170250710529424,-1.8343469935215126,2.508669075631693,nan
1740793665.3187022,0.16019990465491465,-0.9624528785045665,-0.6869999267469369,2.4350832959817947,nan
1740793665.3226082,-1.4714482047599158,0.7536269159226879,0.7647330661865528,0.6076876723668347,nan
1740793665.3265142,-0.9395787214981209,2.1212503800959275,1.3900026907125063,-1.7011648473388628,nan
1740793665.3304203,1.000458640426991,2.2117495367326856,0.9850740559218819,-2.505216703669222,nan
1740793665.3343263,1.995343074687746,0.8832521099478257,0.2783072574377063,-1.092061369731215,nan
1740793665.3382323,0.6582217366834346,-0.8784171619905247,-0.033054201928678174,1.0666601648677967,nan
1740793665.3421383,-1.8836001587542852,-1.7681417126362173,0.005193374655980681,1.7180800145436197,nan
1740793665.346044,-3.1476360705367057,-1.371996319399756,-0.0794329264683714,0.20572544139156462,nan
1740793665.34995,-1.9018574457887822,-0.42499668136157814,-0.40516466358186287,-1.7771414760858493,nan
1740793665.353856,0.6213871756159538,0.1672668584258588,-0.5749702434349648,-1.9777244772049003,nan
1740793665.357762,2.1657758466587747,0.3324995306620123,-0.308589680687129,-0.005402956925634089,nan
1740793665.3616712,1.845595718727809,0.6386458388134478,0.06317337200668424,2.263873349271997,nan
1740793665.3655772,0.8032632803611779,1.2306915991768772,-0.001144125618454868,2.6990262051520792,nan
1740793665.3694832,0.5266579950851106,1.3821461231346137,-0.441136233170132,1.0723939668335585,nan
1740793665.3733892,0.9480425395026687,0.3800761331337252,-0.5130541330912205,-0.9457748192625727,nan
1740793665.3772953,0.6324405612886425,-1.319209818683769,0.288618394387799,-1.7311122134479422,nan
1740793665.381201,-1.1910522259777738,-2.239208274408657,1.3999272164733558,-1.2601662092652572,nan
1740793665.385107,-3.2695385211457517,-1.3913966073561652,1.6108308756279985,-0.652100015084389,nan
1740793665.389013,-3.425001304188129,0.5415372494492793,0.43490204827379514,-0.5562761158084533,nan
1740793665.392919,-0.990924756282237,1.796507591297719,-1.1589684290481197,-0.47103080147067844,nan
1740793665.396825,2.2068437100833744,1.324660316458851,-1.6574201183235442,0.2967306799271891,nan
1740793665.400731,3.553000120863711,-0.18587207665506497,-0.6581597085705266,1.438547414001796,nan
1740793665.4046369,2.2295574491919994,-1.1451480184288259,0.6235737710885413,1.841791475595345,nan
1740793665.408546,-0.11330562590431734,-0.7380489969774086,0.6874544620194001,0.9504506865091412,nan
1740793665.412452,-1.2428586799708148,0.40466724109385466,-0.5117887701262209,-0.45528628248965314,nan
1740793665.416358,-0.6196821789327634,1.0865817055223908,-1.4230822255515052,-1.0880113487812353,nan
1740793665.420264,0.3762337620799836,0.7835958690630083,-0.6257289968636999,-0.6042090911950926,nan
1740793665.42417,0.27491009672186306,-0.09528723166055743,1.4498133889568265,0.08465001489866687,nan
1740793665.428076,-0.8328601467821265,-0.8889759540568198,2.778015309573973,-0.007008936373491838,nan
1740793665.4319818,-1.6088984143100555,-1.2597428681785487,1.810364539731951,-0.7348976543896067,nan
1740793665.4358878,-1.137717064401156,-1.1083053417106568,-0.8193072038838344,-1.0546799804959723,nan
1740793665.4397938,0.09638491646426167,-0.3409872831155968,-2.805126427193721,-0.35676766429733975,nan
1740793665.4436998,0.9271892933938254,0.9145434239183513,-2.4067120309722396,0.7559510510723866,nan
1740793665.4476058,0.8625729539568592,1.9696135380002127,-0.1200773901304278,1.1830207250738998,nan
1740793665.4515119,0.44544984258308296,1.896216607326872,1.8792955982221116,0.6323216974729327,nan
1740793665.4554207,0.3793853247277563,0.4708950281266497,1.8668040164525224,-0.07243350918532657,nan
1740793665.4593267,0.6539679480894363,-1.341446820579711,0.10375447089919942,-0.025533304765852197,nan
1740793665.4632328,0.7026927309776632,-2.152219367883668,-1.6200533211447798,0.6522899777229556,nan
1740793665.4671385,0.2163570271986711,-1.4781984792254745,-1.7660336832533605,0.9421628812287711,nan
1740793665.4710445,-0.5001307135465399,-0.14464929770094867,-0.32476138122575504,0.11426440726922518,nan
1740793665.4749506,-0.9821135185673416,0.7109800120414517,1.4555053614959157,-1.3999841792557768,nan
1740793665.4788566,-1.1321887308402558,0.8336741770874694,2.30371862852324,-2.383709118805308,nan
1740793665.4827626,-1.111948210097366,0.8239275572137537,1.8134607753914918,-1.9723358607584465,nan
1740793665.4866686,-0.8827906663712496,1.0404184552223192,0.38090262572073846,-0.3573518448355568,nan
1740793665.4905746,-0.18554973567115488,0.9658992316681778,-1.3239816077145907,1.489532437040837,nan
1740793665.4944804,0.9365018486516676,-0.04432259360312194,-2.6448390598481963,2.577942848053681,nan
1740793665.4983864,1.8506149539607561,-1.586744497870947,-2.9352840616292455,2.4168913335207143,nan
1740793665.5022953,1.8474817916299884,-2.2688039127000446,-1.7374347046695335,1.115230335899963,nan
1740793665.5062013,0.9232895355156935,-1.183815927144633,0.7068618066626104,-0.6939922239222495,nan
1740793665.5101073,-0.1774361906611121,0.8924651991313466,3.1711167233820325,-2.0455645466214647,nan
1740793665.5140133,-0.7835606604724004,2.130261049279491,4.0226500584211315,-2.1256489871688946,nan
1740793665.517919,-0.9679283472110117,1.5225476806789828,2.465627007108651,-0.9174562631404153,nan
1740793665.521825,-1.2040227110430433,-0.10497368870369395,-0.6247418757038147,0.6129244080833904,nan
1740793665.525731,-1.4857879872770166,-1.0942348525705687,-3.1963579800893123,1.2292805008806567,nan
1740793665.529637,-1.1674143390726697,-0.7647199984818956,-3.575378742243396,0.5423657688967141,nan
1740793665.533543,0.12580412593013762,0.05340936275158144,-1.7559925015680196,-0.5928397644415848,nan
1740793665.5374491,1.669698675600256,0.2407092594833581,0.7149100525128254,-0.9231143486470239,nan
1740793665.541355,2.1415805788856668,-0.24510924064847112,2.103365354969561,-0.07820725781090833,nan
1740793665.545261,1.0719225134358235,-0.498193096915699,1.8267665759333598,1.0719676133079743,nan
1740793665.5491698,-0.4807349604459585,0.02386349034120014,0.6288613065542996,1.3779566394740417,nan
1740793665.5530756,-1.0048211207050783,0.7553580790302941,-0.3553879796197796,0.6264659882415582,nan
1740793665.5569816,-0.225605459550834,0.767562062853555,-0.6016307475326699,-0.3293183780971477,nan
1740793665.5608876,0.6005036368118573,-0.015150389381302275,-0.37037330718663164,-0.617345336643567,nan
1740793665.5647936,0.21860112560017353,-0.7089302938812575,-0.13956589648654233,-0.32221360375192337,nan
1740793665.5686996,-1.0565397963403993,-0.5823746195910976,-0.07436434678153944,-0.2570242994666935,nan
1740793665.5726056,-1.6556221564125329,0.06530545369361926,-0.05389522950046446,-0.8354653561599394,nan
1740793665.5765114,-0.6396353103058713,0.3665801260843257,-0.015873690097032635,-1.4212562290281452,nan
1740793665.5804174,1.0911032826148375,0.04102179354681415,-0.0634429545998918,-0.9889897231182654,nan
1740793665.5843234,1.7533996085344579,-0.27866238861764375,-0.21300794900236217,0.6057211404050291,nan
1740793665.5882294,0.7073657082841536,0.03946352667476818,-0.21585828590341966,2.2104628726096216,nan
1740793665.5921354,-0.8363305692041976,0.6933139802771869,0.18333235407431384,2.3849065078866873,nan
1740793665.596044,-1.2372487732693067,0.7501326035081897,0.80410984988038,0.8438930336229958,nan
1740793665.59995,-0.25095772312439196,-0.15557600579050748,1.015258380142987,-1.1677587239743374,nan
1740793665.6038558,0.8737929177361801,-1.2427790457060417,0.3336905686691321,-1.9909542599787642,nan
1740793665.6077619,0.9984006123996186,-1.385922249022525,-0.9403345623126247,-1.073998338193486,nan
1740793665.6116679,0.341411549151378,-0.3541005150885855,-1.8064403642941296,0.5625101060766938,nan
1740793665.615574,-0.09906929459552227,0.9667442513186317,-1.4157625622288987,1.3151228600605225,nan
1740793665.61948,-0.028511498368681505,1.5471478420542455,0.10567420945010052,0.46601100580502214,nan
1740793665.623386,-0.20049482093707013,1.1635591811380286,1.6913757871439254,-1.206529738553649,nan
1740793665.627292,-1.1444607979621613,0.3075012458244877,2.209054822177089,-2.1450297723863727,nan
1740793665.6311977,-2.030537612840955,-0.5575358750911903,1.3430562374145538,-1.3538856708481875,nan
1740793665.6351037,-1.394082433461297,-1.2946614763843445,-0.27788971639085003,0.7758468687410898,nan
1740793665.6390097,0.9368636969959077,-1.6944935148923541,-1.66846698308977,2.764429696071247,nan
1740793665.6429183,3.122868230100811,-1.2492607427676614,-2.139439680539063,3.1536053549311918,nan
1740793665.6468241,2.995353723866465,0.25727802989163884,-1.5324419702658403,1.5639090026520694,nan
1740793665.6507301,0.4425707397887813,2.0196556898865183,-0.1311613897942835,-1.0418425578003467,nan
1740793665.6546361,-2.256520200736041,2.5552743327459857,1.440074719230749,-3.027620198874421,nan
1740793665.6585422,-2.700472633759369,1.140742142930218,2.3336406601930526,-3.1906032395411796,nan
1740793665.6624482,-0.8048826208615294,-1.1915256868548196,1.866646791474358,-1.5383351342443705,nan
1740793665.6663542,1.2617141140068313,-2.442621684861281,0.12291677002634506,0.7827567788367473,nan
1740793665.6702602,1.4984081458835399,-1.602716469547092,-1.8144809476212915,2.323420939255114,nan
1740793665.674166,0.09103819181217966,0.3212092019481601,-2.510869426014906,2.305612698777709,nan
1740793665.678072,-1.1267535144809322,1.3990133163250733,-1.3690104606258842,1.0352595023703237,nan
1740793665.681978,-0.917009849759212,0.8194598422322318,0.7328794297199692,-0.4813429506575453,nan
1740793665.685884,0.11211408643087371,-0.38014551891941895,2.1141457897249194,-1.329387147815669,nan
1740793665.6897924,0.5586885162517985,-0.6530857737426379,1.7660330236517607,-1.238384455189686,nan
1740793665.6936984,0.08356326930364484,0.253358764360255,0.21907247631730625,-0.5488163246776876,nan
1740793665.6976044,-0.26507161616977903,1.101843775171939,-1.0690669529069108,0.21425941688835198,nan
1740793665.7015102,0.4254591763551738,0.7164936474976935,-1.1709899220824311,0.7041170866333474,nan
1740793665.7054162,1.560765372548249,-0.6001127041464296,-0.4779578856756728,0.8067279301997539,nan
1740793665.7093222,1.6081607878775095,-1.4306426594093657,-0.0422577511664134,0.527063605430097,nan
1740793665.7132282,-0.022582098800303,-0.8995071421368714,-0.2778798027606604,-0.03747788782414487,nan
1740793665.7171342,-2.0665476491034327,0.34482997241503255,-0.5110077491085983,-0.6230959814619491,nan
1740793665.7210402,-2.631752208508777,0.9296912372920675,0.11110890519374024,-0.8521625687898063,nan
1740793665.7249463,-1.2179609866099055,0.3505114773998917,1.4129357831631701,-0.5227259664480772,nan
1740793665.728852,0.7609852420704756,-0.49993987557554104,2.1349526933518392,0.11927264611534631,nan
1740793665.732758,1.5185753319360877,-0.42989509002034426,1.2177745069039239,0.5077792088465628,nan
1740793665.7366672,0.7422553657967365,0.6276588105743995,-0.9235253408776961,0.2926010825057937,nan
1740793665.7405732,-0.26995284049067925,1.4815576930549885,-2.5797895353755567,-0.2309587740605436,nan
1740793665.7444792,-0.19707963768897244,0.9676117602939417,-2.3226143732302784,-0.33932333264226816,nan
1740793665.7483852,0.8584337067721067,-0.7586805293744652,-0.40686640667023816,0.350440760266135,nan
1740793665.7522912,1.6084273472453483,-2.2756520999911674,1.448009940469491,1.3272187546922571,nan
1740793665.7561972,1.0652789889069165,-2.2044488133007754,1.7067398493483477,1.526348468748906,nan
1740793665.7601032,-0.45004973919889235,-0.46474147755074147,0.4547629901709117,0.3587768558166876,nan
1740793665.764009,-1.7666996332664051,1.662448806206644,-0.7885326617503224,-1.5659886857477998,nan
1740793665.767915,-2.072059224084935,2.619049277934914,-0.648519911523604,-2.816627432463227,nan
1740793665.771821,-1.4877367187232982,1.7948815204467063,0.7266232040820737,-2.3420829871459707,nan
1740793665.775727,-0.58879623051328,-0.08329685618096555,1.8268942785808207,-0.3816593936998301,nan
1740793665.779633,0.31038400277762396,-1.6006275139565698,1.281126767310969,1.7558015502824798,nan
1740793665.7835422,1.21614519586708,-1.7610244989404304,-0.7697936594303321,2.7760224164422502,nan
1740793665.787448,1.9816563504125195,-0.7029365077758093,-2.7155136064550267,2.309097117321305,nan
1740793665.791354,2.1216409678866444,0.5003950814233095,-2.871701537810434,0.9232817924409114,nan
1740793665.79526,1.2832448860084487,0.7931366445711823,-0.9566333484536136,-0.5303411490030522,nan
1740793665.799166,-0.2056699427889442,0.06533582039268887,1.6385232141916604,-1.4940609641933467,nan
1740793665.803072,-1.474016416421574,-0.763512150910214,2.987474880249424,-1.7963536014820514,nan
1740793665.806978,-1.8708663475264644,-0.6385485275334463,2.1894923904311607,-1.4826626052983052,nan
1740793665.8108838,-1.5031195201495897,0.5476972855458891,0.05395669704713611,-0.7390278643317532,nan
1740793665.8147898,-0.9399839509649182,1.7448706216555823,-1.6349947897850867,0.10228753824879366,nan
1740793665.8186958,-0.4756168868756452,1.6961298732566206,-1.6367297835755148,0.7056920156444145,nan
1740793665.8226018,0.12837374693152023,0.18456077679815922,-0.2640380686447084,0.986534678456171,nan
1740793665.8265078,1.1038124497737625,-1.659739231668507,0.9863990497246974,1.1278597333998739,nan
1740793665.8304167,2.0466161463397308,-2.347243462860853,0.8610518424395595,1.227842407118248,nan
1740793665.8343227,2.088696853639576,-1.3791892561139976,-0.46019743915807676,1.0019972553371652,nan
1740793665.8382287,0.8274765901853465,0.34584253161558104,-1.5447563890683407,0.057230616092981676,nan
1740793665.8421347,-1.0147408297515865,1.432433573337033,-1.1361681066966705,-1.4265142916898448,nan
1740793665.8460407,-2.0655393644856854,1.267571024960923,0.5326092144137318,-2.457504183160436,nan
1740793665.8499465,-1.5597282560192014,0.43058369915697603,1.8828888878111503,-1.9862710334962064,nan
1740793665.8538525,-0.0992802355888199,-0.0757203252185803,1.5372278619001267,-0.051365144176855164,nan
1740793665.8577585,0.9216189145629592,0.10341330122379483,-0.2404874625970487,1.9628492568665254,nan
1740793665.8616645,0.6748822132752431,0.40283035067953754,-1.717216842458067,2.461589328527362,nan
1740793665.8655705,-0.34680282524600836,0.07422525992615792,-1.3938700576010763,1.1413647192450347,nan
1740793665.8694766,-0.9283585739099126,-0.8985393976919701,0.44894853452742056,-0.7144981696978233,nan
1740793665.8733826,-0.41065313602733466,-1.674964023991868,1.971151153245541,-1.5163848962678308,nan
1740793665.8772914,0.6946383870483116,-1.3572766101029297,1.5915442418162258,-0.8955861806020107,nan
1740793665.8811972,1.32458959941207,0.08293307151630398,-0.42572479037693517,0.12303985092617,nan
1740793665.8851032,0.9670026241374912,1.664462717578427,-2.230796942449603,0.39783644799497025,nan
1740793665.8890092,0.06622123414630705,2.194258288535235,-2.2091136794651907,-0.09451385167940121,nan
1740793665.8929152,-0.5843993859085614,1.2757342004184287,-0.4926777643050211,-0.4197027644734158,nan
1740793665.8968213,-0.6715616565266865,-0.37599751198844866,1.3201714771891304,0.06346352265055517,nan
1740793665.9007273,-0.4997437302580157,-1.563030306625635,1.816113168885465,0.8942735721452737,nan
1740793665.9046333,-0.427324030857917,-1.5820493112345375,1.0156148755501315,1.0700604651290333,nan
1740793665.908539,-0.39251360284518416,-0.6901713055237519,0.032923074683498095,0.2512129013941403,nan
1740793665.912445,-0.10290523634158255,0.2771085925817891,-0.26911269994103887,-0.8312593524107421,nan
1740793665.916351,0.4296210381589803,0.689207703114869,-0.07540671794549703,-1.2013249841643387,nan
1740793665.920257,0.7633311844837299,0.5578647172123747,-0.11226053698493027,-0.6765383178901327,nan
1740793665.9241657,0.5225786439557502,0.3064706544894182,-0.61264598836258,0.06875844254656438,nan
1740793665.9280717,-0.09406603866852734,0.22736179841374743,-1.0237149347305463,0.3742232496856347,nan
1740793665.9319777,-0.46359697944406403,0.2254247688224903,-0.7322318582651075,0.28368558960023993,nan
1740793665.9358838,-0.2236591865388524,0.05423647558325116,0.13756427660782455,0.2828557220714079,nan
1740793665.9397898,0.3057199264044153,-0.3038238673381612,0.8225581142511293,0.5417515037008179,nan
1740793665.9436958,0.479688590958208,-0.5742360873392595,0.7709301089225618,0.6746579899131615,nan
1740793665.9476016,0.06340757024479085,-0.4957960459020261,0.22222565853265658,0.28866787674616684,nan
1740793665.9515076,-0.5080875029711263,-0.11830149346144547,-0.1359554108426544,-0.4335866773688179,nan
1740793665.9554136,-0.636667514374798,0.2487872346943116,0.019138369620693825,-0.8829375040453218,nan
1740793665.9593196,-0.22899260059524273,0.3574536602008338,0.32748532828621746,-0.712503863295267,nan
1740793665.9632256,0.24418441879620947,0.23866598326920505,0.24793298468806418,-0.20133574385184466,nan
1740793665.9671316,0.3243387877802821,0.09907550936465799,-0.2657362516674666,0.13036980946990048,nan
1740793665.97104,0.06625174050803252,0.06203638096794,-0.7120313501502409,0.13257703528607312,nan
1740793665.974946,-0.10719076975079574,0.06413523467646354,-0.6305049101149278,0.10310080015325745,nan
1740793665.978852,0.03778335987995598,-0.009638897799057782,-0.11251561686779325,0.2965365840517612,nan
1740793665.982758,0.28156363473766,-0.1560187589839656,0.33579895914420943,0.5470673326120788,nan
1740793665.986664,0.2742571788487046,-0.25593180654829933,0.3634229614083391,0.4915623228950095,nan
1740793665.99057,-0.001069922955849788,-0.21715581365788583,0.10239085334888355,0.07230922621879608,nan
1740793665.994476,-0.21797036450223178,-0.06801835520150483,-0.06761437051975956,-0.3530389469647348,nan
1740793665.9983819,-0.14163362676142205,0.08964868581702874,0.028761224718380426,-0.4329783718661978,nan
1740793666.0022879,0.06420231235572237,0.17778488391999772,0.22370287578588144,-0.2225288653156601,nan
1740793666.0061939,0.05537389749722596,0.17466430612020334,0.2691051705529313,-0.060072591315600464,nan
1740793666.0101,-0.2296626027410627,0.09205214944617528,0.12406431420448577,-0.11313813526852366,nan
1740793666.014006,-0.4565561319409007,-0.02848286819615741,-0.06040869480966925,-0.19749970379149975,nan
1740793666.0179143,-0.2881949791803196,-0.10428148342091653,-0.16712826226678965,-0.08017311311395448,nan
1740793666.0218203,0.19264573271885663,-0.05908339213605725,-0.22693055591716596,0.17329781955451032,nan
1740793666.0257263,0.5481937726836432,0.07845225493184668,-0.3036404557478499,0.2858111876654697,nan
1740793666.0296323,0.4634527280716075,0.15704421686647024,-0.3484454407299189,0.16153452625725456,nan
1740793666.0335383,0.07478274279932719,0.04664735943209297,-0.2376258514117282,0.031012521927393767,nan
1740793666.037444,-0.21423126599084202,-0.18874273674715225,0.057458740989834924,0.12890184635473997,nan
1740793666.0413501,-0.18148595533032344,-0.31584214118785775,0.39288639002819203,0.3329080673565727,nan
1740793666.0452561,0.02318403806796548,-0.17626259081956624,0.5642313948108413,0.2775964494280263,nan
1740793666.0491621,0.11419742615808443,0.1154854914547234,0.472910629090452,-0.16078971592171304,nan
1740793666.0530682,-0.0010059214466691946,0.27592401674351597,0.17566233915573698,-0.6306397012383476,nan
1740793666.0569742,-0.17886309786398044,0.167086303661397,-0.18622114009304677,-0.6634646347372556,nan
1740793666.0608802,-0.25910557496626657,-0.045203776574985734,-0.46201317324742003,-0.21699071107876886,nan
1740793666.0647883,-0.22504110428603588,-0.09233642160919775,-0.5234335726276931,0.2641334060782804,nan
1740793666.0686944,-0.13485522183831625,0.06864421783206458,-0.3128833121474895,0.35659044226787656,nan
1740793666.0726004,0.008570715126598646,0.20203779770144242,0.07513746738388631,0.12194180815956869,nan
1740793666.0765064,0.22948728899125206,0.09020409052080676,0.39008442065525956,-0.027302113416684228,nan
1740793666.0804124,0.4457342691864723,-0.18323912680274088,0.3922668949030427,0.13158649410475287,nan
1740793666.0843184,0.4695024200952999,-0.3219841241236727,0.08017733985708834,0.36512470635922845,nan
1740793666.0882244,0.20541669055583853,-0.17655520319950802,-0.2694518915770529,0.30590060903490934,nan
1740793666.0921302,-0.19096251621296473,0.07155461504980404,-0.3416559355103672,-0.06490923305834544,nan
1740793666.0960362,-0.42744731224641624,0.13665143996062246,-0.08424333039383941,-0.38500356608136754,nan
1740793666.0999422,-0.3633431375321056,-0.012830227332970085,0.24690125895953774,-0.35355276189786683,nan
1740793666.1038482,-0.1383346532994751,-0.11646217029417859,0.35178233994317454,-0.08221290234338012,nan
1740793666.1077542,0.009516194130965145,0.040042820478555445,0.1767572383522061,0.072534644876087,nan
1740793666.1116633,0.010878054550741237,0.3305434291849139,-0.07092852582600578,-0.04049550856306391,nan
1740793666.1155694,-0.0026790103314520254,0.4132814413655346,-0.1706444498779344,-0.20519423174628804,nan
1740793666.1194754,0.08480497903699401,0.1340091287899783,-0.10554862897773135,-0.14180458805870422,nan
1740793666.1233814,0.20511363983401465,-0.27983484179049634,-0.027776975493563994,0.1340832551013541,nan
1740793666.1272871,0.20171032041905043,-0.46739531217748054,-0.055051159643719,0.3448070735765855,nan
1740793666.1311932,0.051601263950704426,-0.3226555527975892,-0.14875029368002093,0.30161814680691934,nan
1740793666.1350992,-0.08793406029388365,-0.06528043974465883,-0.18479930777336603,0.11131459524449813,nan
1740793666.1390052,-0.07290704368975905,0.05943250680990431,-0.09557595218001182,-4.046516069718323e-05,nan
1740793666.1429112,0.04650104983960928,0.05873267097329849,0.08130726818015818,0.018707451897643324,nan
1740793666.1468172,0.09340522025002444,0.11594816752257035,0.2586070049189875,0.017705779633469546,nan
1740793666.150723,-0.009580280386483675,0.29131322484043537,0.35637399123680863,-0.111108351215871,nan
1740793666.154629,-0.14887853560713316,0.403381656971548,0.31385960745539015,-0.2734344165232124,nan
1740793666.158538,-0.17506966743588911,0.24525642771479078,0.10987883653492374,-0.3051910364942702,nan
1740793666.162444,-0.09312133335182046,-0.1407786093739285,-0.18309282217894882,-0.19565082750975343,nan
1740793666.1663501,-0.03679146652379625,-0.4724395179211301,-0.39370809681604574,-0.08369497478102547,nan
1740793666.1702561,-0.06828113001365162,-0.5043082593856124,-0.37048672915735487,-0.0394237024636432,nan
1740793666.174162,-0.07925095486690903,-0.24484802602108544,-0.13856537472758917,0.04682954367973813,nan
1740793666.178068,0.06363939665564074,0.10389915329873792,0.09455101571869895,0.28934130228705457,nan
1740793666.181974,0.31242971904222494,0.3535352648591115,0.13633449783229462,0.57426453477908,nan
1740793666.18588,0.4463523683810254,0.4268862250996189,0.013396988005693774,0.6106374252681401,nan
1740793666.189786,0.3042909819537195,0.3054388691490765,-0.058904051097662856,0.25116426898172495,nan
1740793666.193692,-0.03303018885144392,0.0008605227002144525,0.07092062015278791,-0.29871592409367664,nan
1740793666.197598,-0.32523400144974607,-0.3671468061221347,0.29756416238365746,-0.6552690297854046,nan
1740793666.2015038,-0.41174418924398754,-0.5446297439385119,0.3584425360148491,-0.6246024955508335,nan
1740793666.2054129,-0.32768561736014157,-0.3262013767933094,0.12683277338315577,-0.3447934795478914,nan
1740793666.2093189,-0.19358998422121165,0.18934928250393102,-0.2296580485590361,-0.0701630856962661,nan
1740793666.213225,-0.057524625508696865,0.5974797581121439,-0.4072296337115909,0.10451050928015682,nan
1740793666.2171307,0.10745920649313023,0.5358602369905666,-0.26970441882152146,0.2519151457700624,nan
1740793666.2210367,0.284482230479032,0.052435852259937236,0.025670707598088382,0.4026590034867308,nan
1740793666.2249427,0.37062818573982503,-0.42100826877853637,0.19717190557914818,0.44303147832379713,nan
1740793666.2288487,0.28681424413075507,-0.4921551950954994,0.10833314345368293,0.2670785706728988,nan
1740793666.2327547,0.08923375288652612,-0.18175471732968498,-0.1274016038031133,-0.03755251466009561,nan
1740793666.2366607,-0.08006057560121754,0.1475560250090004,-0.27139013674945633,-0.24477520331528443,nan
1740793666.2405667,-0.14756809744308466,0.2012308010082988,-0.16374846891133674,-0.2341633302972517,nan
1740793666.2444725,-0.16600839707238194,0.032824800642593695,0.16203928111603988,-0.11178101396498204,nan
1740793666.2483785,-0.2040683576580339,-0.08718562786432238,0.501874932387621,-0.055277878862066095,nan
1740793666.2522874,-0.2276250236493911,-0.009186048424852704,0.6013699649551983,-0.0940487883833635,nan
1740793666.2561934,-0.1442722064651559,0.155568302244444,0.32007934439565455,-0.11144523375171876,nan
1740793666.2600994,0.04571574171174701,0.21129037680488158,-0.23642136644169817,-0.04455789145836185,nan
1740793666.2640054,0.20717679246062137,0.10957622165173571,-0.7310827256113369,0.015063812752626278,nan
1740793666.2679114,0.2143469636008754,-0.03831853548706727,-0.8120286649318534,-0.027572237988943395,nan
1740793666.2718174,0.10217072879878626,-0.129973318990889,-0.39902311831484266,-0.08428022661958977,nan
1740793666.2757232,0.019777281832825917,-0.17189061234964123,0.22248288792287982,0.04158660549795531,nan
1740793666.2796292,0.03775481634588741,-0.20224597881873588,0.626454960627285,0.368476032361841,nan
1740793666.2835352,0.06305530063069134,-0.18764608712592754,0.5995269577084771,0.6128341469914989,nan
1740793666.2874413,-0.018418923862524205,-0.0637345790073033,0.2802016344259699,0.44882319355535766,nan
1740793666.2913473,-0.15914910133464022,0.1384449217280423,-0.037654673390686476,-0.10727270108124426,nan
1740793666.2952533,-0.1854550047164151,0.2781940281962081,-0.19716856596388094,-0.6477315877563725,nan
1740793666.299162,-0.0280412955308422,0.25122243523748283,-0.24735521184099915,-0.7556333063623781,nan
1740793666.303068,0.15138869922408396,0.11236137037397638,-0.26570096366957635,-0.4082429835722743,nan
1740793666.306974,0.12996879289180718,0.004668916404972347,-0.2121926591878888,0.04071320946463026,nan
1740793666.3108797,-0.09657632247122136,-0.02143469858667344,-0.018476298921135496,0.2552846629011593,nan
1740793666.3147857,-0.2783371054351006,-0.05994149534073831,0.22929698680434235,0.22639076182266196,nan
1740793666.3186917,-0.19036832450950997,-0.19509248802180532,0.30773898548290524,0.17619476339169388,nan
1740793666.3225977,0.09996042348097074,-0.3416366980435116,0.10701244698036734,0.23510839797463262,nan
1740793666.3265038,0.30770058692023444,-0.3054396566330976,-0.1928645880683141,0.3032332994826356,nan
1740793666.3304098,0.26200444608078444,-0.01634470515424141,-0.28231604573725133,0.22659295468548207,nan
1740793666.3343155,0.08751144056184484,0.3453089977136592,-0.06786371308930483,0.01670488388785743,nan
1740793666.3382215,0.013366790364715499,0.4968502664474408,0.2100325885249613,-0.17302720692068757,nan
1740793666.3421276,0.05971548497935484,0.32318673125297026,0.24889022881899833,-0.25127107548123057,nan
1740793666.3460362,0.01455095061745422,-0.0245321381330493,0.030542638613141306,-0.278897084494925,nan
1740793666.3499422,-0.2530509841449428,-0.2913457869823685,-0.17572947960996846,-0.330405942573148,nan
1740793666.3538482,-0.5435027975845566,-0.3439422641819579,-0.15069229231691222,-0.3379728119674128,nan
1740793666.3577542,-0.49461129749118676,-0.22835986709429554,0.022150271660252845,-0.15655524139085905,nan
1740793666.36166,-0.010858637353427248,-0.055580233711864005,0.09932582963136673,0.2164355137343729,nan
1740793666.365566,0.5551288576078535,0.10694550057318536,0.013580194782849804,0.5586381435794273,nan
1740793666.369472,0.7218037592117131,0.22714816682363498,-0.04926047810297259,0.6112984884911629,nan
1740793666.373378,0.3688634977020863,0.25714341020301534,0.0607491298521429,0.33388117998386146,nan
1740793666.377284,-0.14730184137316352,0.15441386475706884,0.19822202432864022,-0.06499506170920051,nan
1740793666.38119,-0.38046834288972037,-0.044410446300424816,0.07790988685016816,-0.33966219699277983,nan
1740793666.3850958,-0.24505598770644837,-0.2175359764335102,-0.3119892472416737,-0.4069654546894664,nan
1740793666.3890018,-0.03677890054919257,-0.25742622536552834,-0.5812704620866341,-0.33325595443666,nan
1740793666.3929105,-0.03804268218565117,-0.16507657691098146,-0.3324456604801026,-0.19128933776508536,nan
1740793666.3968165,-0.189044971786751,-0.02628822036663505,0.34116295624594845,-0.0008616143093364459,nan
1740793666.4007223,-0.19682254551793496,0.09143233442808144,0.8634120595746488,0.19853943623747114,nan
1740793666.4046283,0.0743597289158405,0.18421083576462446,0.7392604015032421,0.3001248632920859,nan
1740793666.4085343,0.40611777136164706,0.25171870764415816,0.06496931428301896,0.22035904408066076,nan
1740793666.4124403,0.45238792437522857,0.23757706885040128,-0.5824258678790988,0.020043444087181853,nan
1740793666.4163463,0.12414803958779562,0.07943194746966052,-0.7363242638918185,-0.1273618707677302,nan
1740793666.4202523,-0.3013472496069187,-0.1798839708274394,-0.4439857244506567,-0.11355345583539922,nan
1740793666.4241583,-0.457352901765545,-0.3748237428179715,-0.08091628941246824,-0.008780048112489634,nan
1740793666.428064,-0.2414149988557903,-0.34993853369381245,0.11864361787364312,0.03433532484588271,nan
1740793666.4319701,0.11587894370180765,-0.1125656766229951,0.23173622824931137,-0.02995643222182321,nan
1740793666.4358761,0.3011595598326242,0.16428195867208753,0.3822467481243705,-0.09310753401630953,nan
1740793666.4397845,0.20468871799583602,0.2960228642328089,0.47095103841579233,-0.04027986519253841,nan
1740793666.4436905,-0.025679410448326532,0.23644506424447884,0.2914292284616029,0.09876865894867001,nan
1740793666.4475965,-0.1632138444968643,0.0824104634206016,-0.1312668113234867,0.18329261718980058,nan
1740793666.4515026,-0.10714658991660737,-0.041249818934261794,-0.46604512337413595,0.1265233555598584,nan
1740793666.4554086,0.06050002161646113,-0.08255362363297407,-0.4159282083345671,-0.018760157799369348,nan
1740793666.4593143,0.17094127303213563,-0.06793509960396513,-0.06819499556375257,-0.14394019423114743,nan
