timestamps,TP9,AF7,AF8,TP10,Right AUX
1740792666.8914876,0.13215589420026114,-0.23854947577057833,0.6466284286264052,0.2178190358920019,nan
1740792666.8953936,0.15221401037945648,0.23383844518824837,0.8834863407046586,0.2483752996826799,nan
1740792666.8992994,0.10896613772079682,0.5709066942458488,0.38856259220974965,0.1375048566490727,nan
1740792666.9032052,-0.038045764435367765,0.5703320279948597,-0.2513957210944976,0.022418215001851396,nan
1740792666.907111,-0.182160556076454,0.29741334934480074,-0.4716924251191101,-0.03740495158569707,nan
1740792666.9110167,-0.1706461523549511,-0.014679278108982839,-0.26109579980931585,-0.09952981571913032,nan
1740792666.9149225,-0.002406376898122886,-0.2010965825867879,-0.005184519870697788,-0.20991710360039656,nan
1740792666.9188285,0.14906361308997754,-0.27392292831172993,0.04731776977488767,-0.2933134840313294,nan
1740792666.9227343,0.13210175512341374,-0.3104564515363458,0.011955389880392828,-0.21998691233337958,nan
1740792666.92664,-0.011398461107207786,-0.30224979183236067,0.08974220878829287,0.02618578366216043,nan
1740792666.9305458,-0.1089423234690458,-0.17643529191880167,0.23540770177688372,0.29098483234960987,nan
1740792666.9344516,-0.0640330402250219,0.05021990297255841,0.22539778442013325,0.38648355294965164,nan
1740792666.9383612,0.051225251064520264,0.2226854336286199,-0.004081186892421409,0.2688180613815201,nan
1740792666.942267,0.10667400789472448,0.21092118347155014,-0.2379683430263067,0.058262914591462996,nan
1740792666.946173,0.061057574087033877,0.08818378694309499,-0.25079006001024123,-0.10427986679741112,nan
1740792666.9500787,-0.029729582597721394,0.06444304141130187,-0.09332691127174744,-0.18309712188532962,nan
1740792666.9539845,-0.10598781920782274,0.21421296400363188,-0.004069632234106998,-0.22036676978588074,nan
1740792666.9578903,-0.14538747564460938,0.3348418150260442,-0.06625594067538108,-0.2259339264899764,nan
1740792666.961796,-0.1218043607127907,0.1570829591544432,-0.08505821639765983,-0.15056647151375802,nan
1740792666.9657018,0.0003225014531926346,-0.3015507188744013,0.12947090920861257,0.020536325632488975,nan
1740792666.9696078,0.18495361315830613,-0.6719767955260522,0.44255491278462283,0.19305558110669094,nan
1740792666.9735136,0.2852487003893579,-0.5874134477606964,0.4871248729907879,0.23249754553779542,nan
1740792666.9774194,0.16866569849900404,-0.08656064949403108,0.09812780830549239,0.11222200330981959,nan
1740792666.9813251,-0.10307520737026034,0.39829908605016257,-0.4391322689917736,-0.04187812893001167,nan
1740792666.9852345,-0.2857829135048604,0.4783991696648222,-0.6539869657871805,-0.07946761157941393,nan
1740792666.9891405,-0.2023254009010086,0.19426401538707008,-0.37791197946006333,0.013212292906808587,nan
1740792666.9930463,0.044514450227706455,-0.071386873772379,0.10267772028444393,0.10461531067812492,nan
1740792666.996952,0.1746167361805331,-0.03786606208593946,0.3788643630955535,0.06975486360245935,nan
1740792667.0008578,0.05549379161186237,0.18129279648614902,0.32529963635304626,-0.07340058571638322,nan
1740792667.0047636,-0.13911724867087466,0.24912583457005028,0.13312310609591016,-0.19187651173719233,nan
1740792667.0086694,-0.14330630436694913,0.012071702981098211,0.01073573160301447,-0.18324594234131283,nan
1740792667.0125751,0.06985247014458533,-0.3300346108104741,-0.03493442408048296,-0.06807900240441918,nan
1740792667.0164812,0.2528577430137235,-0.4589925636944391,-0.10269589191989645,0.057690547816424895,nan
1740792667.020387,0.19047450331693072,-0.28076094025848275,-0.18882908040894528,0.1283329062519646,nan
1740792667.0242927,-0.0392335263342591,0.00860537943333901,-0.17791008474659292,0.1443309026253051,nan
1740792667.0281985,-0.17811640330949485,0.1676490329602623,-0.02606215329616178,0.12383734929168763,nan
1740792667.0321078,-0.11951970550354653,0.1554883914670791,0.14642281384733133,0.062067361203074996,nan
1740792667.0360136,-0.020638895866488878,0.11563067418629601,0.19509760811276294,-0.04137400522465891,nan
1740792667.0399196,-0.053358798372035304,0.1633889226230906,0.1260961085513611,-0.13863564280611568,nan
1740792667.0438254,-0.140557271173325,0.2465447314210283,0.05629814463037624,-0.15518549450531235,nan
1740792667.0477312,-0.05480502756756915,0.22236390413703577,0.020545321813677044,-0.06761025866482284,nan
1740792667.051637,0.23182302047987538,0.03362697734154392,-0.08107858152758703,0.05778537082537351,nan
1740792667.0555427,0.4257799280722646,-0.22000147844481535,-0.2935606941467024,0.1227129522469038,nan
1740792667.0594485,0.2334878082953645,-0.3742354229376831,-0.4391712478086153,0.091326087497094,nan
1740792667.0633545,-0.24316009133127087,-0.3417029664330307,-0.25944879815569416,0.015478819238341233,nan
1740792667.0672603,-0.5522291308191674,-0.16771479032259895,0.24423504698312576,-0.032786367811664836,nan
1740792667.071166,-0.3732185665995987,0.027217004977221144,0.6973913508320515,-0.03809471548691988,nan
1740792667.0750718,0.1215723190594087,0.14811620974600306,0.6759199307058552,-0.04166755793586324,nan
1740792667.078981,0.45894072429758276,0.18571673199794256,0.15060532358347206,-0.07449728409929836,nan
1740792667.0828867,0.3797015290499204,0.19638383573109328,-0.45046727572864065,-0.10846171402767145,nan
1740792667.0867927,0.06672099925812264,0.22234821978526745,-0.6540006225412076,-0.08113164774360308,nan
1740792667.0906985,-0.14780507133375986,0.2258362089432149,-0.3856427063778657,0.03525446796463332,nan
1740792667.0946043,-0.1828448656537102,0.11608438695000876,0.020990427727979426,0.19175129914413272,nan
1740792667.09851,-0.20859405840120895,-0.13310326264804753,0.21417928854464496,0.28549816793656835,nan
1740792667.1024158,-0.29828958462367705,-0.39451347992009345,0.1520986919717464,0.22892116277842536,nan
1740792667.1063216,-0.2545425678866238,-0.45796856581835554,0.04150217051820585,0.018682889487412563,nan
1740792667.1102276,0.11072195499124353,-0.23216608274043593,0.03918011214955259,-0.24116038348120414,nan
1740792667.1141334,0.6053284278808962,0.12807464139812091,0.09954208552680105,-0.38969090723920913,nan
1740792667.1180391,0.7408071874833206,0.3401658923690401,0.10280849215396402,-0.3191058051751433,nan
1740792667.121945,0.2623690387436158,0.26702847205298125,0.038239605085145484,-0.06964275050290256,nan
1740792667.1258538,-0.4897239014188763,0.05212809855222361,-0.002934669006517204,0.1841694512245391,nan
1740792667.1297596,-0.8655357703690996,-0.05016258750634663,0.020305226344022535,0.2711747364539183,nan
1740792667.1336653,-0.5617522956980244,0.032757592159837506,0.033369224552973434,0.17229921554177882,nan
1740792667.137571,0.08356735223423094,0.11869651911854398,-0.04553363635875559,0.030245206785922844,nan
1740792667.1414769,0.4803855023673637,0.01225329154878222,-0.18269731524266766,-0.0025276359317767624,nan
1740792667.145383,0.39700126113559725,-0.227262396462927,-0.26040828303205815,0.07579309337777917,nan
1740792667.1492887,0.10897367688853052,-0.3287470627239455,-0.21207833026163583,0.12291127592677882,nan
1740792667.1531944,-0.013623703374874228,-0.13055355810354577,-0.07836482342614111,0.022171806663192933,nan
1740792667.1571002,0.06636463553081723,0.20268358880770687,0.0718133152063602,-0.17519769504907873,nan
1740792667.161006,0.101212294511478,0.34211129144611235,0.2209237092657948,-0.29878800656776655,nan
1740792667.1649117,-0.05654358211189171,0.15783620574899263,0.36518383608217997,-0.24222757525735658,nan
1740792667.1688178,-0.2577806728801935,-0.14196829209808404,0.431796339144077,-0.06885032990468286,nan
1740792667.1727264,-0.2737921455295405,-0.2549923274211819,0.3058462744918661,0.07595332774639389,nan
1740792667.1766322,-0.10216057458403101,-0.11443394028736509,-0.02979620306714011,0.12911399113831307,nan
1740792667.180538,0.04664120101757369,0.079585541929106,-0.4151977468723879,0.14998183047799343,nan
1740792667.1844437,0.04086642839801777,0.13089194402451276,-0.6177093648228776,0.20032593970549437,nan
1740792667.1883497,-0.007948563888243597,0.0626954774950768,-0.5213921445890844,0.2333090654808074,nan
1740792667.1922555,0.0765487504965578,0.02473512248010931,-0.20192695862109042,0.14539370919564512,nan
1740792667.1961613,0.26507464443289813,0.05515956620527565,0.16609225384436455,-0.07069708893960566,nan
1740792667.200067,0.3310905037516216,0.037507456300684514,0.43418146457527085,-0.27387152312560875,nan
1740792667.2039728,0.13498917789666756,-0.09377946222117997,0.5165974238178169,-0.30643783687345116,nan
1740792667.2078786,-0.18333638244863093,-0.20456720931487068,0.3802240765479191,-0.1612583112484685,nan
1740792667.2117846,-0.3516196226448817,-0.11184533437239445,0.0790272925923822,0.015213002215628298,nan
1740792667.2156904,-0.2653966890622735,0.13974413570830044,-0.21123745698121268,0.08654496353946245,nan
1740792667.2196004,-0.07277890302968967,0.2635550013027555,-0.28890268024355764,0.05996741091126146,nan
1740792667.2235062,0.03473542318364478,0.059395958221164356,-0.1298129246663527,0.03968974080892397,nan
1740792667.227412,0.03783658100501139,-0.2971289786524585,0.039270023269351716,0.07727602298089908,nan
1740792667.231318,0.05051445882065462,-0.3959263077019974,-0.036639463193260606,0.11497402863802776,nan
1740792667.2352238,0.11998618579364868,-0.051499815178054374,-0.3158948314348895,0.08309103106430571,nan
1740792667.2391295,0.15690472425049865,0.44673294523228396,-0.4351139744410166,0.007578919753850048,nan
1740792667.2430353,0.0821869200881514,0.6108059932925197,-0.09826127960850076,-0.022863218346416195,nan
1740792667.246941,-0.032073007165481116,0.26631536501845854,0.5194548410133867,0.014539004955968486,nan
1740792667.2508469,-0.04017929525331542,-0.27247486953263006,0.8562828391929187,0.0322563701284574,nan
1740792667.2547529,0.0750709679959783,-0.5485421731472776,0.524228395816566,-0.05514933358336366,nan
1740792667.2586586,0.15097902858665435,-0.4194901417120323,-0.24545576379865044,-0.2013818342199011,nan
1740792667.2625644,0.029585335085730868,-0.12271302004464081,-0.7916305339278659,-0.2567197526221682,nan
1740792667.26647,-0.2431995821683824,0.0643608470163601,-0.6742182565771577,-0.13419888254469511,nan
1740792667.2703757,-0.44598769914681197,0.12118193187653759,-0.08681865495495107,0.08490276483784162,nan
1740792667.2742815,-0.3973048339962016,0.20287532130403252,0.4006994774451238,0.23509473040221376,nan
1740792667.2781875,-0.1069548237685344,0.34712361350909865,0.44492962027997374,0.23707469853634022,nan
1740792667.2820933,0.27168386901894553,0.3822604851788579,0.19689785288463899,0.15168915420959467,nan
1740792667.285999,0.571264983441854,0.15643168682148062,-0.0003892864502694816,0.07053234212797539,nan
1740792667.2899048,0.6619342090416225,-0.2220788169253782,-0.043366711966275964,0.001924187114038757,nan
1740792667.2938106,0.4492470794619351,-0.4582629804413916,-0.09789142654568576,-0.09911732181343968,nan
1740792667.2977164,-0.05676145154181228,-0.3806529638190777,-0.26032843697218205,-0.2139127381557479,nan
1740792667.3016224,-0.6326719231315009,-0.11470084285180834,-0.3542251805317363,-0.23695649928024598,nan
1740792667.3055282,-0.8969124191730311,0.07960377379281146,-0.1554345012871487,-0.10094218212450508,nan
1740792667.309434,-0.6055770259018679,0.09577479015628082,0.2560826269614732,0.10710609217190079,nan
1740792667.3133452,0.06751583096678396,0.05425228595588336,0.5101153453493243,0.20709616806353656,nan
1740792667.317251,0.6154624404529302,0.10652076021412372,0.3517554809778541,0.11538324483390759,nan
1740792667.3211567,0.6418685490836225,0.2360830400991138,-0.05431592390804074,-0.05909560348588985,nan
1740792667.3250625,0.22841103596381912,0.2900616689327609,-0.30772146876017314,-0.13341579432167605,nan
1740792667.3289683,-0.17443244645032333,0.1702584068537591,-0.22592676050886207,-0.048652001855492906,nan
1740792667.3328743,-0.22275103892403056,-0.06247676564638941,-0.014545482770746696,0.08252795609071606,nan
1740792667.33678,-0.001944036994583742,-0.26990929055980156,0.03549562817827741,0.12303703427992785,nan
1740792667.3406858,0.1388035408759697,-0.3662684303190481,-0.08108460119207758,0.06491460223245898,nan
1740792667.3445916,0.013920528411884368,-0.3403928479387384,-0.11757541409186853,0.00802539238646932,nan
1740792667.3484974,-0.2118877713107075,-0.1972724156230841,0.05199853377029334,0.01077155166801475,nan
1740792667.3524032,-0.2606972979102596,0.05040006357177172,0.23067401059762277,0.015124882820079661,nan
1740792667.3563092,-0.07993314588960611,0.3217859404412179,0.15018668806597457,-0.059856543930367434,nan
1740792667.3602185,0.12263864725888488,0.46173044196774554,-0.14507872166357755,-0.18529513410254148,nan
1740792667.3641243,0.15091765645442332,0.35893316498000344,-0.29970881043413744,-0.23037952766766925,nan
1740792667.36803,0.04019462285767088,0.07287288940844394,-0.07144527830850007,-0.10961962208215716,nan
1740792667.371936,-0.027554443186392313,-0.19737041621981014,0.3389047342015019,0.10861379577460907,nan
1740792667.3758419,0.0324165245775685,-0.29171292653275827,0.48182061086522066,0.26202668604808155,nan
1740792667.3797476,0.12138166096644701,-0.2204404662069252,0.16969998158001612,0.24966398945173326,nan
1740792667.3836534,0.10780147954091608,-0.10859591310318388,-0.3023722572376276,0.10864899057233786,nan
1740792667.3875592,-0.008094428869553277,-0.04107976074926928,-0.48953904664575226,-0.049799910077372236,nan
1740792667.391465,-0.11918481747524826,-0.0017910110615911518,-0.28385056606704995,-0.14410412993600294,nan
1740792667.395371,-0.15539204981378885,0.04573460027927387,0.015604152740859287,-0.15333304999862832,nan
1740792667.3992767,-0.1366714548567269,0.07960762396774988,0.09934449574652778,-0.0866928996823651,nan
1740792667.4031825,-0.08847436430874941,0.06283409340753932,0.003645270521588751,0.026810939238958775,nan
1740792667.4070919,0.018367143090830765,0.032886453901076265,0.002810194396633964,0.1176894320132099,nan
1740792667.4109976,0.19068166566474154,0.07821701268693886,0.20865583686534162,0.09825222172637721,nan
1740792667.4149034,0.3159833105266451,0.20158392966104363,0.4013320287675377,-0.04707048920620748,nan
1740792667.4188092,0.22981836843413522,0.2575533284600895,0.3029997604059923,-0.20359482611330043,nan
1740792667.4227152,-0.08408827460870932,0.09094809481973956,-0.05837961700838811,-0.20840882273798814,nan
1740792667.426621,-0.4068035572448444,-0.2565959179161464,-0.3552459437025318,-0.019668326668358698,nan
1740792667.4305267,-0.45907921642476585,-0.5285942618320694,-0.3302917233388774,0.21550718652375236,nan
1740792667.4344325,-0.17387797972298788,-0.4830138846194256,-0.07855019634592858,0.2958094843619276,nan
1740792667.4383383,0.23265984638769785,-0.13283863835431653,0.08871589789461042,0.1701328762271272,nan
1740792667.442244,0.4676277321474614,0.2652794322052622,0.01419629978750308,-0.018436882739125766,nan
1740792667.44615,0.4123507492869217,0.45548528335590605,-0.14981967835989768,-0.10125946451372222,nan
1740792667.4500558,0.16525334532891287,0.3898940518377047,-0.15976889411718787,-0.06739837178866132,nan
1740792667.453965,-0.10906765510168874,0.2005646058789931,0.023311424538182423,-0.04704929512160804,nan
1740792667.4578707,-0.309925804338531,0.022295954293599415,0.2171482918109428,-0.12462465261384821,nan
1740792667.4617765,-0.3920291648197586,-0.10889232281350486,0.26285089970134273,-0.21836467166029336,nan
1740792667.4656825,-0.31740994639491465,-0.20432300326847305,0.19766807002832792,-0.17803680510655612,nan
1740792667.4695883,-0.0913297441222698,-0.2461273783120101,0.1504378065462642,0.020301229167001937,nan
1740792667.473494,0.17258313149670604,-0.206933597132416,0.13018995989630716,0.22531182660617424,nan
1740792667.4773998,0.3048127274573969,-0.11382929119992377,0.009460801278490307,0.27099972008470175,nan
1740792667.4813056,0.24205015530473303,-0.03272471842556943,-0.2669531660375966,0.15444340033113044,nan
1740792667.4852114,0.10224593326835214,0.019493794112594512,-0.5290879918697141,0.02064134720772037,nan
1740792667.4891174,0.04761333001218959,0.09748490531642996,-0.5141896810843625,-0.01760745584736301,nan
1740792667.4930232,0.0845648105348967,0.2275504612698715,-0.15912536867895127,-0.0007939046283378426,nan
1740792667.496929,0.05951059777291743,0.31926494082666457,0.28866140111111105,-0.04381027137117899,nan
1740792667.5008378,-0.12513577990483177,0.24059309809931367,0.4907443409691892,-0.1665297579950964,nan
1740792667.5047436,-0.3461196091732378,-0.006648625648767807,0.341796279420406,-0.24978247112416646,nan
1740792667.5086493,-0.3751122909438165,-0.24122430672698592,0.05314981918178083,-0.17226366553525876,nan
1740792667.5125551,-0.15057043886658122,-0.28162736121770526,-0.08229997797096668,0.037688327023554985,nan
1740792667.516461,0.13457411882461975,-0.1506071868488892,0.017377297339961573,0.2160727253464111,nan
1740792667.5203667,0.25058602621706283,-0.041892433793612543,0.1726895415547946,0.22580692813803602,nan
1740792667.5242727,0.18661535206181754,-0.0714238255980692,0.15653895602124518,0.08546753272678952,nan
1740792667.5281785,0.12322909854558256,-0.12349623441659908,-0.07337102325047555,-0.06561408603091076,nan
1740792667.5320842,0.16485272028962641,-0.004821307612897555,-0.35198639446095925,-0.10893771619228952,nan
1740792667.53599,0.19071421153632426,0.2714932803943445,-0.4797281681038746,-0.04079318670354099,nan
1740792667.5398958,0.030332547180300602,0.44219259454934645,-0.3902895414662365,0.05544364733062627,nan
1740792667.5438015,-0.26417637796735527,0.2819882758990654,-0.16071450365684978,0.09835568844690087,nan
1740792667.5477104,-0.4235810448069376,-0.10892509474224282,0.10020767699499848,0.06369052017042576,nan
1740792667.5516162,-0.26982256616796774,-0.3812152653977145,0.33781993849393777,-0.020917724160997367,nan
1740792667.555522,0.052669438227157486,-0.3109868748274752,0.5292871668974072,-0.10622295103410374,nan
1740792667.5594277,0.22869366085803355,-0.036447611785959844,0.6129875510156951,-0.14696860760505917,nan
1740792667.5633335,0.13526438314522615,0.12386531088986039,0.4859098584420121,-0.12227824278980173,nan
1740792667.5672393,-0.031098267758005213,0.048354567284186335,0.10197056044549045,-0.04811605302293354,nan
1740792667.571145,-0.019740036019455322,-0.07148667132426303,-0.4228858442611557,0.034844539253053405,nan
1740792667.575051,0.15377082138066203,-0.00613046360725967,-0.8259677073363447,0.0952550118011711,nan
1740792667.5789568,0.23735266425944276,0.19877663890059577,-0.8583792078202772,0.1301290192311027,nan
1740792667.5828626,0.07764688287746023,0.26643600451340327,-0.4728352116455562,0.14382143284368218,nan
1740792667.5867684,-0.17462566694553425,0.038662049426357724,0.12236079282627785,0.11912180590929759,nan
1740792667.5906742,-0.2535087642900738,-0.300165188810326,0.5983454135252018,0.03360823540247012,nan
1740792667.5945842,-0.11304165683103594,-0.4045478440763819,0.724569636357161,-0.08782079058187128,nan
1740792667.59849,0.028488563326539096,-0.14589380372512087,0.5010504147745496,-0.16257289902136288,nan
1740792667.602396,-0.008480495593567568,0.24851681016402724,0.11888334299174946,-0.12594087056583303,nan
1740792667.6063018,-0.11677601313365625,0.4384253196034145,-0.191570451547991,-0.018242236101020375,nan
1740792667.6102076,-0.04724428421459162,0.3020085949492221,-0.29838469270596113,0.03758006593899496,nan
1740792667.6141133,0.2296996967833987,0.0009279025431590624,-0.2142684494669769,-0.02711710242513071,nan
1740792667.618019,0.42295071591595135,-0.23371924716782952,-0.058098614157886294,-0.12711537938410664,nan
1740792667.6219249,0.24485343337339344,-0.30884021398962364,0.027135982735863345,-0.10142974857347906,nan
1740792667.6258307,-0.2174384637080766,-0.2654012688567577,-0.03325290364602408,0.09285111906755257,nan
1740792667.6297367,-0.54670385499856,-0.1527841132287657,-0.18308411643563588,0.29481218614014043,nan
1740792667.6336424,-0.4281874471591497,0.01675025527468524,-0.2605638048510164,0.2893906093072306,nan
1740792667.6375482,0.02323361149077037,0.20321582847623135,-0.12934336263549154,0.04796800352143116,nan
1740792667.6414583,0.40440316460932757,0.30848659729248346,0.17488700557848036,-0.21457953445609537,nan
1740792667.645364,0.4444321821516467,0.2597729987982336,0.4341911385863528,-0.2527431909379084,nan
1740792667.6492698,0.21975244521572598,0.098468039221119,0.4254995187072159,-0.0517699004055771,nan
1740792667.6531756,-0.02731001247663937,-0.05906564763750256,0.13664591864120015,0.1532199966520553,nan
1740792667.6570814,-0.178169384606416,-0.14495764166900013,-0.20297757538219807,0.12884805287045828,nan
1740792667.6609871,-0.2781023490581097,-0.18255975959229362,-0.3303005510585421,-0.10649780935576045,nan
1740792667.6648932,-0.3468184186863664,-0.19951766709705504,-0.19149180893435291,-0.30358515479453685,nan
1740792667.668799,-0.2793322023713571,-0.15384531275289878,0.03188085851541319,-0.244086284769219,nan
1740792667.6727047,0.002292763060214913,-0.0012612651602986254,0.13021279086112636,0.04104980480822704,nan
1740792667.6766105,0.3618659666809473,0.18366528480252858,0.06739237185428232,0.3148203961329141,nan
1740792667.6805162,0.517324588650052,0.23172806891208367,-0.038035593243101073,0.368599487106416,nan
1740792667.684422,0.3257840436352203,0.06979568317631814,-0.09191677810288572,0.1964980708866309,nan
1740792667.6883316,-0.05057865659072216,-0.15110883858792096,-0.1188070660412385,-0.04068617233267284,nan
1740792667.6922376,-0.3058151637712644,-0.18817605070019916,-0.16145470345861204,-0.18158898179361094,nan
1740792667.6961434,-0.29410440284423617,0.018634518436678276,-0.15182145891666587,-0.18110092117586143,nan
1740792667.7000492,-0.131379203743511,0.2559579870809251,0.03049449341447713,-0.09836066559681532,nan
1740792667.703955,-0.01111779796080182,0.2630888597873678,0.35537235304036535,-0.01744933512802128,nan
1740792667.7078607,0.011785714398283277,0.024592735363108596,0.5718958710876648,0.010124024031382248,nan
1740792667.7117665,0.0190641017310452,-0.21621161520625598,0.4253825435349462,-0.020588523106712556,nan
1740792667.7156725,0.06437075968994586,-0.23971894282687023,-0.04631930543789531,-0.07337827045838081,nan
1740792667.7195783,0.0940040853544417,-0.08912717534796369,-0.4942817729299463,-0.08854510503793529,nan
1740792667.723484,0.0487491394676856,0.014214838739533196,-0.5844280913356187,-0.022692164675207724,nan
1740792667.7273898,-0.021408720923357598,-0.04133834559262215,-0.32507358638693157,0.1077767802766126,nan
1740792667.7312956,-0.010207146600602214,-0.1290477445785421,-0.02631915562404463,0.22557560902023116,nan
1740792667.735205,0.08851499671310371,-0.0631613385604939,0.062010146108782846,0.24809834321699561,nan
1740792667.739111,0.14323994856122796,0.15375769677679998,0.012075798882589726,0.15117268097714412,nan
1740792667.7430167,0.03905293302965088,0.32764881536336316,0.07869609780384143,-0.01815472972719975,nan
1740792667.7469225,-0.16288165361535833,0.3040272242010076,0.33894767745140686,-0.18115357100229543,nan
1740792667.7508283,-0.27025042195203886,0.13184120599933022,0.555258325444722,-0.27104073096944153,nan
1740792667.754734,-0.16816814443128092,-0.03366649544172665,0.43599802249672137,-0.25155043579575426,nan
1740792667.7586398,0.05348468381226722,-0.1342249737799017,-0.011630403864482363,-0.12707906568752617,nan
1740792667.7625458,0.19980700046878763,-0.23794367500902416,-0.4541999358400237,0.04342989082548053,nan
1740792667.7664516,0.17262587899419202,-0.3699361445419808,-0.5655243475093938,0.16057246088501645,nan
1740792667.7703574,0.044094816828777236,-0.4031732874565119,-0.3418757904554968,0.15358846125198047,nan
1740792667.7742631,-0.05542515897563092,-0.19350042548008226,-0.058059704823353125,0.054824603163961504,nan
1740792667.778169,-0.07692116761625509,0.19759407358202227,0.054028443120605625,-0.015763590079611336,nan
1740792667.7820783,-0.06256207249228937,0.49821293853060833,0.02641933487957931,0.029232145641081994,nan
1740792667.785984,-0.05175343702534479,0.48742631835095585,0.05270953789326457,0.14028538353957593,nan
1740792667.7898898,-0.025119604212925552,0.22593039712169977,0.2229033154199094,0.17370945047269912,nan
1740792667.7937958,0.050346211122694766,-0.023961606242510994,0.410154403095803,0.051724687990962186,nan
1740792667.7977016,0.1515917270838002,-0.09607055178865417,0.4108840615670418,-0.14152667652187698,nan
1740792667.8016074,0.19991029622923281,-0.078491467170548,0.155322041107355,-0.2485799621200868,nan
1740792667.8055131,0.12696961899018175,-0.1523969684593737,-0.22810577506272697,-0.2112420323743973,nan
1740792667.809419,-0.06624753413448611,-0.32815585317104057,-0.518259234937899,-0.11699506204779477,nan
1740792667.8133247,-0.2987826228817623,-0.4139807311948828,-0.548013696747847,-0.06413320914347367,nan
1740792667.8172305,-0.43723575192508085,-0.2518208078381989,-0.2909495360223026,-0.026208544028265893,nan
1740792667.8211365,-0.3546427747749905,0.07886966374516954,0.12239467306001545,0.0953714121864894,nan
1740792667.8250422,-0.022950612929741,0.3400127609817171,0.45493750359542323,0.2907091146962145,nan
1740792667.8289514,0.4116122250246703,0.3901601610104384,0.4948234292065113,0.38421195349996623,nan
1740792667.8328571,0.6733634204383095,0.3012573785515238,0.21947837936218784,0.21752227023257606,nan
1740792667.836763,0.5510567473644084,0.21387332492923053,-0.15472814145784566,-0.1274965326723756,nan
1740792667.840669,0.09541966123020211,0.1406494197927379,-0.33661356743605475,-0.3592040882468544,nan
1740792667.8445747,-0.3892152818967508,-0.022661306848289618,-0.22030896143703543,-0.27050502166601575,nan
1740792667.8484805,-0.5897444616730165,-0.3022008295762397,0.022634438856872573,0.026241046781301722,nan
1740792667.8523862,-0.43995418744549675,-0.5348377981805131,0.134791566083228,0.20888915897224083,nan
1740792667.856292,-0.1335706698616837,-0.5052313797401549,0.04719278451673802,0.09236993239413688,nan
1740792667.8601978,0.09864975937092992,-0.18246927763854418,-0.07245198770979215,-0.1777295616129407,nan
1740792667.8641038,0.18921125464402347,0.2214420879552528,-0.0466051388013938,-0.3002113541412256,nan
1740792667.8680096,0.20991110305196625,0.44209465386762115,0.0914751940745962,-0.1491622742460881,nan
1740792667.8719153,0.20933016713249852,0.39180705392122006,0.15393943152590991,0.11846714739697543,nan
1740792667.8758242,0.14922566582045918,0.19314566949189882,0.051461908752466194,0.27214555069427776,nan
1740792667.87973,0.009700765121978119,0.018108857906357124,-0.08862058594996584,0.2539316492397886,nan
1740792667.8836358,-0.11600201611737909,-0.06716823710395918,-0.0960642039181622,0.17540416694800773,nan
1740792667.8875415,-0.10416649973106473,-0.10382729893747616,0.00581525288908971,0.11936647357406953,nan
1740792667.8914473,0.030738501773265363,-0.13736336743021005,0.02497750078484865,0.03601326354396847,nan
1740792667.895353,0.11942135079754584,-0.1554963420484532,-0.12658457454327884,-0.13681292807861462,nan
1740792667.899259,0.027798370199757054,-0.12371199113668124,-0.2694679177035179,-0.3207876605424407,nan
1740792667.9031649,-0.17314141289535137,-0.04774637974067931,-0.14949336572240016,-0.3489648921071264,nan
1740792667.9070706,-0.2801136219554906,0.021281566743906532,0.22147747434655432,-0.17226381775117364,nan
1740792667.9109764,-0.1910188703527309,0.03879688425844825,0.5096306596795931,0.05674020428813919,nan
1740792667.9148822,-0.007724146636325725,0.013229677193723496,0.4026588345633225,0.15172069362655413,nan
1740792667.918788,0.11325709066321708,0.0013984292145106352,-0.027729067065504518,0.10670873148319111,nan
1740792667.9226966,0.15258911596428365,0.05762183648260338,-0.37980261790849407,0.07883251118407854,nan
1740792667.9266026,0.20428673472678072,0.17335125499615056,-0.35041251733569884,0.16069909736450907,nan
1740792667.9305084,0.28295249523997784,0.2556045043942724,-0.052155877263354626,0.24428679151430419,nan
1740792667.9344141,0.25383296639656583,0.1836186219335614,0.1393924695929699,0.16337096452613212,nan
1740792667.93832,0.014986142510287686,-0.07203120704435652,0.019352226584613125,-0.06848552026993816,nan
1740792667.9422257,-0.3045757709695561,-0.3689513999760536,-0.23336568988924203,-0.2448804548945925,nan
1740792667.9461315,-0.43019308204668727,-0.46662169989171254,-0.284792685747121,-0.21101585474610343,nan
1740792667.9500375,-0.24988785918100093,-0.2384015303816737,-0.024100310852260352,-0.054512842130885204,nan
1740792667.9539433,0.036263753849181006,0.17025322876201307,0.33662304473941945,0.01047031161074911,nan
1740792667.957849,0.1404064750992786,0.43227867306015294,0.5073509272032899,-0.07835223818733891,nan
1740792667.9617548,0.025401500718097568,0.3354699794482735,0.3922577397843522,-0.15401585414595015,nan
1740792667.9656606,-0.06838886475625792,-0.004110671413418901,0.10911741411517904,-0.05074950031621051,nan
1740792667.9695706,0.051185559533642906,-0.25239871465082847,-0.1806689586287424,0.15876591968865603,nan
1740792667.9734766,0.2664168761911112,-0.1949408561636895,-0.38356392211092305,0.24117485306564626,nan
1740792667.9773824,0.296320762564645,0.05489065117295234,-0.44409154173477866,0.10772094881329598,nan
1740792667.9812882,0.06724642796298966,0.20155055911114358,-0.3166338904290179,-0.05273720939234143,nan
1740792667.985194,-0.17814870189267934,0.09722713848967758,-0.039778860860420526,-0.007101665745587075,nan
1740792667.9890997,-0.18589091087757392,-0.1162250149159944,0.20712443811855347,0.20473878001330212,nan
1740792667.9930055,-0.01565990784926094,-0.19718472950860125,0.2268977498988819,0.2838224960337395,nan
1740792667.9969113,0.04664760237384266,-0.08338593331312988,0.027655769150010192,0.029540181256870374,nan
1740792668.0008173,-0.1174454587736077,0.06646295337095649,-0.1319635890881284,-0.3875862403185532,nan
1740792668.004723,-0.2813874315405302,0.08997717395469597,0.0048189321487097855,-0.5820195060419968,nan
1740792668.0086288,-0.16536280318886326,0.010499862517123343,0.3874666163236954,-0.3669186242615698,nan
1740792668.0125346,0.17115531825414276,-0.026233306125764102,0.6551600686201637,0.05501645117894524,nan
1740792668.0164444,0.3621745670724962,0.038960862203914086,0.4749538635409242,0.32897651827034163,nan
1740792668.0203505,0.18129328319672475,0.10400009213091377,-0.12502346413883217,0.31304988426272673,nan
1740792668.0242562,-0.15941678960442826,0.052372282219649985,-0.7678557488146457,0.1564698596509906,nan
1740792668.028162,-0.2526675254654354,-0.0824504915272283,-1.0457516077138873,0.061201475049726194,nan
1740792668.0320678,0.010322874750232216,-0.1516096115103949,-0.8079008530082715,0.06402413054137808,nan
1740792668.0359735,0.3125719383233387,-0.07445435327804918,-0.19042153008292295,0.07909756532777948,nan
1740792668.0398793,0.3041654179559689,0.06666039130455194,0.5257876795682594,0.06434890321027896,nan
1740792668.0437853,0.012097564533387527,0.13108636082177458,1.0350805453197425,0.04621140066111113,nan
1740792668.047691,-0.23801149032535338,0.07772602711377659,1.0802342223722776,0.0013472038143867034,nan
1740792668.0515969,-0.24975170003047453,-0.017499916328623518,0.5798945941304849,-0.16265052958468496,nan
1740792668.0555027,-0.15776044107269824,-0.07525773897053457,-0.22706733399763734,-0.4360918866512627,nan
1740792668.0594084,-0.1647636377655592,-0.08733702948174468,-0.840145260762362,-0.5894659511512977,nan
1740792668.063318,-0.21579192706030062,-0.07197597536994332,-0.8526186331845675,-0.3603341047682065,nan
1740792668.0672238,-0.08349045643790232,-0.016587131721893626,-0.3257100014959294,0.2053737070851292,nan
1740792668.0711298,0.25376534318048766,0.08262064683618939,0.2360950795370974,0.6936048257234994,nan
1740792668.0750356,0.4954350261776164,0.15292475041514844,0.3572554930865919,0.7040138319913727,nan
1740792668.0789413,0.37598721511831085,0.09466876050784714,0.04763947734446755,0.2784717702261185,nan
1740792668.082847,0.033361889227730986,-0.07482855795109904,-0.2504156872259742,-0.13944108282649964,nan
1740792668.086753,-0.14003851934504516,-0.18680688079770674,-0.16911370213700186,-0.19865554526042525,nan
1740792668.0906587,-0.009070862473050131,-0.09801780124667789,0.1922694340846022,-0.014591127435297575,nan
1740792668.0945647,0.11273192047336196,0.1130454973564654,0.42098500988518617,0.023025402474587352,nan
1740792668.0984704,-0.10996388593750318,0.2041892894670763,0.284136625921598,-0.2353928600863794,nan
1740792668.1023762,-0.5300546536084036,0.05604119875874288,-0.02683092289590687,-0.5055951004174514,nan
1740792668.106282,-0.6389506614322967,-0.16122490072868623,-0.16495471135216233,-0.4348402235775672,nan
1740792668.1101916,-0.2143505421482956,-0.18183176877651025,-0.051209012026615125,-0.0562678800698648,nan
1740792668.1140974,0.3433311771809316,0.015773915778548968,0.06763895806676389,0.2498097364407662,nan
1740792668.1180031,0.476675178440246,0.1628539364367282,-0.030522575545578533,0.23601481943659108,nan
1740792668.121909,0.17789490994797608,0.042963615735596844,-0.2477663966790138,0.08724882779753262,nan
1740792668.1258147,-0.0011714141633126245,-0.19761632197836249,-0.29842382386429106,0.14884603132845586,nan
1740792668.1297204,0.29714501146747524,-0.19982970838953318,-0.08828592380623715,0.43639019976252624,nan
1740792668.1336265,0.6880827007506772,0.1394625497629415,0.15046731463761895,0.5743914203186451,nan
1740792668.1375322,0.47942437860293197,0.46869228507650335,0.14452217813642487,0.2642216022658062,nan
1740792668.141438,-0.39566211834806003,0.35622741893107857,-0.07187949226733907,-0.30918087891383783,nan
1740792668.1453438,-1.1537826154359527,-0.17367149738442572,-0.1827142607894857,-0.6601927427127059,nan
1740792668.1492496,-1.0195285833972605,-0.6067439944227817,0.033479160610233635,-0.5563414382043649,nan
1740792668.1531553,-0.1500584374473595,-0.49321006325566497,0.4254596326000598,-0.2515751974978492,nan
1740792668.1570647,0.5413739866758569,0.04641575954454782,0.613355510458434,-0.12113491155652646,nan
1740792668.1609707,0.47095649885231256,0.46511054816056896,0.3803281245631979,-0.18555385430376295,nan
1740792668.1648765,0.02433113902521616,0.40590234644314954,-0.12521974857874493,-0.135444297623578,nan
1740792668.1687822,-0.04280061577070001,0.052308662230650095,-0.559921572801111,0.20331677660630254,nan
1740792668.172688,0.36508104925296736,-0.17260942535079857,-0.6931440558712436,0.602291162753509,nan
1740792668.1765938,0.5920240601952137,-0.12937950779185026,-0.5305091154225141,0.717784297562999,nan
1740792668.1804996,0.19391940965534132,-0.0411263548605629,-0.20898990286428668,0.5282129002716437,nan
1740792668.1844056,-0.3711954231928786,-0.0883815172125505,0.13721903650867018,0.30913465093122416,nan
1740792668.1883113,-0.3317528014073485,-0.1279920393709052,0.40377209982810525,0.18089723775173466,nan
1740792668.192217,0.2667196922380303,0.05359236703463985,0.5022025147962061,-0.10438729940362518,nan
1740792668.196123,0.4751747562120964,0.32241376491499646,0.4034752964058449,-0.7570973094310263,nan
1740792668.2000287,-0.3191577023617569,0.27183967779608303,0.190595569008471,-1.4344663292861513,nan
1740792668.2039378,-1.397219219830715,-0.20796438112996876,0.007618178717306921,-1.4101157267495854,nan
1740792668.2078435,-1.4095950499461116,-0.6227491402106964,-0.0698555936255846,-0.4041367674337265,nan
1740792668.2117493,-0.07420852653341531,-0.3703146896098346,-0.08559765527991628,0.9028788178208935,nan
1740792668.215655,1.2986017794129796,0.4548760504927114,-0.11117715215544022,1.4380983963582195,nan
1740792668.2195609,1.3158809913552505,0.9862023783009559,-0.14974507982052956,0.8783055670046971,nan
1740792668.2234669,0.27139489659501154,0.5026532058429922,-0.17839452719195453,0.04356020936571797,nan
1740792668.2273726,-0.16490068227389457,-0.6515044121993152,-0.24628286670166152,-0.01967603542066682,nan
1740792668.2312784,0.8351537872497242,-1.2969209436604243,-0.421172566052634,0.7184450122731716,nan
1740792668.2351842,1.895256069125563,-0.6741371611204215,-0.5916702372455761,1.1661901923870894,nan
1740792668.23909,0.9185374706398381,0.662424807996726,-0.42716674564566537,0.34595843363180334,nan
1740792668.2429957,-2.107404757433041,1.3808367247719442,0.29688555346287726,-1.406188204190823,nan
1740792668.2469018,-4.481805323607897,0.7905192360659191,1.2861752039680394,-2.668146652878129,nan
1740792668.2508104,-3.5168860662926518,-0.4429325747266443,1.7800426097086366,-2.3600358764386384,nan
1740792668.2547164,0.3109743242877501,-1.0786242640525174,1.2051856520724618,-0.7807915245657789,nan
1740792668.2586222,3.579772261515416,-0.6523747350571972,-0.1778107454039931,0.8516951458628625,nan
1740792668.262528,3.5393906409668117,0.14314929623043862,-1.401294552731941,1.7186766173396526,nan
1740792668.2664337,1.060118519377449,0.4033642254238071,-1.6815433580675736,2.014261121333127,nan
1740792668.2703395,-0.5679690690947012,0.08077792650354246,-1.1541835840423758,2.2452930677035314,nan
1740792668.2742453,0.36078376213495855,-0.09470661095935427,-0.6058572582921289,2.237705119036026,nan
1740792668.278151,1.9067287671144415,0.3282403727414167,-0.46765947746062586,1.198731727565059,nan
1740792668.282057,0.9111142810321213,0.8475378783408093,-0.25843791787891035,-1.157535521942986,nan
1740792668.2859628,-2.890069328632761,0.5806597721436336,0.7650379672816744,-3.7839588167341627,nan
1740792668.2898686,-6.007637748025184,-0.585532957238531,2.418612935821147,-4.8843537036139315,nan
1740792668.2937744,-4.828286684499412,-1.662092567852468,3.322727034795124,-3.441811336384207,nan
1740792668.297683,0.3025738137334879,-1.501325184768796,2.126750832067837,-0.15893235083392065,nan
1740792668.3015888,5.197731150426121,-0.010400605889698452,-0.9190259523565695,3.0959154477724704,nan
1740792668.3054945,6.036300850832755,1.671647870042806,-3.792654720006907,4.707058218501113,nan
1740792668.3094003,2.9872252804579094,2.2008600560311513,-4.343356389835124,4.2427489192815555,nan
1740792668.3133063,-0.5601903885484184,1.192553003340522,-2.2230320879615566,2.284717434510205,nan
1740792668.317212,-1.884403793082115,-0.5595814391270043,0.8317849931499834,-0.2812108930393415,nan
1740792668.3211179,-1.3887380754536347,-1.8462156549701818,2.6558075492832045,-2.6646711357825206,nan
1740792668.3250237,-1.199757267774751,-1.953528124292316,2.5491606812237593,-4.122893344389957,nan
1740792668.3289294,-2.118661810992677,-0.9950838887773412,1.5258073448075287,-3.988340256284771,nan
1740792668.3328352,-2.728567845662792,0.36533104570089486,0.8448232539577591,-2.093621432092713,nan
1740792668.3367412,-1.4576650344253166,1.3907470082587807,0.5754667736672874,0.7946003292031137,nan
1740792668.340647,1.2239708584562492,1.6309869673775563,-0.20499702869362263,3.1778100796510196,nan
1740792668.344557,3.193575407348557,1.0848138998942387,-1.9018739017605792,3.745148243212328,nan
1740792668.3484628,3.022423673775634,0.14295835302121945,-3.433288918768653,2.3210956320395444,nan
1740792668.3523686,1.3697206557083075,-0.6899773989771233,-3.0768974999387253,0.013736525597718112,nan
1740792668.3562744,-0.07215422078985667,-1.1260899774299555,-0.3552624844017358,-1.615540706778871,nan
1740792668.3601801,-0.5361023652534084,-1.17979578448805,3.081152183773302,-1.7151630521085253,nan
1740792668.3640862,-0.6571725513745835,-0.9328201104053936,4.6677007395426156,-0.7120644344206869,nan
1740792668.367992,-1.2007949476132476,-0.3157219857291175,3.159359584778978,0.1666808116557123,nan
1740792668.3718977,-1.9178130722815934,0.717481550630451,-0.2765764558927187,0.024369440083200508,nan
1740792668.3758035,-1.9363113282714803,1.7728021670875467,-3.132028650281204,-0.8820543331329703,nan
1740792668.3797092,-0.9453420125235356,1.995632242554953,-3.6833974381927095,-1.3815495591550422,nan
1740792668.383615,0.46985145885873386,0.7844742012007969,-2.151250242360965,-0.5433945768569588,nan
1740792668.387521,1.614972856185245,-1.3467177623269257,-0.025921329425669583,1.2939059108330169,nan
1740792668.3914309,2.3189528419799936,-2.81192924762957,1.4491515574946818,2.6657863690380634,nan
1740792668.3953366,2.552968396491425,-2.2076428925037104,2.0418066792099183,2.2864403696945006,nan
1740792668.3992424,1.852344825270211,0.260705734375764,2.059379820042051,0.30697471219189515,nan
1740792668.4031482,-0.2240951591692667,2.6706577561157325,1.5690707021171482,-1.7541734928867092,nan
1740792668.407054,-2.9451104216435993,2.949102221875357,0.37232401805794146,-2.4028186566948144,nan
1740792668.4109597,-4.31379900232366,0.7747850089535414,-1.3380824242332874,-1.4940659164826027,nan
1740792668.4148657,-2.7919111958368874,-2.0138362978291924,-2.648871326948287,-0.15030958152706525,nan
1740792668.4187715,0.812432154770751,-3.0058902676149675,-2.5513087035385116,0.5509413904992797,nan
1740792668.4226773,3.6562247805094508,-1.3912343769950424,-0.9418162776777421,0.6098820214126238,nan
1740792668.426583,3.4600898044193453,1.302638301139188,1.1286823120099543,0.7384975131234923,nan
1740792668.4304888,0.7400055006450822,2.6211172659673805,2.304105079133552,1.169475611282986,nan
1740792668.4343946,-1.7982132133848816,1.4481686269536784,2.0248514785426255,1.211917766849283,nan
1740792668.4383042,-2.0636686909472783,-0.9778263144953349,0.8079048189735054,0.1888985730897098,nan
1740792668.4422102,-0.5037301377751855,-2.2607623111468946,-0.4200077270258054,-1.3989566374148772,nan
1740792668.446116,0.8261960961169099,-1.1567834020607048,-1.095778172495966,-2.076387610509486,nan
1740792668.4500217,0.7107966573495976,1.1908774622902951,-1.162765724778105,-0.973756732270612,nan
1740792668.4539275,-0.15618917384762726,2.337341617679845,-0.7441189779259733,0.9890807028589758,nan
1740792668.4578333,-0.4631050045891481,0.9841544821938178,0.00530476153253068,1.8554519426426952,nan
1740792668.461739,-0.02869006101581655,-1.59708119748075,0.7103898620977908,0.6979847603334933,nan
1740792668.465645,0.2083523959135326,-2.7140959526800654,0.7801331020661616,-1.2620794253579446,nan
1740792668.4695508,-0.2755827863994783,-1.0081549929418592,-0.03906786768992159,-1.8503765810645691,nan
1740792668.4734566,-0.7323578685529244,1.9503755900093638,-1.103126361717551,-0.2710595505475549,nan
1740792668.4773624,-0.1675106287591997,3.063539501101509,-1.2084329509854939,1.9482156154216,nan
1740792668.4812682,1.1285756223993466,0.91808616123882,0.17444698128518596,2.484869233071988,nan
1740792668.4851778,1.6776124957484464,-2.4909294870682483,2.0255828408978216,0.6400586190612672,nan
1740792668.4890835,0.5867546203314247,-3.573712993951066,2.4711335551900535,-1.902132175708927,nan
1740792668.4929893,-1.2051000808391619,-0.8827322843256463,0.6500554981521529,-2.7535747548750455,nan
1740792668.496895,-1.881891773983997,3.123996991937245,-2.1358501828647283,-1.1756844667184192,nan
1740792668.5008008,-0.8476855572203806,4.38745172124023,-3.4024850190328673,1.2656689708749296,nan
1740792668.5047066,0.5940664083181372,1.4262349171553363,-1.8344004109434064,2.289911036997153,nan
1740792668.5086126,0.8526965213335749,-3.0040270864445597,1.3288846907083638,1.0623178995906732,nan
1740792668.5125184,-0.013252169200127378,-4.657056445473951,3.357827180486729,-1.1349187203744047,nan
1740792668.5164242,-0.45040654813200864,-2.1226870485708926,2.554199916416955,-2.1929930801793387,nan
1740792668.52033,0.4997800526535327,1.8607056769814254,-0.25060339332435405,-1.0970252401734029,nan
1740792668.5242357,1.783756398260422,3.451613909641892,-2.612436037405265,1.2313994769642451,nan
1740792668.5281415,1.4675682534660304,1.7018880122854563,-2.7510947495067124,2.774997625283119,nan
1740792668.532051,-0.8134226015079189,-0.8433529074242151,-0.9279402391439977,2.1389633008486517,nan
1740792668.5359569,-3.047597696034414,-1.3652268849035103,1.1775954947510556,-0.2720806596799656,nan
1740792668.5398626,-2.835558143134247,0.061239946952225,2.130955200529159,-2.5588886049319473,nan
1740792668.5437684,-0.05164048691610482,0.965417123515209,1.7274761448182276,-2.9003480530035777,nan
1740792668.5476742,2.832349381072955,-0.17478094886150183,0.655113480927427,-1.1252578647055798,nan
1740792668.55158,3.2042108426172735,-1.9194914524269722,-0.3864120583135195,1.1178630844281914,nan
1740792668.555486,0.914054485147998,-1.675352253758327,-1.1016259171946214,1.8774337996125934,nan
1740792668.5593917,-1.7207232451677341,0.8801749250175294,-1.4161738980878,0.7785254430987867,nan
1740792668.5632975,-2.368498900680959,3.0279829743881175,-1.2562882219527056,-0.6136286439332278,nan
1740792668.5672033,-0.8916842065505209,2.047488788187699,-0.6296663914528924,-0.47384533229119924,nan
1740792668.571109,0.88553089531783,-1.4126803745965895,0.2351404703394739,1.1936782210731323,nan
1740792668.5750148,1.284037075049867,-3.718303736625656,0.9957497466059706,2.3606416975048017,nan
1740792668.5789242,0.3461466279350617,-2.1935643164058827,1.418030281537376,1.1225220843800547,nan
1740792668.58283,-0.6076077698593577,1.7811369528038825,1.3974288211867143,-1.9904362924144936,nan
1740792668.5867357,-0.6062711155202682,4.107977918070148,0.8306271657172536,-4.173928528056544,nan
1740792668.5906415,0.06225623214631739,2.3571194188812066,-0.2980716548212218,-3.095651435335537,nan
1740792668.5945473,0.45478166536193004,-1.6343808407052898,-1.5799043888270659,0.5733492603254726,nan
1740792668.5984533,0.14664207315705632,-3.7758448844837957,-2.13305461048007,3.6358879003315145,nan
1740792668.602359,-0.38191083679558524,-2.062347007084794,-1.265778831965972,3.50118977121313,nan
1740792668.6062648,-0.41125239132235475,1.4785575127217239,0.6382018914890004,0.7088157202088965,nan
1740792668.6101706,0.18727179719380477,3.1398659810184912,2.1025633565295525,-1.8099963570018167,nan
1740792668.6140764,0.8399980948969973,1.4149678793296565,1.7897790945771561,-1.8580236626385824,nan
1740792668.6179821,0.8669361442301305,-1.7185353755090325,-0.09460425811965056,-0.07512742450430321,nan
1740792668.6218882,0.10601100550079762,-3.1139000238255377,-1.7903347484551413,1.1274882706469938,nan
1740792668.6257968,-0.9670037026414915,-1.5866563584103854,-1.6251451524863851,0.3923094386468781,nan
1740792668.6297026,-1.5981595271841533,1.3051315172864788,0.26025394982674294,-1.215594460714321,nan
1740792668.6336086,-1.2539806500468607,3.1105243312304593,1.9539770619699828,-1.6516421050488457,nan
1740792668.6375144,0.025045402708310315,2.6626138165473514,1.6654386571988717,-0.2863524280576352,nan
1740792668.6414201,1.5651423760668026,0.5912055227157427,-0.4281518992207967,1.484636541141499,nan
1740792668.645326,2.3756531363550537,-1.6577713541301204,-2.29942744380753,1.9007955812473025,nan
1740792668.6492317,1.7704721048680994,-2.8819578836134276,-2.058946268402904,0.6980056101866525,nan
1740792668.6531374,-0.06591440080594381,-2.520701095560139,0.18944228499978616,-0.8507524086241055,nan
1740792668.6570435,-2.057004798939802,-0.741677208014959,2.4451000692609033,-1.450513977939459,nan
1740792668.6609492,-2.912134880381066,1.4740240456885616,2.684436280137855,-0.9539499104069754,nan
1740792668.664855,-2.0486345192611903,2.656057144324509,0.6589656653905283,-0.06700007799190089,nan
1740792668.6687608,-0.01610756028213412,1.887662741312997,-1.9879078330808433,0.6342340947875625,nan
1740792668.6726694,1.9293609611480167,-0.1987463133992088,-3.1961029017280094,1.0382351931742055,nan
1740792668.6765752,2.7235387533391386,-1.7350494325637629,-2.1192941075008997,1.06468096331253,nan
1740792668.6804812,2.1235275438934553,-1.324376103555153,0.39103217754787006,0.46069126738147675,nan
1740792668.684387,0.6539171335210427,0.4879507317483376,2.5893619322896173,-0.6911366370984715,nan
1740792668.6882927,-0.9076064622792994,1.6793442019731037,3.105588396314952,-1.5705075272008449,nan
1740792668.6921985,-1.977361422441925,0.8552079365435932,1.7587200517116097,-1.2443088764492742,nan
1740792668.6961043,-2.26708150006456,-1.2128736295422529,-0.48708051011322473,0.17003513070763193,nan
1740792668.70001,-1.6955807436713426,-2.3504895816900397,-2.2445592293591115,1.318497228831836,nan
1740792668.703916,-0.39198779353696384,-1.289338036180702,-2.585133270358205,0.9607898259186854,nan
1740792668.7078218,1.1900363090638146,0.9727642822459248,-1.5298000980546926,-0.5409139171117731,nan
1740792668.7117276,2.3059589260951348,2.2376631912208604,0.11900104287996283,-1.4415445899460377,nan
1740792668.7156334,2.287486593643243,1.4156634441566478,1.4005657234185294,-0.511956026341315,nan
1740792668.7195435,1.0529408313513784,-0.4292229503644388,1.7620204676296822,1.479962556183447,nan
1740792668.7234492,-0.6963172110431392,-1.3503906005776687,1.2093048888649847,2.480329264491052,nan
1740792668.727355,-1.8756457616387314,-0.616344396743951,0.13139571849419068,1.3375726423494791,nan
1740792668.7312608,-1.7848858782754764,0.6552679230844075,-0.8975751144409043,-0.9850119407114304,nan
1740792668.7351665,-0.6381542404418049,0.894048032108756,-1.2680924091839696,-2.501406464479207,nan
1740792668.7390726,0.6097377160522879,-0.15396374977311955,-0.6307512047774018,-2.261228964826073,nan
1740792668.7429783,1.0280138633694504,-1.225566197248664,0.6799355902345451,-1.0170884699345593,nan
1740792668.746884,0.43995919828976626,-1.0215422434286618,1.587116733402494,0.051134591237145095,nan
1740792668.7507899,-0.48803725785388574,0.3370864297150623,1.0210034628098894,0.7539648325104074,nan
1740792668.7546957,-0.8554106056604351,1.4489690545844136,-0.9390564152101739,1.653655921751024,nan
1740792668.7586014,-0.2973215577425912,1.1417469265250806,-2.7224451980664632,2.658016047365297,nan
1740792668.7625074,0.7362613934787088,-0.3071869772152809,-2.4543605114355938,2.5549046610558035,nan
1740792668.7664173,1.395251713139566,-1.4897819816730122,0.17145274131875232,0.41910166534874416,nan
1740792668.770323,1.1455514603999564,-1.3064402495067367,3.2182914335924666,-2.7330319006588755,nan
1740792668.774229,0.17275865142520772,0.0011471250096993148,4.013499423399056,-4.332260841468429,nan
1740792668.7781348,-0.8293508603147307,1.2105196701694847,1.624976712431841,-2.7098886037873346,nan
1740792668.7820406,-1.2526297689708206,1.3735817879709915,-2.103524396659328,0.9619441158335842,nan
1740792668.7859464,-1.0228637786988553,0.6297117415465663,-4.110947809068523,3.5514100501877524,nan
1740792668.7898521,-0.5430742243260167,-0.1631628108346762,-2.8585113991714417,2.9501571061022935,nan
1740792668.793758,-0.23091924018421994,-0.43356028285562737,0.3710204521183593,0.06562356319782506,nan
1740792668.797664,-0.10304323573515274,-0.4014720569039249,2.7941678792842866,-2.2433407913060033,nan
1740792668.8015697,0.1901223316662041,-0.6066363900431346,2.670132875459468,-2.0663681701123213,nan
1740792668.8054755,0.8972671244304624,-1.0976998374157954,0.618570871005411,-0.09875530274556822,nan
1740792668.8093812,1.7245335534527848,-1.2610813796957125,-1.3194217630690044,1.4762561778051673,nan
1740792668.8132908,1.919624910034979,-0.5028904363721681,-1.675283806533564,1.369875247282665,nan
1740792668.8171966,0.9220067868418992,0.9859485360203396,-0.6386079857941621,0.2133324391781737,nan
1740792668.8211024,-0.970550143094094,2.250201840909975,0.520508493386973,-0.572621609063976,nan
1740792668.8250084,-2.6069127333202586,2.374398443743977,0.7956394838966547,-0.44585554716292325,nan
1740792668.8289142,-2.8026213899827694,1.2342129725102395,0.21178127673626704,-0.049396350919405106,nan
1740792668.83282,-1.3328803113341678,-0.5102860267602435,-0.46413525593261823,-0.11894466266250778,nan
1740792668.8367257,0.8021897332597541,-2.010203458892314,-0.5371999354864074,-0.5431412379123963,nan
1740792668.8406315,2.1421954110711945,-2.697950813521899,0.05015520325201818,-0.6645569859779854,nan
1740792668.8445373,1.9246659942123443,-2.302899202221479,0.7484477952373045,-0.23403620593730054,nan
1740792668.8484433,0.627041621513417,-0.7887751071018779,0.8889238376812629,0.29155764535304485,nan
1740792668.852349,-0.5483732033108673,1.3992473194486268,0.2513010471340336,0.4255597189010513,nan
1740792668.8562548,-0.7303831657795965,3.1126361292793354,-0.7044048071076974,0.32191215992453676,nan
1740792668.8601642,-0.03313665685603356,3.016206873303868,-1.1826101991679014,0.5171341059411021,nan
1740792668.8640702,0.6820946310043375,0.8052918059873685,-0.7645646326683222,1.0790646625616533,nan
1740792668.867976,0.6152277766474407,-2.059045468247111,0.15830781575711378,1.3058906516387017,nan
1740792668.8718817,-0.31865555417915203,-3.247400226910327,0.7430494514676005,0.4601569201688939,nan
1740792668.8757875,-1.4555546950457088,-1.6430807111684176,0.5662334952588254,-1.266203072363789,nan
1740792668.8796933,-1.8975474121640736,1.388170369984124,0.06996686107087656,-2.6956115470851234,nan
1740792668.883599,-1.1671480839336728,3.068910502162421,0.008601973804451225,-2.6560180966727502,nan
1740792668.887505,0.42023902870266483,1.8156624499531788,0.4744864788184304,-1.0207644098085598,nan
1740792668.8914108,1.9065351598131453,-1.193595413258254,0.692961364095391,1.2013753309404718,nan
1740792668.8953166,2.320936648227447,-3.1615034559921864,-0.03787735491464835,2.7017166812995814,nan
1740792668.8992224,1.4026251375407421,-2.4007283737075746,-1.3093409172849177,2.7745467306085594,nan
1740792668.9031281,-0.1583969617303808,0.1515134216039269,-1.8052892691068296,1.5887309919333774,nan
1740792668.9070375,-1.2582811910151859,2.110025535212125,-0.7135440932492894,-0.12997595955110106,nan
1740792668.9109433,-1.3047200269699262,2.0996884270125107,1.2037978040676793,-1.5547416275313708,nan
1740792668.914849,-0.6756217906625908,0.8425587721361197,2.2123487517090257,-2.0895487506702013,nan
1740792668.918755,-0.22393269340046526,-0.07030391933353873,1.3539194832482853,-1.5961673888921362,nan
1740792668.9226608,-0.3193414593186842,-0.06407005961709386,-0.5543519519041347,-0.4865110077600221,nan
1740792668.9265666,-0.4742961611025849,0.05699117448883079,-1.7800598383111361,0.4970814569149916,nan
1740792668.9304724,-0.008073931566206335,-0.5454582861608628,-1.422498679633153,0.8076406397672995,nan
1740792668.9343781,0.9917218392795234,-1.5196648645797006,-0.1298453736489197,0.5160993217222325,nan
1740792668.938284,1.5806251826863105,-1.7281306268049506,0.8509685157291448,0.17694253771236154,nan
1740792668.94219,0.9669312786377237,-0.6868167006753189,1.0091793197777577,0.21960312189757183,nan
1740792668.9460957,-0.4776457154000539,0.7913430869961449,0.7499346391281451,0.502458724494114,nan
1740792668.9500015,-1.435607613517131,1.508725878012583,0.478562428231743,0.5293524946467975,nan
1740792668.9539106,-0.9838174608740555,1.1755151776002157,0.004959145053451594,0.08035642858366292,nan
1740792668.9578164,0.381150039601415,0.5256555577335027,-0.9105170718789009,-0.48762228918585426,nan
1740792668.9617221,1.2157819634493907,0.25045677535464056,-1.738462042284146,-0.6383898585426924,nan
1740792668.965628,0.6438298232937657,0.19300465729417374,-1.4507547187949743,-0.2884919950300023,nan
1740792668.969534,-0.728077031753003,-0.21119354633979948,0.198935192538236,0.08475658537479816,nan
1740792668.9734397,-1.484864080886701,-0.9469638541375901,1.9892001226031617,0.005193239447373304,nan
1740792668.9773455,-0.8990949322252195,-1.2828877355518016,2.2580519673828796,-0.4247367265545734,nan
1740792668.9812512,0.38867004626374435,-0.7122104586161314,0.6846176926121421,-0.6174799899101429,nan
1740792668.985157,1.164414834906065,0.2807664916091009,-1.2403049337591368,-0.17140967726567644,nan
1740792668.9890628,0.9222593408058689,0.7099730197823549,-1.7378227184639872,0.6453991040294899,nan
1740792668.9929688,0.21698869438552407,0.2826290875528103,-0.607408313245421,1.1441143554930577,nan
1740792668.9968746,-0.14945744638612485,-0.22882761835788443,0.679352122105576,0.90795626330218,nan
1740792669.0007834,-0.03224295796376265,0.024000609332658338,0.7311930028422993,0.16856632368545246,nan
1740792669.0046892,0.07832808763446547,0.8270544902074218,-0.232263426387502,-0.49149456235246153,nan
1740792669.008595,-0.18777425623349914,1.0940952143213745,-0.8188886657357564,-0.7118073247588576,nan
1740792669.0125008,-0.6065052158547548,0.2308563456763684,-0.24059860150511214,-0.5762478168838576,nan
1740792669.0164065,-0.696879751317785,-1.005164459234958,0.7575460155663811,-0.3492952375484792,nan
1740792669.0203123,-0.34224839668537205,-1.2926067794869132,0.8910868001229604,-0.14695470941142424,nan
1740792669.0242183,0.11034014130216672,-0.3145272594097493,-0.03517987535470231,0.06836464030542506,nan
1740792669.028124,0.32630905397105414,0.787751896577804,-0.8786221423835123,0.2706052028707411,nan
1740792669.0320299,0.35583597527929517,0.698640036279943,-0.5674266455230786,0.3111875894497647,nan
1740792669.0359356,0.43688050762317254,-0.5118117934962617,0.5784787082103133,0.1294140651400591,nan
1740792669.0398414,0.5644583292490183,-1.3995074190287817,1.2110648465022769,-0.07783476714903004,nan
1740792669.0437472,0.456604207991256,-0.7667723642830501,0.5346482002957634,-0.02531836402941579,nan
1740792669.0476558,-0.026787135280920058,0.94717698559622,-0.7917107369141136,0.30191009126794854,nan
1740792669.0515618,-0.5956238399071182,2.0859155857258354,-1.4393995897236869,0.5505241939678024,nan
1740792669.0554676,-0.795367900540919,1.522754926499432,-0.8736459899057103,0.34588624233818904,nan
1740792669.0593734,-0.512407844995103,-0.20375674864884974,0.20622843722124162,-0.27062709581977207,nan
1740792669.0632792,-0.0782282289765244,-1.5355026265689447,0.8052582230587993,-0.8203283808572425,nan
1740792669.067185,0.14994216584956946,-1.4937957894627132,0.6922458375141317,-0.8407651810362835,nan
1740792669.0710907,0.18130791832754567,-0.4837483605171917,0.3746348384081457,-0.3357310021803704,nan
1740792669.0749967,0.2656049157273779,0.3857519172756594,0.251095587431242,0.2560684568004722,nan
1740792669.0789025,0.45941787326949923,0.507505753560319,0.14859238726043028,0.5155266899846406,nan
1740792669.0828083,0.4988482482231054,0.1800521591676041,-0.22891072189964526,0.4133380187162589,nan
1740792669.086714,0.1650195659468859,-0.0047771006357612755,-0.6874962108563945,0.22669660915748455,nan
1740792669.0906198,-0.3525879880263657,0.11685988673866363,-0.6877342342368243,0.16465741238798975,nan
1740792669.0945299,-0.6084278935924594,0.2554550214799219,-0.08340150834952796,0.15990835822740773,nan
1740792669.0984359,-0.404513884325075,0.17204628162868046,0.5602498542073018,0.03289787669990514,nan
1740792669.1023417,-0.006328684041221815,-0.019238048050609986,0.5653443351319717,-0.22318220191077334,nan
1740792669.1062474,0.2021232961561806,-0.07142760514930789,-0.048988767203452674,-0.40255027811965394,nan
1740792669.1101532,0.16814097849389711,0.03589704157785207,-0.565168460494097,-0.32878307414896507,nan
1740792669.114059,0.14366032853295205,0.08319690756598894,-0.40108078983367756,-0.06972426892144135,nan
1740792669.1179647,0.2496833633724454,-0.08358819528092638,0.22829048421238105,0.1344497584368269,nan
1740792669.1218708,0.257631747205071,-0.34823727905948887,0.6056229610646144,0.1348252824846503,nan
1740792669.1257765,-0.07792356754620063,-0.4556440447948584,0.3676566156063785,0.015718863247644852,nan
1740792669.1296823,-0.5713826806170798,-0.28219893638679006,-0.12328967567347286,-0.03389001198904365,nan
1740792669.133588,-0.6944335730784674,0.0675717805267141,-0.2903075256200496,0.05393608845413932,nan
1740792669.1374938,-0.18096531576736563,0.38488652685709746,-0.04631378932149051,0.16764450942615294,nan
1740792669.141404,0.5809380667777414,0.5120872041148531,0.17069373779408625,0.1677110490938244,nan
1740792669.1453097,0.9017986081437567,0.40027547918443657,0.007839019577349478,0.047820343647334375,nan
1740792669.1492155,0.5177295897996873,0.11024877926300819,-0.35472352765354515,-0.07618592455625173,nan
1740792669.1531212,-0.15602059408340535,-0.19567810976871758,-0.4567593582044245,-0.10828160038248112,nan
1740792669.157027,-0.5262081764884713,-0.32597250432080477,-0.14378918504172541,-0.0637873628483213,nan
1740792669.160933,-0.4505451991387089,-0.21700872984489894,0.25989461673253944,-0.021373063966172827,nan
1740792669.1648388,-0.25477193962980477,-0.025601809119412487,0.36717622351823964,-0.02330282532994566,nan
1740792669.1687446,-0.2018000100384697,0.009993079225771412,0.17594324659582586,-0.04865734715180026,nan
1740792669.1726503,-0.15383453264351982,-0.15318722392465553,0.008998342465639145,-0.06449973253241895,nan
1740792669.176556,0.14005413743680462,-0.2746161721388293,0.07831937196168355,-0.06366036200505003,nan
1740792669.180462,0.5631115723693965,-0.0945990571916354,0.24213954118097245,-0.044516475678685385,nan
1740792669.184368,0.6618599166699609,0.3190285003492289,0.2188738324009606,0.011494211746983169,nan
1740792669.1882775,0.20909417021509097,0.5758844838446323,-0.06013631068368101,0.10873869280225705,nan
1740792669.1921833,-0.42464965860668985,0.3744300082583365,-0.3909446080985838,0.19399634490745657,nan
1740792669.196089,-0.6232309002235029,-0.1326001445201406,-0.5402489359792956,0.185109518554501,nan
1740792669.1999948,-0.22084931546221317,-0.4668145763282234,-0.4489739851674216,0.06479951283893823,nan
1740792669.2039006,0.30416520286701115,-0.3328184113511298,-0.19276863319338566,-0.07556639991800702,nan
1740792669.2078066,0.3868363688442167,0.06800892806495529,0.14739533432701354,-0.12056107688933627,nan
1740792669.2117124,0.012003541806718612,0.28033406403290745,0.48983565161835424,-0.06248047920626282,nan
1740792669.2156181,-0.32853932348149556,0.10724446563893951,0.6822147548981224,-0.018098485718671637,nan
1740792669.219524,-0.2649935411718781,-0.20116109413408553,0.5600116124670029,-0.08970464002452896,nan
1740792669.2234297,0.03666259220386403,-0.27602875627318396,0.13474013197556162,-0.22352237326254815,nan
1740792669.2273355,0.16165858392594978,-0.0574222262232693,-0.33806513643707053,-0.2435143768544245,nan
1740792669.2312415,0.013278030641352074,0.17996002187127744,-0.5611993245782948,-0.044148771265245385,nan
1740792669.2351522,-0.09050788248905325,0.1899707006930911,-0.46690237269575297,0.267930085726495,nan
1740792669.2390583,0.10599029013587517,0.035984147956714944,-0.23665964262816638,0.45168328951690684,nan
1740792669.242964,0.4021496693278884,-0.03597049067348202,-0.05592507482705156,0.35767498066677356,nan
1740792669.2468698,0.37111676768936974,0.06805844254983794,0.07374506113603119,0.0662732192722927,nan
1740792669.2507756,-0.07317014243900999,0.18122689933310068,0.23446926886456476,-0.20040516849469242,nan
1740792669.2546813,-0.5142221385279251,0.10706851291823317,0.3772780472276658,-0.2873799336486095,nan
1740792669.2585871,-0.5068340726968291,-0.12675653602235973,0.330030799210692,-0.21749274436984511,nan
1740792669.2624931,-0.10088038511802318,-0.3072103710211228,0.049102168232295164,-0.11458749357579538,nan
1740792669.266399,0.23782572268862212,-0.2889785872487544,-0.23711626582091516,-0.05587629841158431,nan
1740792669.2703047,0.1986334112050483,-0.12971524933023762,-0.24442118904695362,-0.019385383704768926,nan
1740792669.2742105,-0.03310177687601824,0.03264940951916257,0.01835311551891253,0.04441096750785403,nan
1740792669.2781162,-0.07201294237300572,0.15382602543258975,0.21974398632860878,0.12869624833996662,nan
1740792669.2820256,0.14691082191604637,0.26807641650512715,0.08116701215821609,0.1744368745943661,nan
1740792669.2859313,0.30168356477754305,0.3418352662722989,-0.27647652993148536,0.14114077838579406,nan
1740792669.2898371,0.13692402885492444,0.2517201902117466,-0.4486050484283521,0.0510026074460705,nan
1740792669.293743,-0.1755003365738666,-0.04010729744456533,-0.20685631422076928,-0.037543990833674275,nan
1740792669.297649,-0.25053197206855293,-0.350505979871133,0.2385615804381455,-0.08370978287469678,nan
1740792669.3015547,-0.0012239271867457344,-0.41209614201417216,0.4777104715235061,-0.08588027588089482,nan
1740792669.3054605,0.22519486285981513,-0.16785273220927896,0.342522033015537,-0.06426144671992992,nan
1740792669.3093662,0.07930527846023691,0.13274511911040926,0.03498642795070936,-0.03847085440213854,nan
1740792669.313272,-0.3305736280687218,0.1890586222262408,-0.160019822156485,-0.019583507072619927,nan
1740792669.3171778,-0.535798345313965,-0.015264518108105083,-0.18178094668787995,-0.00835964511515055,nan
1740792669.3210838,-0.25172556134627483,-0.18902128810140648,-0.16264295707133772,0.005113306171943416,nan
1740792669.3249896,0.29170735796652014,-0.06470714571102223,-0.1741919954322343,0.029958815872235502,nan
1740792669.3288987,0.6159712408302646,0.2858952332734916,-0.1303170776910667,0.054640132878234195,nan
1740792669.3328044,0.5081094608724755,0.5089173815171999,0.04028332924327628,0.04873727353571889,nan
1740792669.3367102,0.1722321071333014,0.3361529805961752,0.233779728070905,0.0010645248853587274,nan
1740792669.3406162,-0.09587855323904802,-0.13562878390358038,0.2752962304775512,-0.04710113751015988,nan
1740792669.344522,-0.24124958377228453,-0.5380085920431554,0.1449283463406331,-0.032023251093782755,nan
1740792669.3484278,-0.3818604497969896,-0.5761471130677575,-0.004792340386977829,0.05181586333768346,nan
1740792669.3523335,-0.5065669326487255,-0.2697825832240851,-0.07313520029658956,0.11681575497178309,nan
1740792669.3562393,-0.40960430832272443,0.113847330668033,-0.1452562031750474,0.06255216483543383,nan
1740792669.360145,0.018163156768230347,0.3186952810242383,-0.3127524021843306,-0.09660536358831871,nan
1740792669.364051,0.53673792152875,0.2902543879585337,-0.42604900394869644,-0.2110969384761794,nan
1740792669.3679569,0.723692235180551,0.1598507154731593,-0.19247597438760966,-0.13992585510234234,nan
1740792669.3718626,0.40861441808307924,0.08726893609161325,0.4041282575322456,0.08089594527140051,nan
1740792669.3757715,-0.1339821734829585,0.11533892470923968,0.8955493172143654,0.24471290991743577,nan
1740792669.3796773,-0.46493750922019467,0.14461890806815342,0.7194738505897665,0.17722637699116778,nan
1740792669.383583,-0.40671015464499405,0.037679478555841084,-0.13215739039617494,-0.072347959436969,nan
1740792669.3874888,-0.1438180972737955,-0.22924263632250585,-0.9676588021801329,-0.26840204333122597,nan
1740792669.3913946,0.05529503290293537,-0.49876385226056563,-1.024153349202545,-0.22564693884488496,nan
1740792669.3953004,0.1162620828915077,-0.5355957252436786,-0.2454738048359768,0.008206311419930617,nan
