timestamps,TP9,AF7,AF8,TP10,Right AUX
1740794783.6664069,0.07137193461688655,-0.16589977397387387,-0.3856396683397159,0.13141410835309913,nan
1740794783.6703126,0.18131848502525758,-0.3129429121204764,-0.36469536477599507,0.15707727071984928,nan
1740794783.6742187,0.07074257485567609,-0.2572181025453524,-0.20824327459842393,0.08485897633561278,nan
1740794783.6781244,-0.0712971613355421,-0.0229000110462991,-0.08833488411572951,0.0016204872582216948,nan
1740794783.6820302,-0.028357001353946983,0.20042658338705038,-0.04624501790222604,-0.027894728020303947,nan
1740794783.685936,0.19252060520682968,0.2652108445442685,0.05053013316195362,-0.004375950287519378,nan
1740794783.6898417,0.3581745534578014,0.18063956199719738,0.30373510063828585,0.028096243425186056,nan
1740794783.6937475,0.2649782494122413,0.04521648870606019,0.5689195160618209,0.028983836538004293,nan
1740794783.6976533,-0.03550698690895996,-0.06616780451734065,0.5304820153160298,-0.009293194137112321,nan
1740794783.701559,-0.2949025940216118,-0.12324862746153308,0.04952372974244812,-0.06207541665879944,nan
1740794783.705465,-0.3334934619575727,-0.10337594340864442,-0.5911230986184255,-0.09432849507506386,nan
1740794783.7093709,-0.2027392610925557,-0.0038317296298888905,-0.8721876350431349,-0.08667300595855565,nan
1740794783.7132814,-0.07512642156735996,0.10591760001977023,-0.5254193271513975,-0.04637855258830909,nan
1740794783.7171872,-0.024517487491974507,0.10848429259375325,0.17347409746851356,0.005570367898455048,nan
1740794783.721093,0.026045316169161253,-0.0335833123549553,0.6416584714919621,0.055738237474289715,nan
1740794783.7249987,0.1464265397980692,-0.19446168682493425,0.5392342857345193,0.10051831463029985,nan
1740794783.7289045,0.2621954719610128,-0.1895170221611329,0.07227054405858735,0.1272504290433579,nan
1740794783.7328105,0.2322737120767584,0.013856096143977098,-0.2568643049555953,0.10743581351284379,nan
1740794783.7367163,0.04345370856917119,0.22753051056856713,-0.17398829078054087,0.026541067484654703,nan
1740794783.740622,-0.14003834392468414,0.22937119227104696,0.12218563163096637,-0.07946706449964624,nan
1740794783.7445278,-0.1532854207973569,0.01285465209234808,0.22724692684501147,-0.13804644418071182,nan
1740794783.7484336,-0.021272593828430424,-0.1937853495284926,-0.010171301025718992,-0.10836756634226064,nan
1740794783.7523394,0.07566105507123054,-0.17787907877221068,-0.3373530462632063,-0.02955545240130463,nan
1740794783.7562451,0.020914885249054167,0.020177441206290694,-0.39112620571162016,0.018960283962184524,nan
1740794783.7601583,-0.10607690163461286,0.1609506374094639,-0.09423725707123694,0.008635972443592028,nan
1740794783.764064,-0.1436209411394018,0.09086272848164033,0.26769512362322206,-0.007411362958657607,nan
1740794783.7679698,-0.055709537607011334,-0.07841225613969097,0.34609690943623383,0.029005487461738953,nan
1740794783.7718756,0.03174783258574323,-0.11089106357773423,0.07759099613206374,0.0905458234443881,nan
1740794783.7757814,0.0072406170195690135,0.057666878456872316,-0.2624345378617381,0.08625692989675753,nan
1740794783.7796872,-0.07000697044895099,0.22247046938609116,-0.3247808003302621,-0.014912514108560029,nan
1740794783.7835932,-0.039717763690065924,0.13694882575232858,-0.0020473804165531875,-0.11504477337349724,nan
1740794783.787499,0.14689120955606239,-0.18862267620161652,0.4759415321102067,-0.08285441736834254,nan
1740794783.7914047,0.3381726033204296,-0.45976114070544527,0.7173237193224832,0.08003599365154969,nan
1740794783.7953105,0.3325508111306242,-0.38417303712394885,0.4595145275484536,0.20770281890639528,nan
1740794783.7992163,0.09406561300286048,0.02986637658424416,-0.22693522472192076,0.1374204279493536,nan
1740794783.803122,-0.2118888141330433,0.4716008811399511,-0.9491494726143427,-0.10158812733381334,nan
1740794783.8070347,-0.38629326421858784,0.6109249154940529,-1.2216432101978394,-0.299862362093003,nan
1740794783.8109405,-0.3649554767747362,0.3729841933399904,-0.790598967720727,-0.2778620428827541,nan
1740794783.8148465,-0.2197801348263346,-0.044269202762637405,0.15900059087848342,-0.06253167955944151,nan
1740794783.8187523,-0.04330181506564705,-0.37519707576505557,1.085742099286967,0.15965481835336764,nan
1740794783.822658,0.12049025915097393,-0.48366040882098993,1.4403515785087977,0.24134953477770005,nan
1740794783.8265638,0.24525382051183384,-0.39186838372334737,1.0352111561468402,0.191492792134013,nan
1740794783.8304696,0.2867359073257433,-0.18587474803663265,0.15149424079489496,0.10332094962862771,nan
1740794783.8343754,0.22050536901012394,0.06046210573712058,-0.6886818969714826,0.022470389769759996,nan
1740794783.8382812,0.09458657823661695,0.28337492380801477,-1.082526201808578,-0.06958061067594154,nan
1740794783.8421872,-0.0026853755849246025,0.40778935360755225,-0.9553121372418503,-0.16498612781131708,nan
1740794783.846093,-0.03875613847849553,0.37250973576127167,-0.5051105339594167,-0.19115558949387187,nan
1740794783.8499987,-0.06930091305754127,0.1827811478715432,-0.002093750974608207,-0.09821721787287031,nan
1740794783.853911,-0.15187111624988062,-0.07730570275155824,0.3691356427271021,0.04910373558839911,nan
1740794783.857817,-0.24942704040602365,-0.29295208972457515,0.5447506433066017,0.12134559537727796,nan
1740794783.8617227,-0.2587377019218011,-0.37908930537291025,0.5424571950641552,0.0715080713696496,nan
1740794783.8656285,-0.13700040183784806,-0.30582491570726456,0.4172787850043813,-0.010811098639387734,nan
1740794783.8695343,0.037443916557080036,-0.09725156253140071,0.23120597353186154,-0.017941275717302398,nan
1740794783.87344,0.15462407154350571,0.16627416111130294,0.030400846797750795,0.03633277215049373,nan
1740794783.8773458,0.19682909647994834,0.35405813903103933,-0.16005712811262313,0.04480642478620001,nan
1740794783.8812516,0.2301837683419898,0.34176397409992076,-0.31588100584743,-0.031327991190600944,nan
1740794783.8851576,0.27499419649330925,0.11114896071637621,-0.39615821391406586,-0.0904894508530018,nan
1740794783.8890634,0.24019841020013594,-0.1978666112817083,-0.3658160319353018,-0.02233278359819142,nan
1740794783.8929691,0.03472022913756162,-0.3675897816119316,-0.2405310062233904,0.12284864441646202,nan
1740794783.896875,-0.27193918674266027,-0.27470323903376237,-0.08823001801169894,0.1663535374759404,nan
1740794783.9007869,-0.46060470622591954,0.0024863139569446103,0.03581444900998375,0.020581626199349324,nan
1740794783.9046926,-0.369961711089311,0.25495735997901225,0.14709803379779102,-0.1796802802523933,nan
1740794783.9085984,-0.07454162813261404,0.3260075955329485,0.2956508310274893,-0.22097753112712518,nan
1740794783.9125042,0.17905418187258806,0.22132039647855686,0.46188361540581924,-0.06751144358611881,nan
1740794783.91641,0.21471721481456937,0.047326528730113435,0.5186920297185886,0.09368737723592413,nan
1740794783.920316,0.08157028515015637,-0.1224401999653904,0.33840229295055224,0.08700334838046594,nan
1740794783.9242218,-0.03370230395811629,-0.28057784163156035,-0.05360929287466829,-0.030620918623668947,nan
1740794783.9281275,-0.01163547722937147,-0.3936181256776842,-0.45741295910593527,-0.04988183715774132,nan
1740794783.9320333,0.10893390767580945,-0.34430658076119297,-0.6524973704820525,0.10435116190936043,nan
1740794783.935939,0.21319028279470426,-0.04173544389518323,-0.5701096893854601,0.2518923666629122,nan
1740794783.9398448,0.22357734493839443,0.39933305543732595,-0.3085242444264928,0.17403761456429753,nan
1740794783.9437506,0.11913173224635158,0.6582779201826772,-0.004876604456480245,-0.09571373018433148,nan
1740794783.9476624,-0.0941400027768049,0.47466573743137275,0.2656095781059178,-0.2842006415802286,nan
1740794783.9515681,-0.3599561714055437,-0.05953501991302952,0.46317962526833284,-0.19858892874736078,nan
1740794783.9554741,-0.5266923434239223,-0.5221255060848576,0.521599595778216,0.03782615195757846,nan
1740794783.95938,-0.4142043994130481,-0.5369495695556291,0.38511228088589744,0.13420308091494942,nan
1740794783.9632857,-0.0024502250631260273,-0.14165190331082075,0.11102723642210323,-0.011664708031535324,nan
1740794783.9671915,0.4608763469591427,0.25056458171291107,-0.13073301907092308,-0.19016845102124658,nan
1740794783.9710972,0.622746579051382,0.27556830466005344,-0.21572475039617683,-0.1428005627970384,nan
1740794783.975003,0.35250781268234227,-0.016063362839910514,-0.202063654521617,0.11623645126514355,nan
1740794783.9789088,-0.10685553842859677,-0.24380898859523326,-0.2475016695125943,0.3163799102014903,nan
1740794783.9828148,-0.3595100742822455,-0.13087308389476843,-0.3770818646015644,0.256226400183304,nan
1740794783.9867206,-0.2401219710534964,0.19721542797496824,-0.39995765432957786,0.029793330155173027,nan
1740794783.9906263,0.04605522665408131,0.37083897687055223,-0.1274503466149301,-0.11514745549692708,nan
1740794783.9945376,0.1703732866017941,0.19465578923621865,0.34193366407815473,-0.08723812340288829,nan
1740794783.9984434,0.031217588093832845,-0.14971424493359692,0.6430303072032977,-0.03357624399387846,nan
1740794784.0023491,-0.1748217430610955,-0.3240395184173339,0.5067978582210108,-0.10815281615709645,nan
1740794784.006255,-0.20781135785693014,-0.19960698336138766,0.06790385911298427,-0.24569306235410582,nan
1740794784.0101607,-0.048714032193777,0.0439793214048198,-0.2611346574082617,-0.23912798806891764,nan
1740794784.0140665,0.11701814038986866,0.15841345155255304,-0.23148539619769565,-0.01568415411647015,nan
1740794784.0179722,0.13562117792003167,0.09054826386443506,-0.00951823406582937,0.2489232468705917,nan
1740794784.0218782,0.04286176194878878,-0.022070036811665545,0.055773798287215,0.32466244585161463,nan
1740794784.025784,-0.018203234488967348,-0.059438527202512956,-0.133923071945641,0.1832620758781327,nan
1740794784.0296898,0.019315657579194408,-0.04048911671663686,-0.3173123723530381,0.0042787639174663526,nan
1740794784.0335956,0.08912484943998891,-0.03179552118867447,-0.21472646392963826,-0.05364437749245061,nan
1740794784.0375013,0.09622286299881468,-0.018685076997103665,0.10869756028898986,-0.01809039779683058,nan
1740794784.041412,0.024191243098090353,0.05785158545509263,0.3097622337858946,-0.01893811578674885,nan
1740794784.045318,-0.07384229616964402,0.1601022412699723,0.1803116568388107,-0.09942073069721236,nan
1740794784.0492237,-0.14580480571253798,0.14558947414800208,-0.10365683467237048,-0.1741426193462295,nan
1740794784.0531294,-0.16357812778291103,-0.04657015930885843,-0.19753375015948382,-0.15921514667281178,nan
1740794784.0570354,-0.10161983526678396,-0.2537119884205357,0.0054887893550267935,-0.07323694123866219,nan
1740794784.0609412,0.044282776613845415,-0.22837716086539753,0.26999723034613893,0.017498423903666432,nan
1740794784.064847,0.19799895742204882,0.05720202054093288,0.31545572093072605,0.0971870782738262,nan
1740794784.0687528,0.217136352798361,0.3173021643736201,0.12455887446877646,0.18179019137658556,nan
1740794784.0726585,0.03162521197532944,0.2414148657600008,-0.10025871069587704,0.22617644795078748,nan
1740794784.0765643,-0.23121483521959563,-0.13180605649034155,-0.2204416418406601,0.13770884305933476,nan
1740794784.08047,-0.3208232720059191,-0.4090599468907167,-0.2860167658635846,-0.07737535616710615,nan
1740794784.084376,-0.11024849523469957,-0.262357223286941,-0.36151846040755914,-0.24343659350834276,nan
1740794784.0882866,0.24491000362228893,0.18193186198947237,-0.3439415420226798,-0.1786472189377545,nan
1740794784.0921924,0.4366483151381641,0.44919591908958656,-0.07342345569849767,0.06851763562646188,nan
1740794784.0960982,0.3041996848085313,0.23403691401387253,0.38693802079730516,0.22663946462388856,nan
1740794784.100004,-0.02031422880425865,-0.24117489789130533,0.7016983655639617,0.09975724498418317,nan
1740794784.10391,-0.2710952545344093,-0.4457168247958492,0.5762555333749216,-0.18430101304550064,nan
1740794784.1078157,-0.31517646957882506,-0.11821450591127741,0.08649580519056313,-0.30193402485373255,nan
1740794784.1117215,-0.2268265155742205,0.42617825524858544,-0.37847844431147587,-0.11301604711866217,nan
1740794784.1156273,-0.12850287838041843,0.603641414988061,-0.5056689062486435,0.16696561027487133,nan
1740794784.119533,-0.03746303130189542,0.16643652458495062,-0.3292965671535958,0.22616943795415104,nan
1740794784.1234388,0.09121017204376682,-0.527589831747937,-0.10012408682838567,0.035397662203463666,nan
1740794784.1273446,0.22496285536619864,-0.8529283171925979,0.030749745930235106,-0.12534583170449437,nan
1740794784.1312506,0.249233167462011,-0.5086935619117869,0.11075099461035129,-0.027974802061525802,nan
1740794784.1351638,0.12541188197284378,0.21911831318756203,0.2025829917053256,0.21028526885857926,nan
1740794784.1390696,-0.016183933520236907,0.7468268688660296,0.2337814548495712,0.2727350698931917,nan
1740794784.1429753,-0.015032549205197357,0.7150216914325576,0.10637574368558918,0.0421460694826066,nan
1740794784.146881,0.10089419858383941,0.24910598184394503,-0.10993996956814674,-0.2524143730307062,nan
1740794784.1507869,0.11612765624366347,-0.2303684428465543,-0.2131425232605528,-0.31884717637961774,nan
1740794784.1546926,-0.10704027861749608,-0.40612183106571265,-0.11484101820187133,-0.14593087774959151,nan
1740794784.1585984,-0.41165475002738283,-0.28800604553780873,0.0443077441197261,0.022747835238370297,nan
1740794784.1625044,-0.4757452220102184,-0.10457982771449337,0.08799546048358739,0.023525130421802216,nan
1740794784.1664102,-0.17565091768827798,-0.03216596667546571,0.04294618473971059,-0.03708460750935762,nan
1740794784.170316,0.24187878324430487,-0.04806649063641203,0.0721517849847226,0.026970282342172802,nan
1740794784.1742218,0.4070546229902445,-0.024706559379882243,0.18326567222356208,0.19395569795462328,nan
1740794784.1781275,0.2268656776508563,0.07944289353548899,0.1531965012583678,0.25554116321062764,nan
1740794784.1820402,-0.025466470730791606,0.16298761902650308,-0.1545493636699322,0.11547444816991012,nan
1740794784.185946,-0.03822514082558871,0.12072157534853128,-0.4896147400987422,-0.05857992237937001,nan
1740794784.1898518,0.17691103713180645,0.0020750586209367858,-0.420784830169119,-0.058832488541814255,nan
1740794784.1937575,0.30878854107120174,-0.024116192875730347,0.10627074204034996,0.0616888476009935,nan
1740794784.1976633,0.11904607693682158,0.11578483262328651,0.5749306566175845,0.04234992869739569,nan
1740794784.2015693,-0.2762742916037268,0.2618973455339813,0.43324985728769405,-0.21631086796596505,nan
1740794784.205475,-0.5313316788826518,0.16509232895484258,-0.2096631591922445,-0.45980711430389426,nan
1740794784.2093809,-0.43791005845749503,-0.20737733176067194,-0.6188045613266601,-0.3583663434592081,nan
1740794784.2132866,-0.11487543711872103,-0.5610202414282386,-0.26601284379073187,0.06835387089847224,nan
1740794784.2171924,0.15944036973476777,-0.5385431121614261,0.5027286323746227,0.43198654876266446,nan
1740794784.2210982,0.23759333586671386,-0.10678822485315138,0.8224695364031055,0.41472524185780246,nan
1740794784.225004,0.1895312360027639,0.37272202651420344,0.31964597225117214,0.1267855035670401,nan
1740794784.2289164,0.14723938208370643,0.5022398724725758,-0.4435894504314945,-0.06412194939611601,nan
1740794784.2328222,0.14437306397937483,0.2530675107992268,-0.6611351930970334,-0.0017730724005793174,nan
1740794784.236728,0.12989576653961815,-0.037896975774345115,-0.26360980956998287,0.09864138493198123,nan
1740794784.2406337,0.07776364595685155,-0.06998585501707716,0.055205073041245965,-0.011294271159143134,nan
1740794784.2445395,0.016421295579688473,0.09545314784170013,-0.18732913653133954,-0.24938215528602803,nan
1740794784.2484455,-0.04028370515146328,0.1572096291192141,-0.5560945765066025,-0.3095044284324817,nan
1740794784.2523513,-0.1232809932454193,-0.032903607823784715,-0.24072781622390133,-0.08984929434205448,nan
1740794784.256257,-0.23563023658962445,-0.3001824363800175,0.7839550528415141,0.14909050512130037,nan
1740794784.2601628,-0.29523378607303435,-0.3867871575407975,1.5068170060624526,0.12319772762739584,nan
1740794784.2640686,-0.2152447220654788,-0.26045684930705437,1.002809331752696,-0.0965564388730205,nan
1740794784.2679744,-0.03968323392846083,-0.09081117771955116,-0.38238867973363927,-0.1857914769654309,nan
1740794784.2718801,0.07077988939698904,0.03224938703222261,-1.30995699680411,-0.011022960453495581,nan
1740794784.2757921,0.03534863193397548,0.2043098912274043,-0.9623909141454854,0.20108782455769011,nan
1740794784.279698,-0.007682776580771378,0.46765695046302214,0.019467462458824598,0.20664785134534133,nan
1740794784.2836037,0.1544629616784041,0.5961279699831579,0.3622300781924747,0.1025563199135981,nan
1740794784.2875097,0.5027902403020108,0.3054835959526091,-0.23853717498184346,0.15686537134687117,nan
1740794784.2914155,0.7067158468910684,-0.302896183125579,-0.7480294534091723,0.33097009991160514,nan
1740794784.2953212,0.4502549185186942,-0.6921517971568483,-0.16415095125250714,0.22934517302766258,nan
1740794784.299227,-0.16186059681715545,-0.44983620002034247,1.0775834773893502,-0.3286043999913687,nan
1740794784.3031328,-0.6322354757415041,0.16048720825592472,1.5096111018003673,-0.8689051767388177,nan
1740794784.3070385,-0.5990488520037692,0.4160661398305215,0.45788250051673307,-0.7057413399936522,nan
1740794784.3109443,-0.295060350140042,-0.012021795829840805,-0.9717628449903382,0.13010675018336793,nan
1740794784.31485,-0.3253550643283615,-0.5866073725995179,-1.098664606165227,0.7104226265104008,nan
1740794784.318756,-0.8839470255350134,-0.49469181579977184,0.27408526260715477,0.24986147122663752,nan
1740794784.3226676,-1.2817132783623988,0.32066096397517,1.4615562625322165,-0.772724607587201,nan
1740794784.3265734,-0.4989727175361468,0.979857472059821,0.7829292316564707,-0.9348166651009968,nan
1740794784.3304791,1.6015660709422734,0.6855863356372379,-1.401131047958484,0.46199086913843906,nan
1740794784.3343852,3.6674356408451585,-0.24341213157008637,-2.9110233452044794,2.276534123181633,nan
1740794784.338291,3.74691647829381,-0.6793240060252037,-2.046805790853971,2.4993970352394537,nan
1740794784.3421967,1.0936527704047105,-0.09492040958071442,0.6155552710677034,0.4538745356952917,nan
1740794784.3461025,-2.8198594281537512,0.6514939013787157,2.878068305772852,-2.263714206138856,nan
1740794784.3500082,-5.255472061187649,0.296050790816553,3.143394181335499,-3.3277107168958615,nan
1740794784.353914,-4.454116804838939,-1.1157584506516378,1.693930382620417,-2.0686452528380963,nan
1740794784.3578198,-1.1309562266750222,-1.943066453276462,-0.11746840058506326,-0.0007640167622155038,nan
1740794784.3617258,2.2163635011550435,-0.741816392800684,-1.4183850445140496,1.0640873130409634,nan
1740794784.3656316,3.526772040249112,1.7918387887174263,-2.2098186639317974,1.0147479176592025,nan
1740794784.3695426,2.7692391893916923,3.1593859789543908,-2.52152676941803,1.1580584999916934,nan
1740794784.3734486,1.4452329322046293,1.6504680281574542,-1.8920213749411727,2.114146407647088,nan
1740794784.3773544,0.7242528042337457,-1.5799931477517815,-0.07621908314779019,2.6644435718299384,nan
1740794784.3812602,0.3129615720630586,-3.4318626907529306,2.0548377518424528,1.1810801816743806,nan
1740794784.385166,-0.767400026094291,-2.0221523232757206,2.9489842750991975,-2.0226053696461976,nan
1740794784.3890717,-2.533102868276182,1.2719904241961257,1.9422046699334476,-4.438591558942699,nan
1740794784.3929775,-3.578204276507009,3.1714511735108473,0.07925522433538232,-3.829871605717993,nan
1740794784.3968832,-2.4970457684265255,1.8601754774146442,-0.9857503627466365,-0.692337926752063,nan
1740794784.4007893,0.3613605365472781,-1.2196286578467974,-0.8065845430716598,2.1925717397711493,nan
1740794784.404695,2.893976789629386,-2.9774573019739656,-0.46309982420563894,2.6825894130547807,nan
1740794784.4086008,3.1963158047696876,-1.850236536292069,-0.9539813579775698,1.341380611776655,nan
1740794784.4125066,1.42446842508408,0.8233038460077508,-1.7007886457066825,0.3520340046452299,nan
1740794784.4164174,-0.47841238646180406,2.448499917632195,-1.1815188075985028,0.7315236027564189,nan
1740794784.4203231,-0.9004098384728494,1.823098553073393,0.9404155710847312,1.2434469516421358,nan
1740794784.4242291,-0.16855190603211442,0.0022577497006172685,2.8816912831441237,0.23125743601744295,nan
1740794784.428135,0.11966622915119089,-1.1756412938469547,2.457236299903475,-2.002795501164437,nan
1740794784.4320407,-0.8083814883829109,-0.9935101167114033,-0.31703613315511436,-3.2800635111302814,nan
1740794784.4359465,-1.8717638676636508,-0.2160919627997995,-2.839105297881,-2.0436182147140847,nan
1740794784.4398522,-1.4172631015814579,0.08714926698997603,-2.5009035563189332,0.73804251632064,nan
1740794784.443758,0.6699083068244975,-0.29467613940311194,0.46304336406890856,2.549075015596584,nan
1740794784.4476638,2.538448472934263,-0.7058604788841707,3.0557701721487267,2.0142626517564497,nan
1740794784.4515698,2.244760827863835,-0.46036791188598813,2.5760106333765505,0.16742820434084005,nan
1740794784.4554756,-0.1103950737202702,0.48938850055627453,-0.5809083585591783,-0.999500924638036,nan
1740794784.4593813,-2.3748098742026387,1.5476421799808495,-3.345436319677291,-0.7655129557569379,nan
1740794784.4632947,-2.5004781675942445,1.9023109441756385,-3.1039918171887018,-0.058631623526829504,nan
1740794784.4672005,-0.5275406578340841,1.037615239918355,-0.214727525147886,0.1330729233970023,nan
1740794784.4711063,1.6545820598327843,-0.8223102094950602,2.5730486162941513,0.02827408721905556,nan
1740794784.4750123,2.3162228461260335,-2.584550493244029,2.934723143588952,0.3915899937460278,nan
1740794784.478918,1.4002766651958023,-2.8531397144744592,1.0246540150634744,1.0528940282217518,nan
1740794784.4828238,0.09626718796984657,-1.0874135126722702,-1.0914275252701817,0.8396622068126786,nan
1740794784.4867296,-0.6799264231991089,1.6194345097564253,-1.6585194754076722,-0.785832752468929,nan
1740794784.4906354,-1.0280285460806118,3.1805828855855998,-0.7186253057918514,-2.5433404633813335,nan
1740794784.4945412,-1.3929273748118847,2.318239034780339,0.3716552927589163,-2.4322464363063214,nan
1740794784.498447,-1.6311453237284679,-0.1605091433282816,0.5125530040300749,-0.07569880997743095,nan
1740794784.502353,-1.1145051243144177,-2.0570467539873056,-0.17788645680897897,2.5225076914391167,nan
1740794784.5062587,0.31221271559277186,-1.8917006854165812,-0.7513050924425689,2.956655949198931,nan
1740794784.5101717,1.83699313933048,-0.2672249822453518,-0.5008969790332796,1.0075301623587645,nan
1740794784.5140777,2.3599809359727564,0.9517221089238005,0.3921603560235534,-1.1532555735305876,nan
1740794784.5179834,1.571474610407927,0.6927614156173584,1.1158679515891015,-1.422980974375287,nan
1740794784.5218892,0.1836779455395493,-0.32654991460277877,1.0092028022927009,-0.055359774540916395,nan
1740794784.525795,-0.8682712752600943,-0.6703017926506475,0.14489800917923923,0.8471016895299233,nan
1740794784.5297008,-1.2529553409896046,0.05817626856290602,-0.7493308865537884,-0.04489412279407805,nan
1740794784.5336065,-1.2230563955506706,0.8527493645454592,-0.9406266306967522,-1.6906717114363439,nan
1740794784.5375123,-1.0159732269546793,0.6516400321232999,-0.3555068130629619,-1.9629717262043693,nan
1740794784.5414183,-0.5705079728842362,-0.3300453273415716,0.3482648520015118,-0.22627557848217827,nan
1740794784.545324,0.145033920325742,-0.8903934971167078,0.42174498013010536,1.8616151776715246,nan
1740794784.5492299,0.8012605766208586,-0.3294499698061415,-0.1988314764390549,2.230677213125891,nan
1740794784.5531356,0.9505032835662427,0.7035891275326753,-0.7774912115835224,0.708393429758107,nan
1740794784.5570483,0.5617235064206794,0.9853892573234008,-0.5192201987358952,-0.9107039955245151,nan
1740794784.560954,0.103120100571914,0.12786512573370745,0.5502026883418476,-0.9982965542195038,nan
1740794784.5648599,0.010615013546592124,-1.0271493233357238,1.5074805768899413,0.13949404202473883,nan
1740794784.5687656,0.20661462114699403,-1.365583226639733,1.4001188715885142,0.843980962514245,nan
1740794784.5726714,0.27065950965597946,-0.6071330454894046,0.18922814095175441,0.17541999705869382,nan
1740794784.5765772,-0.0007080426790492861,0.5970363523768131,-1.2021394740737754,-1.0455386501789143,nan
1740794784.5804832,-0.3924923238603904,1.4072100191184949,-1.7565411733739429,-1.3554253698027172,nan
1740794784.584389,-0.6327289097654204,1.399795236245435,-1.2275768987149502,-0.43527003621112587,nan
1740794784.5882947,-0.7292028250994975,0.5952862101243838,-0.17975836553052646,0.6081676930685901,nan
1740794784.5922005,-0.7789850545320263,-0.6744871614588076,0.6750804999515041,0.7000377726564044,nan
1740794784.5961063,-0.5942341924425538,-1.73094620346127,1.0465490605411494,0.1115635836861027,nan
1740794784.600012,0.14889397148647968,-1.7165873351163574,1.0341640266512733,0.004411114586046002,nan
1740794784.6039245,1.2762453201694097,-0.3208858667725057,0.7640533139235979,0.8098419143342839,nan
1740794784.6078303,1.9074457655877868,1.5437198019589462,0.2484053937404651,1.5039346065896393,nan
1740794784.611736,1.2460431691725666,2.207882507187793,-0.42224685873448126,0.7686670857597601,nan
1740794784.6156418,-0.38441508667624585,0.8471499022523932,-0.9388978533558568,-1.2738737026428497,nan
1740794784.6195476,-1.603378081660219,-1.3941493108186225,-0.9733552641751301,-2.850406330921463,nan
1740794784.6234534,-1.3345023518712513,-2.293117697176115,-0.5091309863655641,-2.261052444603672,nan
1740794784.6273592,-0.013240790372148698,-0.8412883242675032,0.10725887738970598,0.2699425997245996,nan
1740794784.6312652,0.8457263214600085,1.5213761104901227,0.47089913776220216,2.6493001582088813,nan
1740794784.635171,0.35036495904324283,2.3068569272719714,0.4462907255824394,2.879809545488336,nan
1740794784.6390767,-0.7559128074722832,0.6572657108426764,0.20537407235401062,0.9197591624009901,nan
1740794784.6429825,-1.0085121467559266,-1.6714778980120424,0.015439799056388055,-1.4112186838440097,nan
1740794784.6468883,-0.002344771238945412,-2.209314874186035,0.027826084071228146,-2.2500992314356134,nan
1740794784.6508002,1.1167432208993813,-0.4665019934269998,0.20527836354054937,-1.311513137591596,nan
1740794784.654706,1.067461640883578,1.6091883016760928,0.35672318932382285,0.19496197986603936,nan
1740794784.6586118,0.017958383226604847,1.8745023789859112,0.2519273104406338,0.9804258222241758,nan
1740794784.6625178,-0.6438910465385375,0.30336739694860093,-0.17911611024107657,0.814051678890863,nan
1740794784.6664236,-0.09457091425164073,-1.2298607453467874,-0.6891250728538313,0.35439342348334985,nan
1740794784.6703293,0.8298618171226968,-1.2436521996812036,-0.8398038683185645,0.17326849241202724,nan
1740794784.674235,0.6691568855077711,-0.19479282268208506,-0.4226960391834242,0.18887643920081038,nan
1740794784.6781409,-0.7274578330563704,0.43905232241623393,0.24330498115696048,0.009174071436521812,nan
1740794784.6820467,-1.8245031692756353,0.1556649667307017,0.5770358142140344,-0.43328105731407357,nan
1740794784.6859524,-1.1879891670590557,-0.09863980644367176,0.38067768210642444,-0.7792007496599158,nan
1740794784.6898584,0.6754984607794122,0.5176942464450061,0.10055199234730315,-0.7059513429988786,nan
1740794784.6937642,1.745844242523187,1.3348094743537964,0.2631549599703531,-0.2902123200597443,nan
1740794784.6976757,0.8156187191346581,0.904695148948148,0.6883822905211064,0.16615567923346902,nan
1740794784.7015815,-1.013599436469676,-0.9557262227896041,0.552764035814155,0.5246262458170411,nan
1740794784.7054873,-1.5152227450998452,-2.498266696380596,-0.5460370185324747,0.8393344785824665,nan
1740794784.709393,0.09332405627794062,-1.868081234692759,-1.7527009020637139,1.0212508807540903,nan
1740794784.713299,2.1631973095407355,0.6170657357560171,-1.608901005744852,0.7181591275433109,nan
1740794784.7172048,2.3711326777654245,2.5540847551039,0.23079179342050823,-0.25133260026561755,nan
1740794784.7211106,0.24155315667441157,2.020583537457513,2.193759070923402,-1.3912653023215868,nan
1740794784.7250164,-2.3536950867627455,-0.27825816282595267,2.1741955843012826,-1.73089512146507,nan
1740794784.7289221,-3.1472125658484176,-1.8085566322411786,-0.11017137591401886,-0.7625977988550826,nan
1740794784.732828,-1.6422530864515212,-1.0700954713459196,-2.464526394964932,0.8505074493816581,nan
1740794784.7367337,0.71360806624137,0.7794432940106842,-2.342642980618472,1.7213763877047263,nan
1740794784.7406397,2.161522198875135,1.3851570517616911,0.33338697419893254,1.057418144100147,nan
1740794784.7445507,2.094465333654504,-0.018334509008710705,2.8386623665344373,-0.4915293799208918,nan
1740794784.7484565,1.0484780331592292,-1.750575775374234,2.438303945933425,-1.4215637528364378,nan
1740794784.7523623,-0.19354237966746235,-1.6919721563291337,-0.591129878579631,-0.8595288860030947,nan
1740794784.7562683,-1.123235483890277,0.2513483601210799,-3.0953109613201164,0.584293979995732,nan
1740794784.760174,-1.4012075098386256,2.067475761922715,-2.359831104004033,1.4695224466105647,nan
1740794784.7640798,-0.8375509550864247,1.9301677590628066,0.9249687519756968,0.9692198062546614,nan
1740794784.7679856,0.250887092432274,0.1495906898962,3.320177581012789,-0.39120529228177753,nan
1740794784.7718914,0.9806946715482521,-1.3684665251247112,2.267976044843126,-1.3636827578575916,nan
1740794784.7757971,0.6615485326546859,-1.3276147750177363,-1.2024857416341497,-1.1990551795156579,nan
1740794784.779703,-0.3367928514803547,-0.2800798769196198,-3.574404479480544,-0.21000254815096506,nan
1740794784.783609,-0.8325586292864889,0.36465289320343836,-2.506122413466452,0.7165355548992097,nan
1740794784.7875147,-0.18159135797599,0.1256454388817384,0.8567944866440383,0.9663819534302419,nan
1740794784.7914255,0.8378875512749636,-0.17749733979278995,3.2311144221049357,0.5652200467117392,nan
1740794784.7953312,0.8632152903758977,0.24495735260290355,2.574887262337427,-0.06357392616598802,nan
1740794784.799237,-0.326794216359307,0.9571314798016736,-0.08743115210520204,-0.4948265045133036,nan
1740794784.8031428,-1.3434114764391007,0.8159687131561535,-2.049020370155285,-0.5050628202097442,nan
1740794784.8070486,-0.7721920415620187,-0.444230267541006,-1.744529144052462,-0.12962735992879068,nan
1740794784.8109543,0.9740365558449836,-1.6106765755146084,-0.03052310737990704,0.3266139735290066,nan
1740794784.81486,1.8956361322026787,-1.2669408131860302,1.0937901939487293,0.44026238211538943,nan
1740794784.818766,0.7014544807371562,0.479693852132133,0.6430512484369764,0.045096435972004065,nan
1740794784.822672,-1.4924172874510222,1.9075729573512703,-0.5872881912565977,-0.493471254162175,nan
1740794784.8265777,-2.239276466568251,1.4802671969605357,-1.1400170687484061,-0.5451224983883457,nan
1740794784.8304834,-0.5591498926938324,-0.4305357685406931,-0.45699257690796613,0.09020354449793834,nan
1740794784.8343892,1.7876538257996797,-1.8713791992421533,0.7186945391763417,0.8175004184294541,nan
1740794784.8382998,2.1778976605153044,-1.3888972991898076,1.2684844131899484,0.7787182780988634,nan
1740794784.8422055,0.1088391362015079,0.40977285731348506,0.8150144890776672,-0.1689448125365419,nan
1740794784.8461113,-2.1526738834771035,1.5459441186419727,-0.06545952179382244,-1.14718652563926,nan
1740794784.850017,-2.0715425835087005,0.8533148145454194,-0.5658574666398535,-1.10932708937606,nan
1740794784.8539228,0.31971299561421623,-0.7523283165698575,-0.45145079704925917,0.004449323443384499,nan
1740794784.8578289,2.4611240111089394,-1.3206626982319534,-0.15576990301236338,1.1273695018454866,nan
1740794784.8617346,2.097397162871202,-0.08087016299961489,-0.17454805467115542,1.1750607374951636,nan
1740794784.8656404,-0.3159575201122639,1.6226306132927586,-0.4611219171575677,0.19738847168086487,nan
1740794784.8695462,-2.2468165563447293,1.7385253169815695,-0.48969220295975047,-0.7181454689516636,nan
1740794784.873452,-1.8770556654457349,-0.22217995923609057,0.0690383860425276,-0.6670531884433617,nan
1740794784.8773577,0.12169819476044831,-2.4999342710428647,0.8196473406354603,0.12028117366792274,nan
1740794784.8812635,1.6014782942187435,-2.772206636929588,0.9466043677311444,0.6303708020100972,nan
1740794784.885177,1.3140156724887775,-0.5052476857483394,0.1441052093982924,0.2383122711452311,nan
1740794784.8890827,-0.04108548393638271,2.4304829406439743,-0.8538653713564838,-0.652199288194748,nan
1740794784.8929884,-0.9480497739600576,3.4940087294488587,-0.9032638053241746,-1.1238268973028862,nan
1740794784.8968945,-0.7625397845462403,1.8123279300924087,0.2636829321113209,-0.7052293195598743,nan
1740794784.9008002,-0.06724973970761855,-1.1264742716515166,1.5179242778152096,0.2799787094432392,nan
1740794784.904706,0.3285700507799,-2.9422074944226426,1.3655397447174287,1.1531015948920775,nan
1740794784.9086118,0.28131258904070294,-2.4398093090800423,-0.3981722455940942,1.4325827357359306,nan
1740794784.9125175,0.15210001964537673,-0.3872270569793857,-2.2389809032151566,0.983278999814791,nan
1740794784.9164233,0.14182775305371378,1.44539415284339,-2.322275277403293,-0.05082554053936038,nan
1740794784.920329,0.12184191163075944,1.8309266033874187,-0.4272536594913142,-1.2021599236975078,nan
1740794784.924235,0.01981698715370715,0.8502853982528926,1.7485447639719913,-1.7163465180035438,nan
1740794784.9281409,0.0014204248481699752,-0.4724746299366973,2.3018720030305264,-1.0558417976461005,nan
1740794784.9320533,0.12273243509996866,-1.0603882946212162,1.024234614878055,0.4096718361172519,nan
1740794784.9359593,0.06306048767871582,-0.4989840828766935,-0.562946287754397,1.4381375090282569,nan
1740794784.939865,-0.47554903625511213,0.7194749279853538,-0.9839664481835634,1.0267711630706935,nan
1740794784.943771,-1.1403616020547107,1.4809508284233777,-0.32078888311637777,-0.4205962990145496,nan
1740794784.9476767,-1.0566289827016675,0.8402737429809978,0.19555885782507818,-1.3186139278729274,nan
1740794784.9515824,0.16934709588591307,-1.0527157507934362,-0.15086515861041797,-0.5594016593065362,nan
1740794784.9554882,1.7176193851746355,-2.72115072353951,-0.7345838327350065,1.144465848900735,nan
1740794784.959394,2.15881349630879,-2.4151955246403607,-0.5445260701818567,1.8903730090683208,nan
1740794784.9633,0.9254283738634105,0.16307429643320537,0.38842342523897355,0.6747065163738704,nan
1740794784.9672058,-0.981758399323064,3.1409223259777215,0.9593650250636713,-1.3829098163502662,nan
1740794784.9711115,-1.9407504309974208,3.8658900670603478,0.41093878656557925,-2.1730754034518833,nan
1740794784.9750173,-1.3221070161247193,1.4190863007515906,-0.6174285082285503,-0.8983642652655605,nan
1740794784.9789295,-0.002738585971350197,-2.2302134853134072,-0.80920435875361,1.0574349677779697,nan
1740794784.9828353,0.7159465223131902,-3.874618345103452,0.17545216140392028,1.6859116396239704,nan
1740794784.9867413,0.47391569589587723,-2.1218167973072184,1.1844623911710492,0.5393029259976392,nan
1740794784.990647,-0.01534482721398251,1.2184683233145952,0.9198034757375952,-0.9312369059037925,nan
1740794784.9945529,-0.02844400369725001,2.936939374061517,-0.4447007418469933,-1.145819374941902,nan
1740794784.9984586,0.31576595250489364,1.6214124098427585,-1.3732140436121982,-0.11223110981948621,nan
1740794785.0023644,0.3936138859878256,-1.0610471759291635,-0.754450298543526,0.8392559762490704,nan
1740794785.0062702,0.01753173256279199,-2.271450722238144,0.7327495386317316,0.7587930322038,nan
1740794785.010176,-0.3025203317530026,-0.9677144494280747,1.3280615701706768,0.05590578814420253,nan
1740794785.014082,-0.0873720838188171,1.2248266791356077,0.20117619088297783,-0.28868149772557866,nan
1740794785.0179877,0.39879728047740454,1.9818296119144176,-1.535305643978638,-0.04909032559092838,nan
1740794785.0218935,0.4246744129013303,0.7470579934333721,-1.9714671746890196,0.12835549601585516,nan
1740794785.0258055,-0.26605314211849995,-0.9587359705924513,-0.43124717727930045,-0.19109734204529127,nan
1740794785.0297112,-1.0443349143988738,-1.4367345506980407,1.8065426058237692,-0.5581550303947427,nan
1740794785.033617,-1.0632895898185268,-0.5702594572374343,2.778480459979131,-0.3323147044388064,nan
1740794785.0375228,-0.21589094150389898,0.4235847278911076,1.6776577350841773,0.2716416369829098,nan
1740794785.0414288,0.7496241177834906,0.6100534855780949,-0.5516206267013309,0.35552634547222034,nan
1740794785.0453346,1.0553035719766184,0.24080699529872607,-2.213102236177718,-0.36867072543718965,nan
1740794785.0492404,0.6628183183845834,0.05029633129420576,-2.2807098043694953,-0.9332930233011547,nan
1740794785.0531461,0.14666858005849664,0.1390503115678841,-0.9956089974733957,-0.20868828575495083,nan
1740794785.057052,-0.049532798564152915,-0.019477297450047306,0.5750778302080447,1.4828793926840755,nan
1740794785.0609577,-0.035170683433302624,-0.5826843267507568,1.3976311307163598,2.377223945771729,nan
1740794785.0648634,-0.16126374788392842,-0.8681593214156204,1.1119961425191138,1.1819798771442418,nan
1740794785.0687695,-0.4922110387144976,-0.1934659916682928,0.17686582418338506,-1.280773877261531,nan
1740794785.072681,-0.7358480736549678,1.0362970928849218,-0.5135192369247752,-2.7705079352224216,nan
1740794785.0765867,-0.6247939532180942,1.5403007837119032,-0.35878195177351524,-2.003673120017512,nan
1740794785.0804927,-0.19888526974827617,0.6142012254072485,0.38971114283200337,0.014385265970464647,nan
1740794785.0843985,0.31011378652180044,-0.9161631669119547,0.8284317437422797,1.2346060008480981,nan
1740794785.0883043,0.7159534863274252,-1.5180380449381954,0.32198946118412747,0.868889169936475,nan
1740794785.09221,0.8959594930732102,-0.6823995968303566,-0.7490592989262852,0.03820440120189872,nan
1740794785.0961158,0.7009190697528647,0.4985628030304675,-1.3114001560876947,0.13844853318924488,nan
1740794785.1000216,0.07930277007032109,0.6483948158509601,-0.7613761360986442,1.0575059958749449,nan
1740794785.1039274,-0.6614098747195385,-0.23350718486094574,0.3253083716990981,1.4186669624869048,nan
1740794785.1078334,-0.9334499306584719,-0.7840070551653177,0.8277305633306291,0.410031686970705,nan
1740794785.1117392,-0.4400363125646056,0.01264521641782455,0.3764295740449865,-1.1679933945464946,nan
1740794785.115645,0.35829020897218977,1.4613068453894578,-0.24224360638770334,-1.8861399099339582,nan
1740794785.119556,0.5905854119398222,1.8301231466109362,-0.10848506752555911,-1.339265569787907,nan
1740794785.1234617,-0.058821085458728765,0.35330238518798585,0.6240330386621618,-0.3768069816071612,nan
1740794785.1273677,-0.8566254413115278,-1.7498807961877,0.8841231106724229,0.19794577346122003,nan
1740794785.1312735,-0.7338206100981255,-2.4612737131032514,0.07716540315585652,0.5703545201903977,nan
1740794785.1351793,0.45341250015670703,-1.0706067574587375,-1.0324028040632813,1.2360458194472608,nan
1740794785.139085,1.5756219012849602,1.1015497845821343,-1.1600044874415234,1.7947982226109405,nan
1740794785.1429908,1.3505503987400884,2.090354688816963,-0.11088059949340978,1.1543064554255913,nan
1740794785.1468966,-0.21335864527658432,1.2138842294318821,0.8752267267115745,-0.8464869031570031,nan
1740794785.1508024,-1.6922181822188878,-0.4638199879687195,0.599648170789545,-2.5762984898016583,nan
1740794785.1547084,-1.6743091308350186,-1.4007128799455588,-0.56042942111751,-2.0710308685605856,nan
1740794785.1586142,-0.21614102954210035,-1.0408771608742886,-1.0335632106591373,0.5735337241901133,nan
1740794785.16252,1.2579372024091997,-0.016959948480586476,-0.012186104271777298,2.829122147379653,nan
1740794785.1664307,1.4616624306122317,0.7800723118678128,1.4034592077125647,2.2470755223160648,nan
1740794785.1703365,0.4754780408933425,1.0123822830558116,1.4126623441552382,-0.7660089613074785,nan
1740794785.1742423,-0.5699267962357368,0.8194357823903661,-0.2576267005308249,-3.157242293446931,nan
1740794785.178148,-0.8215542846434014,0.31031177815965316,-1.8230711537634152,-2.4176065856979685,nan
1740794785.1820538,-0.46383240532637615,-0.5302446572861558,-1.410388032874769,0.7055084621056831,nan
1740794785.1859596,-0.1812085152052635,-1.4503367889537517,0.6988897713161433,3.003552519402116,nan
1740794785.1898654,-0.18729649931102121,-1.7714249873814654,2.231057449418996,2.2353851089343895,nan
1740794785.1937714,-0.07225458183165395,-0.9243198466701118,1.4108249467842906,-0.587850391881856,nan
1740794785.1976771,0.4521355280894723,0.811368394560997,-1.0395104631661916,-2.459130640403758,nan
1740794785.201583,0.994186505840398,2.275081243333907,-2.667976277157906,-1.6106573731311258,nan
1740794785.2054887,0.8942207729167873,2.3209742533239845,-1.9193980601466831,0.8317903291663729,nan
1740794785.2093945,0.08063443250615739,0.8349323451787785,0.3483384099696628,2.315068078109102,nan
1740794785.2133048,-0.7576159504424725,-1.1258565880381044,2.0111427618017155,1.5362540575380197,nan
1740794785.2172108,-0.9381913102468173,-2.212015120080612,1.9588309782406366,-0.5490699413691473,nan
1740794785.2211165,-0.5384154286165379,-1.8447954185303763,0.8947287304170162,-2.0577527629746712,nan
1740794785.2250223,-0.19186198451334088,-0.5273913587251986,0.048701261782455325,-2.0183857839153836,nan
1740794785.228928,-0.20919825286903188,0.7422813693205421,-0.32838516599145673,-0.8377630481682622,nan
1740794785.2328339,-0.1764993026885892,1.2961454459428237,-0.8510050674862756,0.5597504146843366,nan
1740794785.2367396,0.41981734112985747,1.130125126798473,-1.685890114479396,1.556927197512886,nan
1740794785.2406454,1.3276159164680448,0.6209893037156816,-1.9761775345886385,1.8783031788302365,nan
1740794785.2445514,1.586288458278416,0.07447446617702032,-0.8653359096112779,1.3548112372928618,nan
1740794785.2484572,0.5738420965347796,-0.428235050764527,1.1900944811868344,0.08468218871004893,nan
1740794785.252363,-1.1384275890866857,-0.8512732018225198,2.588866766057171,-1.2730507244684581,nan
1740794785.2562687,-2.1737647264844404,-1.022506123238185,2.1827086138446616,-1.7918516291173616,nan
1740794785.2601788,-1.6432805386327105,-0.7214358057854995,0.4631451098657619,-1.1139691929198217,nan
1740794785.2640846,0.010524740523885297,0.04671137288256638,-1.032229287604358,0.11538301332601265,nan
1740794785.2679904,1.4664557792853996,0.9133944008451409,-1.3502938192644136,0.8493888135360366,nan
1740794785.2718964,1.72865044128367,1.3428364186422999,-0.8947367518509531,0.6749357691323098,nan
1740794785.2758021,0.8563480154261178,1.0195651483771409,-0.5908241328270479,0.11097705926051682,nan
1740794785.279708,-0.33513849473447893,0.09401536653319639,-0.6360502056443617,-0.12662030331398308,nan
1740794785.2836137,-1.0651805858002459,-0.9093732122640252,-0.3962667693658755,0.0453939687832183,nan
1740794785.2875195,-1.0535500348605171,-1.4225497632440707,0.5350476502840561,0.1410443607401282,nan
1740794785.2914252,-0.45907997714554144,-1.1544468212171015,1.5569192107584549,-0.117245384619362,nan
1740794785.295331,0.3440182674066109,-0.23752323927942295,1.6106680812471916,-0.3669719085344328,nan
1740794785.299237,0.898024449783643,0.8235929442930221,0.43135579529809276,-0.08854872679159485,nan
1740794785.3031428,0.8309775529760125,1.3857387817610147,-1.0092587615868318,0.6224549806565848,nan
1740794785.3070555,0.15417534884042272,1.0487069564431204,-1.439815550375283,1.0016161100117844,nan
1740794785.3109612,-0.6113148657792469,0.00632465835209742,-0.5892349302439764,0.4155751054382299,nan
1740794785.314867,-0.8112760063667762,-0.9655949684927011,0.5590461459448857,-0.8731882622740081,nan
1740794785.3187728,-0.30008616440763086,-1.0585939300678244,0.7984789157951647,-1.832115829298862,nan
1740794785.3226786,0.36139768294168045,-0.17283128348297697,-0.08834942185612966,-1.5596786926417128,nan
1740794785.3265843,0.48208453687758374,0.8706742150414571,-1.142395088445281,-0.08705404423150372,nan
1740794785.3304904,0.008454624603713998,1.019454926754943,-1.1780083629476872,1.6090699700023396,nan
1740794785.3343961,-0.4169078584917396,0.035653482269827334,0.08201916336533967,2.3234050999071347,nan
1740794785.338302,-0.22191396423344564,-1.1740199667739224,1.706395945415962,1.4931694730225364,nan
1740794785.3422077,0.394285098102582,-1.4070201988221174,2.3089469432046688,-0.3576727839164029,nan
1740794785.3461134,0.6844205657317188,-0.39529223626717563,1.2088514805291868,-1.9070615664968804,nan
1740794785.3500192,0.2532909474614896,0.9006481276939583,-0.9384085557985049,-1.9686099110351627,nan
1740794785.3539317,-0.4557485537676942,1.307139908447447,-2.570749513088201,-0.4874437451952196,nan
1740794785.3578374,-0.6888241087933905,0.6706223090091622,-2.434392699955053,1.2699020263358605,nan
1740794785.3617432,-0.27367746418436556,-0.08010018394972995,-0.6328698107727281,1.7320365344804294,nan
1740794785.365649,0.22756652677576739,-0.11092873378574,1.4163825231896154,0.5011393918927476,nan
1740794785.3695548,0.27234606218678,0.30066449802860246,2.1712465292299448,-1.1692118226843984,nan
1740794785.3734605,0.00980775092692988,0.1588448674884168,1.2818841400041647,-1.5779149628502853,nan
1740794785.3773665,-0.006836235859035154,-0.8818016929806726,-0.19537584169894742,-0.361380114637725,nan
1740794785.3812723,0.3232457888733541,-1.8551737941559125,-0.9000283773206952,1.0809329136182246,nan
1740794785.385178,0.412574153889052,-1.4598816800595529,-0.47803750663373706,1.133524210927738,nan
1740794785.3890839,-0.20838989459208118,0.3602888474060344,0.2253651921088182,-0.15418411304149518,nan
1740794785.3929896,-1.0460109618041313,2.1081013441980776,0.22571199320616384,-1.0572852597664326,nan
1740794785.3968954,-0.9873147435590937,2.196454897964566,-0.4921309356000953,-0.20878882311178262,nan
1740794785.4008076,0.356135346337632,0.6214178123008481,-1.0222950258032348,1.6051967578190711,nan
1740794785.4047134,1.880225525880562,-1.0354189344022449,-0.6186081992527213,2.1081909303746698,nan
1740794785.4086192,1.9178477804867502,-1.2967104252501676,0.4525634939605304,0.12269543674599286,nan
1740794785.412525,0.045643558168262474,-0.2901868819379717,1.2153701118028353,-2.8069219079186505,nan
1740794785.4164307,-2.2297116163315502,0.566597784891262,1.0257071283339005,-3.7676909679693704,nan
1740794785.4203367,-2.81554949511235,0.24083747870476824,0.16545068365013677,-1.5128696039943161,nan
1740794785.4242425,-1.092427727974835,-0.8150016701633425,-0.5702323146834095,2.1074861974604846,nan
1740794785.4281483,1.4649562721851361,-1.292059450209462,-0.6939742730202517,3.93262834359161,nan
1740794785.432054,2.7312656906333763,-0.5315184632624063,-0.3444222395256375,2.600018104462794,nan
1740794785.4359598,1.8903958591847903,0.8172532098233577,0.06080842197077264,-0.3070153887072628,nan
1740794785.4398656,-0.049947728793632455,1.581184073759848,0.2536831053701009,-2.119948107302636,nan
1740794785.4437714,-1.4730484998618225,1.2490633699257598,0.17667864939077177,-1.754607032451526,nan
1740794785.447683,-1.6184388638917273,0.2759962704794241,-0.1380303235164426,-0.3661829889015427,nan
1740794785.4515889,-0.8712200342076158,-0.5760050254225851,-0.5219611998322281,0.3569400095191438,nan
1740794785.4554946,0.024911230880842978,-0.9227145934962705,-0.5806106422450105,0.050583290841794276,nan
1740794785.4594007,0.6704096349603268,-0.8090155851956815,0.03694764752677341,-0.3300793759900543,nan
1740794785.4633064,0.9651670453617942,-0.40506131358064873,1.093448834299213,0.00219637357510332,nan
1740794785.4672122,0.7850212949003135,0.0981042147793934,1.6573954617176863,0.684785330110234,nan
1740794785.471118,0.07222332623673756,0.4098745612425602,0.885742990814019,0.8085400637949371,nan
1740794785.4750237,-0.7983540188926007,0.28671188644154,-0.9416818150728876,0.14928871218999415,nan
1740794785.4789295,-1.1023712274048163,-0.1153420643608245,-2.3610063111986257,-0.5604503951842154,nan
1740794785.4828355,-0.4673950809448339,-0.24924077298562838,-1.994169346548457,-0.5600312250400314,nan
1740794785.4867413,0.597973366547136,0.20928388145952537,0.01870000609367733,0.04929044181938276,nan
1740794785.490647,1.1201476346532748,0.8125847571727047,1.986743726533348,0.513124939654448,nan
1740794785.494558,0.6765232266411011,0.7064483503504201,2.2220097947183124,0.36063157109200833,nan
1740794785.4984639,-0.15950643203784745,-0.30638154856850686,0.650430116750156,-0.12059864229447279,nan
1740794785.5023696,-0.513470810177227,-1.2840725247228568,-1.1691934464279006,-0.3583932587586214,nan
1740794785.5062757,-0.23853403185262895,-1.0531648280211363,-1.6106460418903388,-0.21412735122517543,nan
1740794785.5101814,-0.026513877946627785,0.3702295511324389,-0.5008219802754699,-0.05348145563282848,nan
1740794785.5140872,-0.44727378252048156,1.5662504456212045,0.8852986426732398,-0.18387743342844196,nan
1740794785.517993,-1.0962704606898834,1.1712501013795267,1.1882574219073745,-0.4314492958604858,nan
1740794785.5218987,-0.9510147517425134,-0.5468550071092138,0.22035242599328805,-0.3571308492802891,nan
1740794785.5258045,0.40018685545960114,-1.8664012860376773,-1.02800417386549,0.20704375745590406,nan
1740794785.5297105,2.0733068237545713,-1.450153758272463,-1.4137890865829184,0.9323710460572516,nan
1740794785.5336163,2.5920602529721597,0.22402320158353287,-0.6118340958645251,1.263585418346243,nan
1740794785.537522,1.2814827635991937,1.4758909442106662,0.7376376429803215,0.8514711161997147,nan
1740794785.5414329,-1.0729531702008974,1.3174140404202337,1.6115819462837204,-0.20117732165815175,nan
1740794785.5453386,-2.8861136267483967,0.38257076253873323,1.3532067163699277,-1.3512275587230642,nan
1740794785.5492444,-3.006550800251701,-0.11445675664338609,0.11733105282855648,-1.8510831624614716,nan
1740794785.5531502,-1.4182131328092575,0.03417746163578967,-1.2069712308418814,-1.2086938964830956,nan
1740794785.557056,0.9328752518656479,-0.0669120168377268,-1.6015986953510073,0.31568183415792705,nan
1740794785.5609617,2.754062540575162,-0.9575040182071788,-0.7354911424441631,1.6719875326022446,nan
1740794785.5648675,3.023290834438237,-1.7929071262539449,0.6591783810459338,1.7657616344837852,nan
1740794785.5687735,1.5162624481015898,-1.2336714164495852,1.341125330897472,0.49920574340021845,nan
1740794785.5726793,-0.8914122595601484,0.7375010595445838,0.7043563380696896,-0.9737909375798156,nan
1740794785.576585,-2.5705115476829112,2.402425882190541,-0.5793801710282005,-1.2789217419007133,nan
1740794785.5804908,-2.2797809003340643,2.042382757829855,-1.1880920331639795,-0.23293079924468119,nan
1740794785.5843966,-0.3218876516512768,-0.08801806734363915,-0.5090367126589506,0.9096521203088161,nan
1740794785.5883071,1.525584478822407,-1.9024399690187226,0.7060350561665063,0.8001076198534064,nan
1740794785.592213,1.57509573164692,-1.6859896061432873,1.1581449296841968,-0.46235869331872603,nan
1740794785.5961187,-0.09024135051798798,0.11053160924517723,0.42681483810983334,-1.3711822796381972,nan
1740794785.6000245,-1.6188305505820355,1.4848978840805869,-0.5971886554156279,-0.7164865464168351,nan
1740794785.6039302,-1.2616953154789827,1.1183874500418918,-0.7705945239108619,0.9308407309675469,nan
1740794785.607836,0.7607301859987073,-0.33972992424225323,-0.019573024227418842,1.7288127526204873,nan
1740794785.6117418,2.4148963125343714,-1.25115400117761,0.6185023501406209,0.6193456051004655,nan
1740794785.6156478,1.9388788314213667,-0.8790054571425218,0.26868542557880243,-1.362978175550901,nan
1740794785.6195536,-0.33909614952988243,0.035155222245680795,-0.7139779391175916,-2.0889103728423026,nan
1740794785.6234593,-2.359584007338378,0.4449619972184171,-1.1485261869087497,-0.626953759109753,nan
1740794785.627365,-2.4123342512853725,0.2657989051747407,-0.41047640523320655,1.683483511395921,nan
1740794785.631271,-0.6945382417525212,0.20162503706734833,0.8453679448423783,2.5792989407212796,nan
1740794785.635181,1.159323771795638,0.5743453289599925,1.4352180251382254,1.1852757028420267,nan
1740794785.6390867,1.8035200214993454,0.8175495322702401,0.9298284428785188,-1.1755348111040882,nan
1740794785.6429925,1.2194928353720353,0.29210064595781565,-0.023563223037439105,-2.4253013789888107,nan
1740794785.6468985,0.22325726470527935,-0.7199847228176793,-0.5892275915929056,-1.756618095176253,nan
1740794785.6508043,-0.5813678814582361,-1.221414355339709,-0.6466391960056592,-0.1281185753616533,nan
1740794785.65471,-1.0873305461888296,-0.6945690933861249,-0.6409703770454379,1.0223346655056407,nan
1740794785.6586158,-1.193501389016124,0.23947127602421978,-0.7446303540935443,1.2029252909001642,nan
1740794785.6625216,-0.5899652757080904,0.561833837778647,-0.5539500846995327,0.9352412573332667,nan
1740794785.6664274,0.6913148474678182,0.0840053666663455,0.24664831840414891,0.7324605061524216,nan
1740794785.6703331,1.7882793539246935,-0.36851434823643064,1.1873591137721573,0.43538273232433683,nan
1740794785.6742392,1.5751737818396339,-0.03502339785324841,1.3409825205989057,-0.3310409709598695,nan
1740794785.678145,-0.07830114477767834,0.794392901835237,0.41074241261498967,-1.3316914583024733,nan
1740794785.6820574,-1.8520004563271728,1.1066979425345889,-0.7665237308176012,-1.7140046255582684,nan
1740794785.6859632,-2.117965234868679,0.39144714430030914,-1.0416455480682507,-0.9204745776830767,nan
1740794785.6898692,-0.6054070409067713,-0.7343291258536,-0.22705509431445076,0.568738056430986,nan
1740794785.693775,1.2588249594680463,-1.2260692261306203,0.6751806862780737,1.590184841532347,nan
1740794785.6976807,1.793930532669041,-0.7541579319499131,0.6038908333326332,1.4011709752764403,nan
1740794785.7015865,0.7478416680591672,0.049968756204438816,-0.3616976897092611,0.34116771649484157,nan
1740794785.7054923,-0.5966412241171408,0.42213220662694356,-1.1127933996649013,-0.6080554027371999,nan
1740794785.709398,-0.9144082027052971,0.2852092264787142,-0.7794982718731875,-0.8053701286375883,nan
1740794785.713304,-0.19366883972645182,0.1300137617522718,0.31875855201350334,-0.42327813344277687,nan
1740794785.7172098,0.4915520143379875,0.26326272348242913,1.0881661338957545,-0.043008796651375324,nan
1740794785.7211156,0.34548392539470674,0.4390737630445923,0.8816089445039701,0.028847304486575742,nan
1740794785.7250214,-0.31376768995470056,0.27279774232944215,0.10576757134430315,-0.04134882486383917,nan
1740794785.7289367,-0.613165944908654,-0.19532759728045956,-0.3819671648366411,0.017560372549942024,nan
1740794785.7328424,-0.2372273595861439,-0.5345127765662746,-0.2613792629385575,0.1995671401589273,nan
1740794785.7367482,0.2834930282072359,-0.45886855380015634,0.03112303775547228,0.27323335342711946,nan
1740794785.740654,0.33889970255831336,-0.13559392245993135,-0.024316213700179678,0.12217830519682041,nan
1740794785.74456,-0.0016982698930102103,0.09411203796546781,-0.38153778881099726,-0.0914785052351707,nan
1740794785.7484658,-0.17068560201795743,0.14602998928064323,-0.5577595180903729,-0.13002029106552968,nan
1740794785.7523715,0.10215089352657389,0.19516806965027128,-0.2736106986645237,0.02591870326007292,nan
1740794785.7562773,0.4430489110391871,0.31029674471552987,0.22936033509510306,0.15467425637141288,nan
1740794785.760183,0.3486800792235082,0.29147149451795684,0.520959023709203,0.05859941203503769,nan
1740794785.7640889,-0.14736919681913585,-0.03105964364684132,0.4668696593099224,-0.20074641107092395,nan
1740794785.7679946,-0.5157576631571658,-0.4575558743186575,0.26873960995517515,-0.36157455696364704,nan
1740794785.7719007,-0.3949651409044357,-0.5572821367186889,0.11128659666431698,-0.23888401783258106,nan
1740794785.7758126,-0.010382189074292997,-0.16992930387652755,-0.048438339882654266,0.08443191836292246,nan
1740794785.7797184,0.15979771764630032,0.3600530042622313,-0.2927338174995541,0.34307822888239825,nan
1740794785.7836242,0.000886165290593004,0.5413778179902666,-0.4906380660869402,0.34505734730152854,nan
1740794785.78753,-0.13795178003550668,0.26881948218022983,-0.3974730249556356,0.13362935649526014,nan
1740794785.7914357,0.04634573393943812,-0.1055900735403358,-0.004703191813405288,-0.08741427905898227,nan
1740794785.7953415,0.38268708792959766,-0.2187545213805744,0.3524082045079922,-0.1626147303381101,nan
1740794785.7992473,0.4362643161412478,-0.08931424739832369,0.33656035123330563,-0.10966095057213178,nan
1740794785.8031533,0.07221284774937146,-0.0022300774475625404,0.008507144538072522,-0.053219620062484214,nan
1740794785.807059,-0.3572318923187562,-0.09789481354260338,-0.22453599533321306,-0.06514211827841378,nan
1740794785.8109648,-0.4309470844733588,-0.2174087708802994,-0.08142213697140081,-0.09285108547105357,nan
1740794785.8148706,-0.14231241652814972,-0.16298683416645696,0.25812073523113027,-0.044743086244048116,nan
1740794785.8187764,0.1447887362783854,0.02456256266760313,0.3625961334918951,0.0789093396309144,nan
1740794785.822688,0.1672513240084851,0.14884468299667453,0.05707494074592599,0.16981229500319495,nan
1740794785.826594,0.04015251385717532,0.15045154789899975,-0.36706985117629876,0.1335731938595086,nan
1740794785.8305,0.01872212741621847,0.1703589669706012,-0.4764749065505823,0.006016721085667817,nan
1740794785.8344057,0.11159419066331676,0.28981157973407407,-0.1670267001319338,-0.08016670469455836,nan
1740794785.8383114,0.08124741133032037,0.33683702744688937,0.24717175633170319,-0.047521619622187754,nan
1740794785.8422172,-0.1781531426717651,0.08299772601057699,0.3891318024356612,0.034138565160526935,nan
1740794785.846123,-0.41554347843698186,-0.3957451028597284,0.19154244075562024,0.03237192946710949,nan
1740794785.8500288,-0.28831999077749043,-0.7000350019365225,-0.09960257693128122,-0.079954588021233,nan
1740794785.8539348,0.19268103644818843,-0.5262806178057545,-0.2237583075651089,-0.17583463476945307,nan
1740794785.8578405,0.6076800331588439,-0.0306709528408145,-0.141502196604625,-0.11427408063063557,nan
1740794785.8617463,0.5613706514681528,0.3340749273671902,0.005308171131150542,0.08660744501315844,nan
1740794785.865652,0.10293159081974526,0.3335192202835715,0.0823912170144382,0.24847601558149907,nan
1740794785.869563,-0.35053915509352185,0.18600976378268666,0.06706576827217609,0.2143992527922356,nan
1740794785.873469,-0.47043640534749925,0.2250187987837335,0.010288449534769708,0.012456415664253808,nan
1740794785.877375,-0.3092249398090774,0.42274456591442217,-0.031183426653765545,-0.17814105101378055,nan
1740794785.8812807,-0.1328457053098962,0.39622407115420705,-0.01611966806612509,-0.2117413445081735,nan
1740794785.8851864,-0.0658180661643306,-0.0871645406562287,0.06675327900960851,-0.10343091540526664,nan
1740794785.8890922,0.0013012451498225826,-0.7316577499175524,0.15965300218068176,0.024325733692978333,nan
1740794785.892998,0.17928802758413176,-0.958341651474425,0.14136854506313595,0.08508454793826187,nan
1740794785.8969038,0.37418841907177175,-0.517208927174271,-0.05944466594765434,0.08975739231134948,nan
1740794785.9008098,0.3850699015041972,0.23727789356112344,-0.3353110544708217,0.08274483597482547,nan
1740794785.9047155,0.1628584675607972,0.7124041930356643,-0.43610213143320126,0.06639350825682154,nan
1740794785.9086213,-0.11406824612241781,0.6500339824027233,-0.19864837589015627,0.015942601340611963,nan
1740794785.912527,-0.23832700205555415,0.28010371054443944,0.25017515405133894,-0.054976908329384566,nan
1740794785.9164379,-0.18825608326733836,-0.032099480302089776,0.5622522570790539,-0.0887322011551814,nan
1740794785.9203436,-0.10528418042781014,-0.16393903006790828,0.47857895603312917,-0.056144070089773686,nan
1740794785.9242496,-0.09691355430996348,-0.2266221054858293,0.07377191118563897,-0.005124739094978086,nan
1740794785.9281554,-0.12709270361725175,-0.2925801570768969,-0.3195325142638815,-0.0066850098487682055,nan
1740794785.9320612,-0.10334877576240131,-0.2721621952272709,-0.4236868972526588,-0.05902066312961616,nan
1740794785.935967,-0.007581722608500804,-0.07927089272423554,-0.24270974085035102,-0.07744791479542898,nan
1740794785.9398727,0.1031936417000367,0.18627849005804645,0.003356508958123948,0.004555927641941918,nan
1740794785.9437785,0.18901666168460726,0.31250797101689337,0.12180116616001811,0.14242262793298086,nan
1740794785.9476843,0.25290040552260123,0.2101678742622763,0.09882237113601022,0.21358666833598247,nan
1740794785.9515903,0.27136475861907494,-0.0005074378351062495,0.04165224360808143,0.1444072367607671,nan
1740794785.955496,0.17011007217130134,-0.1476538590895007,0.032642537254977955,-0.013782569977849777,nan
1740794785.9594018,-0.07264914572160536,-0.18395368950116836,0.06617765216355832,-0.1417607289207502,nan
1740794785.9633121,-0.32570109202902137,-0.16299503329426235,0.09320206741257737,-0.16973371579439336,nan
1740794785.967218,-0.3860318887788153,-0.09853094735661541,0.07705401607773511,-0.12401028685055603,nan
1740794785.971124,-0.1956669603292065,0.05503564844989929,0.00306444272884444,-0.06933203710014392,nan
1740794785.9750297,0.06433678581102749,0.2669920093846727,-0.11983069749927971,-0.03269657300454413,nan
1740794785.9789355,0.15106362281637362,0.3659586353530803,-0.2327170968948608,0.0054346013139139745,nan
1740794785.9828413,0.026134458955866652,0.2003289736705173,-0.22824133690364332,0.06385395374206242,nan
1740794785.986747,-0.10446130516054938,-0.14869790285344484,-0.03885994700517899,0.12839065087084717,nan
1740794785.9906528,-0.0357594234553158,-0.3967374779259401,0.2502494127858771,0.166100755240543,nan
1740794785.9945588,0.19267921774616945,-0.3408811739746483,0.4138788601383579,0.15283080751958558,nan
1740794785.9984646,0.3441347990682978,-0.07432830654137218,0.2730064402152038,0.08110453082398196,nan
1740794786.0023704,0.25952225934494705,0.13178740377260004,-0.10746014287427126,-0.03997053981189988,nan
1740794786.0062761,0.025266968688749208,0.13685963897794667,-0.433042794094245,-0.17316038053448904,nan
1740794786.0101862,-0.15509096136397577,0.05397387000054752,-0.4312882866165759,-0.2505157760499772,nan
1740794786.014092,-0.20366369841331622,0.0553382847151526,-0.10625788769602446,-0.21293053846500393,nan
1740794786.0179977,-0.21599222120405548,0.13338433216551487,0.2624881921274581,-0.07031282071392235,nan
1740794786.0219035,-0.27314076789608094,0.13234499492210844,0.38011708003354827,0.08935255251745688,nan
1740794786.0258095,-0.2885254494121266,-0.0070405356809403,0.19766229310483455,0.1718214373849377,nan
1740794786.0297153,-0.11134259605506446,-0.13680749219339677,-0.07391272781651442,0.15984721276402208,nan
1740794786.033621,0.23603738526447354,-0.09154882872778353,-0.18601273565265503,0.1122854143371689,nan
1740794786.0375268,0.5043461269314835,0.06919162315760405,-0.07756364147632555,0.08045526860314008,nan
1740794786.0414326,0.4525784137995894,0.10664357640168179,0.10003547979348518,0.04783885860894079,nan
1740794786.0453384,0.11550951961549095,-0.09150560426415187,0.14679483619194097,-0.02902675487644389,nan
1740794786.0492444,-0.21337553586900226,-0.331116717241805,-0.005096343945496878,-0.13470104097933544,nan
1740794786.0531502,-0.27781318184353815,-0.31137370349463794,-0.2407916291476711,-0.18623820826545345,nan
1740794786.0570626,-0.10726427779643256,0.015312255820576024,-0.3568059601807304,-0.1265975730520503,nan
1740794786.0609684,0.04897665738351131,0.3608829772406392,-0.215779541573405,-0.004264736114720603,nan
1740794786.0648744,0.009965932679812686,0.40975968169478294,0.13823232435158497,0.0716860121520787,nan
1740794786.0687802,-0.15384326774425766,0.15950697610421724,0.47905958128851267,0.055578554795020746,nan
1740794786.072686,-0.22673013109226425,-0.10006464860115205,0.5382436544431444,0.013842578784735953,nan
1740794786.0765917,-0.0974218455726158,-0.12719977416259057,0.2187421780926914,0.032360903019966726,nan
1740794786.0804975,0.1286295846920521,0.02062204917509033,-0.2814762329697009,0.09799875331618295,nan
1740794786.0844033,0.2542936997190495,0.09597716013040034,-0.5827847290947978,0.1100525160189278,nan
1740794786.0883093,0.1929642449589943,-0.037030327729292,-0.4326952661947544,0.014395758998294546,nan
1740794786.092215,0.03451308538108771,-0.27046988813276795,0.04776457529426469,-0.1101527589617026,nan
1740794786.0961208,-0.06630268944364817,-0.3990767712753604,0.437645546534844,-0.13288903098036853,nan
1740794786.1000266,-0.04095965726292931,-0.32164010523265085,0.3864486075299488,-0.028970045333945583,nan
1740794786.1039388,0.04853789233768177,-0.0731943846508396,-0.05164962942495473,0.08216742496263371,nan
1740794786.1078446,0.08908655405918409,0.26485296721652263,-0.4543342044790296,0.07333561329782018,nan
1740794786.1117504,0.024577162791423194,0.592127333188474,-0.4239035895782896,-0.040250471114398154,nan
1740794786.1156564,-0.10380402417705327,0.7385785724868034,0.03732878325251789,-0.12016010027437639,nan
1740794786.1195621,-0.20415915648754418,0.5103871596114272,0.5322571976004479,-0.07100623236040164,nan
1740794786.123468,-0.2131111498651982,-0.10167288216290236,0.639404287605366,0.04810857505165853,nan
1740794786.1273737,-0.13649374123341923,-0.7734841976051527,0.27961047532577166,0.10052697561107299,nan
1740794786.1312795,-0.022841799006555395,-1.022919075445442,-0.256697585758492,0.0398581019586552,nan
1740794786.1351852,0.09268404086168298,-0.6298595925162177,-0.5974832919572031,-0.037452337213537974,nan
1740794786.139091,0.20620350726498443,0.11892370958580165,-0.5793233331938656,-0.01657505470700918,nan
1740794786.142997,0.3030956472355287,0.6601600867829583,-0.29234023010634647,0.08865897185440841,nan
1740794786.1469028,0.3175199339137915,0.6594168128205159,0.07475716333297082,0.14522494449890666,nan
1740794786.1508148,0.17302895133544077,0.2779170708193679,0.37432044142571236,0.055697048550677676,nan
1740794786.1547205,-0.11097096086103066,-0.05875359977070847,0.5157847612773729,-0.12362696113730048,nan
1740794786.1586263,-0.37244402412494204,-0.11071391007518121,0.4417482737743061,-0.2353902087233853,nan
1740794786.162532,-0.41702321457704405,-0.0052312116828063995,0.1657459505033032,-0.1810174688265546,nan
1740794786.1664379,-0.20776234860924378,-0.002563465266464661,-0.1763060985201149,-0.01226807228593599,nan
