timestamps,TP9,AF7,AF8,TP10,Right AUX
1740793668.549138,0.4270047656124283,-0.21610997260534565,0.15799512005964333,0.038622937126562486,nan
1740793668.553044,0.2204202032148449,-0.3660788750049214,-0.30688347093262175,0.2018936013995235,nan
1740793668.55695,-0.07711668912190454,-0.30474172033778013,-0.5887222762411005,0.17273472937630774,nan
1740793668.5608559,-0.2350489137271079,-0.06111408106439391,-0.4885369660099362,-0.10483125761447679,nan
1740793668.5647619,-0.23041394061449574,0.19411469093612863,-0.12046956309196406,-0.34533075197343965,nan
1740793668.568668,-0.2151611745327281,0.2911236453407747,0.21751797105960363,-0.2290193833264138,nan
1740793668.572574,-0.26044230824702996,0.20964697868944324,0.3199043708667304,0.18000331449232088,nan
1740793668.57648,-0.2326524522629161,0.07650412515962059,0.21575550337189664,0.4493650525905211,nan
1740793668.580386,0.017812982234392972,0.009772170854614346,0.07273805972698677,0.265166890908426,nan
1740793668.584292,0.395137749364009,-0.010578137740020472,0.012527052785921377,-0.17955727593663778,nan
1740793668.5881977,0.5839835608888689,-0.08580446661219344,0.03283969886634821,-0.3885782091504042,nan
1740793668.5921037,0.3743156855895349,-0.2227902793671459,0.06448849814501253,-0.143029251939869,nan
1740793668.5960124,-0.0863698761867579,-0.27356708419227255,0.05015221644209166,0.23580001983063878,nan
1740793668.5999184,-0.41886313175458906,-0.10053051815545427,-0.031868835195891475,0.27091622944273486,nan
1740793668.6038244,-0.3836175104360638,0.21322834789924586,-0.16657055789421504,-0.09376821402281357,nan
1740793668.6077304,-0.08985298363297388,0.38694975101730494,-0.28609886453442174,-0.42139641942298955,nan
1740793668.6116364,0.15928871254320448,0.2242414581802195,-0.2834365110757046,-0.30283072434470876,nan
1740793668.6155422,0.174891144520752,-0.14655450322355873,-0.10330214846397891,0.1591082035491983,nan
1740793668.6194482,0.009879663066767921,-0.369287910676742,0.16391050332861873,0.4784871587783739,nan
1740793668.6233542,-0.16413953794459965,-0.2223272529860684,0.3258793621649804,0.35488288246781285,nan
1740793668.6272602,-0.22412119636870004,0.1412954103828595,0.272914832226388,-0.011143422084502773,nan
1740793668.6311662,-0.1354883842275572,0.34738254856447665,0.1040013032853358,-0.21047870541028776,nan
1740793668.6350722,0.08196705015073971,0.18853224610586192,0.016248675015212256,-0.12688955300224797,nan
1740793668.6389782,0.34111541463477724,-0.1686776682526618,0.05945686198147818,-0.020472898076024003,nan
1740793668.6428866,0.4646519582377393,-0.366727403867823,0.06174661572670276,-0.12430124846823655,nan
1740793668.6467927,0.28775222007683415,-0.21771521952901704,-0.14235970831940634,-0.30413412835280146,nan
1740793668.6506987,-0.14192640019356695,0.1346019670570766,-0.43985153088268053,-0.2308425248541722,nan
1740793668.6546044,-0.5103029640592726,0.3816198264694143,-0.49434276687162515,0.15862936084103793,nan
1740793668.6585104,-0.4868855602347076,0.334557489457698,-0.13113973533487255,0.5163902325953436,nan
1740793668.6624165,-0.07476507718664673,0.050007483447712074,0.3861094472569212,0.4641333392591144,nan
1740793668.6663225,0.33847334042632954,-0.2632370913606469,0.5688059299313273,0.041705383403036575,nan
1740793668.6702285,0.3480148926247536,-0.4104588437226324,0.23026496547859693,-0.32937161181336855,nan
1740793668.6741345,-0.044507866556907506,-0.3124802579547948,-0.26738018046348366,-0.3269596773864534,nan
1740793668.6780405,-0.41912752310117296,-0.027246927835224175,-0.37428337552956764,-0.07336444229008358,nan
1740793668.6819463,-0.36940380536553175,0.27692467951741084,0.04172967362156843,0.05856975612850183,nan
1740793668.6858523,0.08402711236919423,0.4039680984793807,0.5238808870107616,-0.07992676818376235,nan
1740793668.6897607,0.5354739184328091,0.2644884190822139,0.5045593288838157,-0.24227953422473805,nan
1740793668.6936667,0.6150766729708724,-0.03323176452150323,-0.08138412669363825,-0.11202883077348737,nan
1740793668.6975727,0.31288855721270187,-0.2529783519425178,-0.717060917482815,0.28581461861830326,nan
1740793668.7014787,-0.10528019632500857,-0.23461146577082231,-0.8298304858774687,0.582044966723879,nan
1740793668.7053847,-0.41072557348292266,-0.03904742256536676,-0.3415233531914581,0.4598153050595184,nan
1740793668.7092907,-0.5598766274322822,0.12334290664324532,0.3166053858364281,-0.014967139458283948,nan
1740793668.7131965,-0.567422115755197,0.1074278733160963,0.6629661862156082,-0.47808515644318916,nan
1740793668.7171025,-0.3690784237527597,-0.04019991539879751,0.5664924127583293,-0.62290793914382,nan
1740793668.7210085,0.08382267561206533,-0.16250262750338934,0.22966458004748236,-0.42597912225545365,nan
1740793668.7249146,0.6222639784178544,-0.15887563935010401,-0.09235957538032834,-0.06738017056656902,nan
1740793668.7288206,0.8783751124042106,-0.0454193830170142,-0.2708205314078496,0.2689901109082199,nan
1740793668.7327266,0.6019418989645556,0.11330826313424133,-0.2739097724912587,0.47742180152691355,nan
1740793668.7366357,-0.049786704842508286,0.261625457128073,-0.11520327572289595,0.49329970049478095,nan
1740793668.7405417,-0.6040244463441119,0.32601626946158135,0.09985164189070285,0.2892553753556915,nan
1740793668.7444477,-0.6901853924589987,0.20637870314522516,0.1661084592636815,-0.058478892407700094,nan
1740793668.7483535,-0.3545762183660117,-0.11507447013049876,-0.046760913112172335,-0.3625069261719448,nan
1740793668.7522595,0.04621276114466553,-0.4553202478022667,-0.38726506624331175,-0.45188390476376733,nan
1740793668.7561655,0.2269155754474319,-0.516857130661654,-0.4900774838997914,-0.31319240814562693,nan
1740793668.7600715,0.2060523948275976,-0.17918515687495615,-0.14364358750508138,-0.0775749087997637,nan
1740793668.7639775,0.1754277236172102,0.31104164646710486,0.4309628913973157,0.12433726010044444,nan
1740793668.7678835,0.215527014269713,0.5267004636264471,0.7550208113674498,0.2529156185634795,nan
1740793668.7717896,0.20605032369886467,0.2839020882432074,0.5742619910233214,0.30335000499587383,nan
1740793668.7756953,0.011692112879120673,-0.15747795729110547,0.10763211589084168,0.23116935907066555,nan
1740793668.7796013,-0.3050772348290536,-0.36611250529377154,-0.22990331290382487,0.010958492826387209,nan
1740793668.7835104,-0.5027153364105748,-0.19281528113460913,-0.2963773304960768,-0.24274685384922576,nan
1740793668.7874165,-0.38793959348233703,0.10889068296861155,-0.31422281919108713,-0.31032830192637645,nan
1740793668.7913225,-0.003656511530565074,0.2166073647880334,-0.48586213857004806,-0.0967822744163133,nan
1740793668.7952282,0.404666675002873,0.10519465678777747,-0.6422959457499956,0.20465123751789124,nan
1740793668.7991343,0.5871050539012578,0.004186459192810538,-0.4081858156755604,0.2702062484631029,nan
1740793668.8030403,0.4585355993903235,0.038831499374075165,0.28414314118476136,0.005042749081886633,nan
1740793668.8069463,0.11885425439704028,0.052976529629283356,0.9737969339853161,-0.31076426526705486,nan
1740793668.8108523,-0.24450258389575613,-0.13906860005084748,1.0731172629951373,-0.30611348241626707,nan
1740793668.8147583,-0.4719975184539447,-0.41474054994859844,0.47743291667725984,0.057473104558892235,nan
1740793668.8186643,-0.49816504449598253,-0.41250765272454526,-0.3075832157064509,0.4146027161281706,nan
1740793668.82257,-0.3539911174466572,0.018364288848326606,-0.6741770778367371,0.38398339907475265,nan
1740793668.826476,-0.12020484720321377,0.5488033519966914,-0.49397961479167185,-0.015006985040285118,nan
1740793668.830385,0.13177597867502713,0.673290687093313,-0.1535316929457175,-0.3895724405129767,nan
1740793668.834291,0.36126912312630133,0.2698242410481671,-0.0640569454486489,-0.4023287253751177,nan
1740793668.838197,0.5245935531102481,-0.25610214058531056,-0.2295647943593643,-0.10369667820538103,nan
1740793668.842103,0.5391033946763142,-0.4348618392563497,-0.3192061962069743,0.1869844787810264,nan
1740793668.846009,0.3215773749049106,-0.24787195568115694,-0.08422296945693375,0.26009865100213436,nan
1740793668.849915,-0.1040423358601472,-0.06986855264713353,0.3767655591129268,0.1882448418435266,nan
1740793668.853821,-0.54506821489605,-0.1330036035716736,0.7415338482295246,0.13394815355934836,nan
1740793668.8577268,-0.7331968946452537,-0.21666313846345844,0.7617202237886429,0.10037422976524205,nan
1740793668.8616328,-0.5288590121680021,0.021496048671394,0.41439185756662045,-0.03539770075597273,nan
1740793668.8655388,-0.05372222417632337,0.4989808739823782,-0.14805929651963237,-0.2786775278389073,nan
1740793668.8694448,0.38772659017825506,0.691751904360373,-0.6922181073019487,-0.4282231900607067,nan
1740793668.8733509,0.5378404965310419,0.24617828390860355,-0.9625068988258944,-0.295061507469777,nan
1740793668.8772597,0.363748683403864,-0.5093039032580571,-0.778424572507069,0.04550055097899746,nan
1740793668.8811655,0.04282012538895769,-0.8315670540267476,-0.18734177177576652,0.3102512614310729,nan
1740793668.8850715,-0.19798707214782812,-0.3681281667714464,0.48847363168262325,0.32164636491379167,nan
1740793668.8889775,-0.23422624045342244,0.4220879544734561,0.8496650069524567,0.18741053005745956,nan
1740793668.8928835,-0.0888842461861167,0.7442800084691109,0.7285110387538499,0.12106464619628962,nan
1740793668.8967896,0.11343438177486428,0.3155291307965943,0.2983806134505115,0.14377697393227015,nan
1740793668.9006956,0.22488169078058268,-0.36675286685458025,-0.13007760204207888,0.06605427256908192,nan
1740793668.9046016,0.155596952585264,-0.6059297887549929,-0.38448197663469535,-0.21809353415960445,nan
1740793668.9085073,-0.06357637973141361,-0.24326118342539726,-0.4764800690008426,-0.51448797107424,nan
1740793668.9124134,-0.2860870529912677,0.2600071267074148,-0.43557272107346007,-0.5030495997496928,nan
1740793668.9163194,-0.3525157044789644,0.40053411903428343,-0.22127164545394304,-0.1199890913884288,nan
1740793668.9202254,-0.2235863561239699,0.15034688414828096,0.1439826136212238,0.3230802068874582,nan
1740793668.924134,-0.010115848210852688,-0.13020306560473632,0.44354445915019347,0.45394050787958057,nan
1740793668.92804,0.14676159037947353,-0.165729278177258,0.4129990930112083,0.23212289373030814,nan
1740793668.931946,0.21867216360675978,-0.02141411062304595,0.0595801016183613,-0.037158209836039555,nan
1740793668.935852,0.28379752079270676,0.0835889206410625,-0.2639894032994518,-0.0703124505206636,nan
1740793668.939758,0.3711997864753519,0.06660453270748076,-0.2151629915879272,0.08961058872683571,nan
1740793668.9436638,0.3581074652250649,0.004303353147847613,0.12381387433286374,0.173029146800938,nan
1740793668.9475698,0.0883783486377205,-0.04670263280096213,0.2999348706840876,0.03054369551465219,nan
1740793668.9514759,-0.3894418789124202,-0.11257127223334668,0.017532544819905113,-0.20592956894366754,nan
1740793668.9553819,-0.7573543781705029,-0.17492860665321552,-0.4623310022335588,-0.31184082534017815,nan
1740793668.959288,-0.6779651309094289,-0.11123291599400552,-0.5668972476354467,-0.2344322750295346,nan
1740793668.963194,-0.14069915806958427,0.1344582528294157,-0.06959756980182435,-0.10404727964303459,nan
1740793668.9671,0.4696395710655954,0.37570152766216386,0.5978308610681398,-0.023808671920947242,nan
1740793668.9710083,0.6940604996828679,0.31917541928263726,0.7746969890718293,0.051494848839474965,nan
1740793668.9749143,0.4093229658173994,-0.0737328031266532,0.2798718759753338,0.19335341199110395,nan
1740793668.9788203,-0.08029350498884325,-0.45439907249799144,-0.39875842545790197,0.33429078630410436,nan
1740793668.9827263,-0.3499207727454504,-0.42402619816000314,-0.637583930540561,0.31901578944302417,nan
1740793668.9866323,-0.23800699941430037,0.009497644270187853,-0.31667555620793025,0.11844558943731988,nan
1740793668.9905384,0.06237903459708409,0.4110419647643305,0.13423766586404637,-0.09654171329564694,nan
1740793668.9944441,0.24471107217455648,0.39311512481292443,0.2666558293998148,-0.15301628981969942,nan
1740793668.9983501,0.17737133563740434,0.0351625202018248,0.06987356721551334,-0.09906710029026727,nan
1740793669.0022562,-0.0339135400933119,-0.2486890149747044,-0.12647889950133193,-0.1381937374765091,nan
1740793669.0061622,-0.20474441812873323,-0.21446301672132,-0.09022426947375828,-0.3290009198043053,nan
1740793669.0100682,-0.24154212020139282,-0.035770540577485944,0.09249407371734522,-0.44231586183613514,nan
1740793669.0139742,-0.17020654551261238,-0.009543604251767826,0.20850952152535143,-0.20882411942807752,nan
1740793669.0178826,-0.060379797171199304,-0.13409903593478403,0.1892125684320424,0.307272339312176,nan
1740793669.0217886,0.03820658930003507,-0.1246152454849349,0.11160456722219865,0.684421963442363,nan
1740793669.0256946,0.10462060789537582,0.15876602602437417,0.011840060033381781,0.5626708120497195,nan
1740793669.0296006,0.1388187225394655,0.4543278572978683,-0.1579046401403697,0.05292199950451772,nan
1740793669.0335066,0.1590963397443674,0.38677686742844425,-0.36209524579555025,-0.3519667596270891,nan
1740793669.0374126,0.1811889923920473,-0.04639375444109116,-0.4003235275259243,-0.2972474279833365,nan
1740793669.0413184,0.17976252846725585,-0.4254018860237929,-0.11982508313434634,0.057308467095967194,nan
1740793669.0452244,0.09169187290255605,-0.3913115285085003,0.3148045072394922,0.23205973897001117,nan
1740793669.0491304,-0.10498817954308796,-0.06804309281776619,0.5010654599337623,-0.024898085275028112,nan
1740793669.0530365,-0.3142148089918146,0.11408960511156083,0.22775941952411943,-0.45368587952310047,nan
1740793669.0569425,-0.3687417395990618,-0.023251906726902624,-0.2367791025175015,-0.5733605534118058,nan
1740793669.0608485,-0.19611269424002575,-0.17956491158697843,-0.39337200971571373,-0.21015766524834203,nan
1740793669.0647569,0.07056879800156145,0.015249994358212051,-0.06273460315214816,0.3232316215190079,nan
1740793669.0686626,0.19536601904415568,0.4656153808173366,0.39606691433931507,0.5722903218973813,nan
1740793669.0725687,0.08329451191650289,0.6475923186666972,0.47394640406931365,0.40499427944863453,nan
1740793669.0764747,-0.09816236205712547,0.22090043067187773,0.07004763750272919,0.09405740715848038,nan
1740793669.0803807,-0.08289320560673244,-0.5095848021079784,-0.417013030579268,-0.030686842981960095,nan
1740793669.0842867,0.1950528828388276,-0.8600555508240713,-0.5455051197686185,0.05707136973522981,nan
1740793669.0881927,0.49288956883643237,-0.4849965635628438,-0.28358518880958444,0.09560859901757048,nan
1740793669.0920985,0.4809405688301053,0.26039516764001275,0.04183791476639857,-0.12523695971043153,nan
1740793669.0960045,0.07813605855187068,0.7010838930501966,0.1690289806122797,-0.4945714358638232,nan
1740793669.0999105,-0.44731242567279406,0.514863172412702,0.1530552445492823,-0.6694318165725532,nan
1740793669.1038165,-0.7157753264430265,-0.027154084250414778,0.18461399575815457,-0.41693174913754905,nan
1740793669.1077225,-0.5660907652675626,-0.42524959539423474,0.28260481974090146,0.144164828769211,nan
1740793669.1116316,-0.156182399065752,-0.4362052603458413,0.28195934960199415,0.632067643345528,nan
1740793669.1155376,0.22553529724332608,-0.1783266944608883,0.09730120814003827,0.7223986336640369,nan
1740793669.1194437,0.40849505560282506,0.11693086227916093,-0.13289242847924818,0.4027459920160115,nan
1740793669.1233497,0.4081967132466911,0.3202508974109663,-0.22934628318338876,-0.048492557401418696,nan
1740793669.1272554,0.3108740508384341,0.38542677833467753,-0.2165308287667854,-0.3134802643400742,nan
1740793669.1311615,0.15854425601406189,0.2652353521354015,-0.2653967974672603,-0.2858666707564853,nan
1740793669.1350675,-0.03859740264477958,-0.03642236084077608,-0.394848965106179,-0.11580498408495862,nan
1740793669.1389735,-0.22537633802067003,-0.3616987303812591,-0.3618306888795171,-0.03383111124828106,nan
1740793669.1428795,-0.29924856813348005,-0.4690487234256399,0.044451724308172735,-0.12561494862182332,nan
1740793669.1467855,-0.2067154523501022,-0.2675907941535837,0.6415238195864653,-0.26041714620354833,nan
1740793669.1506913,-0.020968253933225118,0.06346899672297276,0.9241747613774783,-0.2299847846471971,nan
1740793669.1545973,0.1060403336265881,0.24982512794551315,0.5713524991718427,0.03734753448983398,nan
1740793669.1585064,0.0796072961294124,0.20459914410456936,-0.16878813628898745,0.38740860061939886,nan
1740793669.1624124,-0.05230427991126325,0.08445765775779068,-0.6874950849023455,0.5569694415007708,nan
1740793669.1663184,-0.14822832232256591,0.06527152070831288,-0.6176751330965249,0.3910474385722682,nan
1740793669.1702244,-0.10267358088292422,0.12998613091191902,-0.16924226573237527,-0.02565377051596848,nan
1740793669.1741302,0.06711149840036802,0.12541608695272366,0.15573967238641964,-0.4244190131140213,nan
1740793669.1780362,0.24313835643996076,-0.014409461541174028,0.11401387928581581,-0.5423784051620144,nan
1740793669.1819422,0.30106160411538613,-0.18236994161425876,-0.08538519667896119,-0.30536959565726335,nan
1740793669.1858482,0.19534891629751613,-0.24481274200608902,-0.10966603930260108,0.11639100167904881,nan
1740793669.1897542,-0.01685856544358334,-0.19911799385792922,0.08874640644792237,0.41690523259377815,nan
1740793669.1936603,-0.21457434035332879,-0.12974880765040303,0.26215134624325936,0.36979419360793647,nan
1740793669.1975663,-0.28622005291297403,-0.05426458350859793,0.2132341315062538,0.012813051983499421,nan
1740793669.201472,-0.19835839537032057,0.09075052601661762,0.0380346141566904,-0.353627821121144,nan
1740793669.2053812,-0.0193065113504933,0.29136078347745575,-0.02029667568321236,-0.3986574385701296,nan
1740793669.2092872,0.12448680530688763,0.37648577485407486,0.10363633840214595,-0.06147945919086316,nan
1740793669.213193,0.136542791432065,0.19256882435384806,0.2044425970493335,0.36033423788528357,nan
1740793669.217099,0.019796460985501974,-0.15671518071198173,0.05003540049058598,0.46544648649386494,nan
1740793669.221005,-0.12716785745531892,-0.34855416144231566,-0.333183756116914,0.13880656956879936,nan
1740793669.224911,-0.1830827538375325,-0.18269723454914186,-0.6541978395426883,-0.31412896301303456,nan
1740793669.228817,-0.08749429932588718,0.15983575050299265,-0.6194095671803489,-0.45833750867318057,nan
1740793669.232723,0.12355053985873567,0.28343059125498044,-0.18409651111712924,-0.16831806640711117,nan
1740793669.236629,0.34130783207703747,0.016726136561056593,0.4207116467035098,0.24780685296803862,nan
1740793669.2405348,0.43957055509357457,-0.37751822982970995,0.8544460307042034,0.3808171940254812,nan
1740793669.2444408,0.33219851255417077,-0.475465037501063,0.8669484451706523,0.14848232563639954,nan
1740793669.2483468,0.020161155947248457,-0.1435925607000522,0.42779043367627567,-0.15290593360852087,nan
1740793669.2522557,-0.3854838318579176,0.3333928737300818,-0.24334338586107368,-0.2155398755255091,nan
1740793669.2561617,-0.6910690339443518,0.5613649866933795,-0.7701807525787668,-0.06453079948671572,nan
1740793669.2600677,-0.7116417506841098,0.40912984361365734,-0.839085044014052,0.02368679756892131,nan
1740793669.2639737,-0.38856747092840943,0.058467480657290134,-0.4288515863754739,-0.09015380980046503,nan
1740793669.2678795,0.14858009780006462,-0.237506396946784,0.14993307808308048,-0.21053303759874104,nan
1740793669.2717855,0.6379322518215638,-0.3600985377288518,0.4886837007494961,-0.06213231521980177,nan
1740793669.2756915,0.8363734859644475,-0.3138801657792202,0.40897047678952186,0.3142235258733317,nan
1740793669.2795975,0.6633643362961992,-0.13315713828902434,0.08578943930968645,0.5381298263659028,nan
1740793669.2835035,0.2356527792580144,0.11542107751564444,-0.1458854099037335,0.3108719280611802,nan
1740793669.2874095,-0.22422378426347328,0.2860988734843978,-0.10247698778378525,-0.2068600404450417,nan
1740793669.2913156,-0.5272669138862478,0.2300063534084469,0.11537443784263406,-0.5319853481929392,nan
1740793669.2952213,-0.6025688805770939,-0.031647039948362925,0.259075618144119,-0.38026683993724253,nan
1740793669.2991302,-0.4857760164734504,-0.2712107812212839,0.1668763602938766,0.027928765029172672,nan
1740793669.3030362,-0.25401123615383475,-0.26538353584728114,-0.11758257431823284,0.23590841390346096,nan
1740793669.306942,0.020967423575783264,-0.03280546513311507,-0.3980942676212296,0.0762396085025957,nan
1740793669.310848,0.27312608576046626,0.19835350610677052,-0.4638014598271973,-0.16386822990834965,nan
1740793669.314754,0.42957031227523657,0.26189284724039025,-0.2228460571827394,-0.11921796192289444,nan
1740793669.31866,0.43000255574751023,0.21699318286213126,0.2143558204093945,0.19873858152405247,nan
1740793669.322566,0.27415224717710673,0.19479733630236568,0.5583371143714458,0.4142707143198068,nan
1740793669.326472,0.04320528990052727,0.1555151631979282,0.5202067546132002,0.2418013430003429,nan
1740793669.330378,-0.14550237920960904,-0.07355575848405205,0.0690475579336642,-0.16775494657219017,nan
1740793669.3342838,-0.221686786717308,-0.48979550068429145,-0.46657694130391636,-0.395742188625884,nan
1740793669.3381898,-0.20522512547874652,-0.7646289763509437,-0.6273073905670519,-0.2285879905934848,nan
1740793669.3420959,-0.1649680926610224,-0.5380160873039845,-0.24008464118442402,0.11958163004636886,nan
1740793669.3460045,-0.13702340574421534,0.13268560809400162,0.3762975788968112,0.26943240462801404,nan
1740793669.3499105,-0.09207458031658894,0.7341520928329066,0.6714110343372852,0.09204603476436109,nan
1740793669.3538165,0.01173120955033181,0.7896897961049818,0.3761392479053721,-0.1926386630915769,nan
1740793669.3577225,0.1518260574682825,0.34814180290221763,-0.2381608237300794,-0.29593685823059807,nan
1740793669.3616283,0.23457118473924654,-0.10246538993224209,-0.6238851273509471,-0.15544011543846986,nan
1740793669.3655343,0.17908620531562539,-0.19694105042662438,-0.4764226521628263,0.06924285545538085,nan
1740793669.3694403,0.00890625242424123,-0.06355238995217602,0.01409792166220504,0.21796262272340108,nan
1740793669.3733463,-0.1486878312062377,-0.080843510207439,0.3986893048599422,0.26396650260045096,nan
1740793669.3772523,-0.1659042641712385,-0.35462651617801444,0.4054778756491355,0.24136371419964117,nan
1740793669.3811584,-0.027142128495326562,-0.5745582301023459,0.13151516265772087,0.13901107062573614,nan
1740793669.3850641,0.15282995420876033,-0.41019518990266796,-0.1362065286232633,-0.06160185828966225,nan
1740793669.3889701,0.22124658998727625,0.07002833926777535,-0.2115730711548579,-0.277005001150267,nan
1740793669.3928788,0.10970810937041157,0.47489141461588924,-0.1162529387888302,-0.34299197388290764,nan
1740793669.3967848,-0.11280683300116005,0.5357730047775655,0.02257642065355284,-0.1888706120531788,nan
1740793669.4006906,-0.29274858521017133,0.3521594286176432,0.10206919508913806,0.050795522298219896,nan
1740793669.4045966,-0.30524490184546355,0.17382799836470475,0.08177737399635515,0.15785094795351245,nan
1740793669.4085026,-0.14259392718235242,0.06776109566197594,-0.02547484085034344,0.06663766386504312,nan
1740793669.4124086,0.08567602974607992,-0.08110091001957752,-0.1458462646348392,-0.06524118114933321,nan
1740793669.4163146,0.23963408118936727,-0.29381862457400565,-0.16098539976346793,-0.04356292701016935,nan
1740793669.4202206,0.2532469451159014,-0.3947660851762201,-0.006295232842392294,0.13559013623602045,nan
1740793669.4241266,0.16861453754645325,-0.2595296739270556,0.22341286714906428,0.28242532352207145,nan
1740793669.4280324,0.07240928769643255,-0.047489630903027186,0.3148624132619696,0.22831273655413722,nan
1740793669.4319384,0.0027320564123253606,-0.02788601815422465,0.13865696349961712,0.004461925739501914,nan
1740793669.4358444,-0.07088273763846342,-0.18241503799685815,-0.1890392012375013,-0.20624358773210394,nan
1740793669.4397528,-0.17190316647544668,-0.15389222258568544,-0.38860864503491677,-0.26186743491072106,nan
1740793669.4436588,-0.2427925974050476,0.29003459718639546,-0.2848345148715947,-0.1747011632519824,nan
1740793669.4475648,-0.18363296959069442,0.8338251047826424,0.02118132724268899,-0.05296457128296028,nan
1740793669.4514709,0.01777194527742267,0.8505490881170423,0.2620203937103945,0.019055749266434656,nan
1740793669.4553769,0.21986690580614152,0.12800386709410233,0.269045223463306,0.027477254875132955,nan
1740793669.4592826,0.23807965760957747,-0.7717136433708068,0.10582605112440227,0.00026048530742147366,nan
1740793669.4631886,0.04184028920027384,-1.0309122576588199,-0.04507259944715913,-0.01821193893883989,nan
1740793669.4670947,-0.1840286098534378,-0.4459447469865301,-0.07872890093693691,0.026331088928335796,nan
1740793669.4710007,-0.21173331612524138,0.34973150080837795,-0.03117739297253614,0.15879218112371504,nan
1740793669.4749067,-0.008966265376622616,0.5835322197730618,0.01084756036610922,0.30902596370727914,nan
1740793669.4788127,0.2216933043545678,0.1625190283785432,0.004310863062652284,0.3211005358835452,nan
1740793669.4827185,0.2566754904224594,-0.31338338442246166,-0.04796454644532881,0.09176616957681213,nan
1740793669.4866278,0.08278111134487169,-0.29962580024619195,-0.13002407047753262,-0.28140206959020486,nan
1740793669.4905336,-0.11270046601322853,0.10391483191499143,-0.2011663510757639,-0.5316864083872961,nan
1740793669.4944396,-0.16813702076387702,0.37945777620658583,-0.1781354682771668,-0.4521253685344791,nan
1740793669.4983456,-0.11217721348026195,0.2652520329409837,0.00291046935707509,-0.10107491866829427,nan
1740793669.5022516,-0.07794610795565382,0.013433632996331152,0.2794114139486931,0.24223269421195728,nan
1740793669.5061576,-0.09913225055453428,-0.030383530267711824,0.4599374003713831,0.3373645631066541,nan
1740793669.5100636,-0.06731182920518722,0.08702646731163828,0.38373538363239673,0.18959821441541716,nan
1740793669.5139697,0.08979539625308312,0.022387767573375274,0.08682621203061842,0.0026631210834957265,nan
1740793669.5178754,0.2556972161357664,-0.3373910199860854,-0.22553691378783,-0.043697494441811625,nan
1740793669.5217814,0.23049676589085732,-0.6372603525952228,-0.38166526141298823,0.05232423365705061,nan
1740793669.5256875,-0.010536076000988373,-0.44435600959724886,-0.38488371895494844,0.15677717405097205,nan
1740793669.5295935,-0.23928500544973483,0.204434936248558,-0.33258172913364487,0.14560293215319642,nan
1740793669.5335026,-0.2131513800807405,0.7721251149384987,-0.24009004693807143,-0.0028562746343683693,nan
1740793669.5374086,0.037490352407818645,0.7537345188810397,-0.021926609327968673,-0.21272000958174478,nan
1740793669.5413144,0.23116098366919127,0.16793551806111157,0.3329584822042684,-0.3592341658110439,nan
1740793669.5452204,0.15994032187483756,-0.4958170920893413,0.6367076183221778,-0.3297961849875492,nan
1740793669.5491264,-0.07082629069892629,-0.7418652990986838,0.6369159331902601,-0.10422145653098151,nan
1740793669.5530324,-0.18341702905874277,-0.44115075747017046,0.2864338486868545,0.19017267439847474,nan
1740793669.5569384,-0.07445339959649512,0.15720738685789745,-0.1762526161428714,0.34435879074206016,nan
1740793669.5608444,0.06855740598419931,0.644085724155338,-0.4530408349615755,0.2522212498061908,nan
1740793669.5647504,0.027123466080908504,0.6882590330929815,-0.4645865496496201,0.03511423322129636,nan
1740793669.5686562,-0.14899665189688086,0.2316791044676187,-0.3630819395055649,-0.07046480531079656,nan
1740793669.5725622,-0.19714335407456315,-0.4149420892209786,-0.291186124150729,0.02111555303653156,nan
1740793669.5764682,0.010288335452238525,-0.7394582673889676,-0.20511107624293487,0.13354595490578655,nan
1740793669.580377,0.276074409343189,-0.47019916881388996,0.02266359902871126,0.04059203177754336,nan
1740793669.584283,0.3068806324502218,0.09701676955423211,0.3743465523993545,-0.22832346885755872,nan
1740793669.5881891,0.08004551441643776,0.34836381203115097,0.6410478488577953,-0.37961457225893674,nan
1740793669.5920951,-0.1252265029937118,0.04458001405952749,0.6237038801121038,-0.19842224590617566,nan
1740793669.5960011,-0.08408592565365128,-0.32824944384882415,0.33015083040737314,0.16082146594633356,nan
1740793669.599907,0.08414156226786008,-0.09537281591076295,-0.0593707199841938,0.32216818923914486,nan
1740793669.603813,0.07427173325591299,0.7033866932237379,-0.38072058913298507,0.12987918018521216,nan
1740793669.607719,-0.19208788329163626,1.1801642492072872,-0.5802843942355125,-0.15689325517588765,nan
1740793669.611625,-0.4332779148544618,0.575799915671255,-0.6389945365399516,-0.18078128745491504,nan
1740793669.615531,-0.3385635873540588,-0.7292372153129549,-0.49735434117123084,0.06728187671054417,nan
1740793669.619437,0.04982709132773736,-1.4821545204466642,-0.1267467252390737,0.24359661650544914,nan
1740793669.623343,0.38523264278291236,-0.9507203926385576,0.3522455551851784,0.10839593442618049,nan
1740793669.6272516,0.42034544299195087,0.19134020936692167,0.6999972307332064,-0.14927063355863784,nan
1740793669.6311576,0.24070118639998517,0.6554348893778447,0.7356292579707114,-0.164288194514327,nan
1740793669.6350636,0.058378689270944605,0.12613876264119533,0.4592340145168151,0.09220245707664963,nan
1740793669.6389697,-0.09078639345696142,-0.3533277251833954,0.002933279342511174,0.24396709375959985,nan
1740793669.6428757,-0.28706141985952227,0.20088387706228664,-0.4656691322659093,0.02607858417225793,nan
1740793669.6467817,-0.4133296476941942,1.2417594313895834,-0.7475616301306506,-0.29477118105090705,nan
1740793669.6506877,-0.15447483970659276,1.1980807273928524,-0.6202635285024277,-0.23424970451150828,nan
1740793669.6545935,0.5109610192160345,-0.43119745744482185,-0.028352714105261415,0.19182249250744302,nan
1740793669.6584995,0.9564042259535386,-2.0238574945153385,0.6699631989510281,0.3379798506107567,nan
1740793669.6624055,0.3945856175666544,-1.489853210843945,0.8197273218811878,-0.2599469101427005,nan
1740793669.6663115,-1.0909799801099602,1.0408561650054433,0.08565085768075534,-1.0645806245470821,nan
1740793669.6702175,-2.2001663733326016,2.8426060734899754,-0.9961496805150227,-0.897628115029129,nan
1740793669.6741261,-1.5006527239293195,1.458507892406918,-1.3074562977612938,0.659147909972023,nan
1740793669.6780322,0.9465190993749371,-2.2284820057437638,-0.2510497224526554,2.4052109512530784,nan
1740793669.6819382,3.230195074755264,-4.452156565988632,1.4238628850265767,2.4568576978090784,nan
1740793669.6858442,3.1988457159339756,-2.473497594218466,2.138221564964896,0.23748558773724543,nan
1740793669.6897502,0.5875068712033144,2.2445125692392938,1.0336123825228607,-2.627784945697298,nan
1740793669.693656,-2.557543245810964,5.2822642083812115,-1.0330171854965333,-3.683480657467485,nan
1740793669.697562,-3.718038931039591,3.7782371173707463,-2.2329816709683583,-1.9964053332662128,nan
1740793669.701468,-2.1856896807292716,-0.655285326896989,-1.5789885561057238,0.9602542947143755,nan
1740793669.705374,0.49745922665903924,-3.755686315092171,0.11489639326239393,2.8035465741141974,nan
1740793669.70928,2.226151118757014,-3.0666499933890887,1.1754081559014216,2.477058445230928,nan
1740793669.713186,2.2198979129138854,-0.14453276340065824,0.856682174913145,0.901906805890159,nan
1740793669.7170918,1.2162431098828224,1.6202311877736975,-0.01719618466589845,-0.38604153456786255,nan
1740793669.7210004,0.16846457337822618,0.7780233499735775,-0.1942016265280352,-0.8388084384288905,nan
1740793669.7249064,-0.7413590231209971,-1.033355829475817,0.49449297527101216,-0.9791744921025118,nan
1740793669.7288125,-1.674792602334627,-1.4173293584886457,1.019317650573359,-1.2258768144820493,nan
1740793669.7327185,-2.1893279615377,0.05248775692215321,0.4739418808395603,-1.1853137744664028,nan
1740793669.7366245,-1.3626967245964923,1.744032339514172,-0.8123996850101988,-0.3168128597793628,nan
1740793669.7405303,0.9130430893930158,2.1018274677526048,-1.662919905555503,1.0326851670920678,nan
1740793669.7444363,3.1397397586461744,1.1658768303725076,-1.3668469977267368,1.7373826457459414,nan
1740793669.7483423,3.2826678587434093,-0.05918203111353212,-0.3103238403783329,1.1373712846505586,nan
1740793669.7522483,0.8539778709334551,-1.0208382116128094,0.6819020975235581,-0.1374481451728347,nan
1740793669.7561543,-2.2988631113409657,-1.8002555490269592,1.2588684563857524,-0.8630029684769184,nan
1740793669.7600603,-3.603131667866542,-2.1633898494818817,1.5259219907151595,-0.6204151808591715,nan
1740793669.7639663,-2.21989594798261,-1.3234143339893032,1.3566899157175472,-0.16280864064984982,nan
1740793669.7678747,0.24826159052920058,0.8550400459405422,0.29700152718293815,-0.30271680656677985,nan
1740793669.7717807,1.5453352805711844,2.8636002529122093,-1.5548024878581541,-0.7649692000738405,nan
1740793669.7756867,1.0697368901035396,2.619668481083224,-2.920823530668521,-0.523265374253551,nan
1740793669.7795928,0.2127700904480904,-0.1473213336735859,-2.242551761133267,0.7511407278987416,nan
1740793669.7834985,0.49349870822585973,-3.0394017632917794,0.5095920275347137,1.9847607884718874,nan
1740793669.7874045,1.6976101545453086,-3.1279694638648925,3.2427930235490723,1.7593543159024922,nan
1740793669.7913105,2.122331194513985,-0.03598942566042388,3.468607955650057,-0.029705731724431406,nan
1740793669.7952166,0.5878053798315624,3.4699010714410154,0.7988668362193282,-1.897232905244022,nan
1740793669.7991226,-2.086398608730043,4.175281013341843,-2.4918026965362046,-2.265604917557077,nan
1740793669.8030286,-3.7717790043890425,1.526766957384115,-3.6002018488302254,-1.0426182875524077,nan
1740793669.8069346,-3.0993754494912262,-2.1115632643146034,-1.8371856589077793,0.4674850751526768,nan
1740793669.8108404,-0.6957473954139766,-4.026605145628132,0.962964239096327,1.0746569083344863,nan
1740793669.8147488,1.5861060740899895,-3.510123201087142,2.5002755039233016,0.8101241545923236,nan
1740793669.8186548,2.4454370819705127,-1.6708255191976142,2.126596803667319,0.48706819176985494,nan
1740793669.8225608,2.0446765831228,0.3778966877139259,0.8587806066215379,0.5206320628604472,nan
1740793669.8264668,1.3503693896762303,2.38335949786437,-0.23690999498886461,0.5569614304323187,nan
1740793669.8303728,0.9142939024826584,4.069640021889684,-1.0673053667320975,0.20427356047980735,nan
1740793669.8342788,0.471120284160758,4.298730452565524,-1.8654482741224399,-0.31733165932805196,nan
1740793669.8381848,-0.4166613582273642,1.9927579722461648,-2.1557145114616345,-0.5431812525912032,nan
1740793669.8420906,-1.6110641442467624,-2.082923863717536,-1.0707153495895816,-0.5455799380074113,nan
1740793669.8459966,-2.426999256302771,-5.180909548639336,1.2319638469091978,-0.8694588881165417,nan
1740793669.8499026,-2.3015472696592942,-4.861379939187783,3.059202612236273,-1.5557469478533688,nan
1740793669.8538086,-1.287439681078655,-1.4409404106355812,2.6624069816088083,-1.637122308978901,nan
1740793669.8577147,0.10317256984801662,2.195636956647752,0.22010615399773814,-0.11278844765192735,nan
1740793669.8616238,1.3810666682226662,3.369596496919754,-2.0972331784400846,2.5307221078257105,nan
1740793669.8655298,2.295684030673005,2.0095867393263953,-2.3077788032550512,4.218060102070864,nan
1740793669.8694358,2.6645295227308043,0.20145480860155426,-0.6674083778333747,3.141420863393952,nan
1740793669.8733418,2.2263218030025085,-0.3334734227896133,0.767755357339387,-0.25851112791313346,nan
1740793669.8772476,0.8526424051138678,0.12393387113736298,0.5610032444931826,-3.4430748790575794,nan
1740793669.8811536,-1.0870123660850044,0.16726891394777885,-0.5323274203924477,-4.082235653591849,nan
1740793669.8850596,-2.7135583258388523,-0.7363946244157481,-0.6532687544672394,-2.149698319820427,nan
1740793669.8889656,-3.1585644833596915,-1.6076636419139732,0.7637057717221504,0.33396283398573884,nan
1740793669.8928716,-2.202928688559183,-1.2644993547082046,2.178019290835622,1.4658883813564274,nan
1740793669.8967776,-0.4402361670216586,0.18115245228765015,1.7022141509626478,1.1291972559261456,nan
1740793669.9006834,1.1862113516532096,1.4213092023138039,-0.631873888408598,0.5696522299991815,nan
1740793669.9045894,2.0318807457819177,1.3807977902886068,-2.746738388849648,0.7180193559653895,nan
1740793669.9084985,2.0234271519170965,0.24865267367378552,-2.672216389642636,1.2696378054618507,nan
1740793669.9124045,1.4362655861449383,-0.9011270064690731,-0.5372137835693068,1.317770119265431,nan
1740793669.9163105,0.553052277787792,-1.2097277291438184,1.726832177661936,0.4810262307981764,nan
1740793669.9202166,-0.40934733672026435,-0.6091597505282098,2.4308727190847836,-0.8073764809610428,nan
1740793669.9241226,-1.1519334592673236,0.42138394387524,1.5666322166132853,-1.8759005864234666,nan
1740793669.9280283,-1.2988943688784063,1.2800382169608528,0.2814806629987634,-2.30612902646435,nan
1740793669.9319344,-0.7234747995312137,1.4213208038629226,-0.6075393758441463,-1.8823577835316498,nan
1740793669.9358404,0.1472172266090076,0.5508255443729831,-1.197816169162563,-0.5161726982360998,nan
1740793669.9397464,0.541080584294698,-0.9728513111188937,-1.7494546592098326,1.412056326635162,nan
1740793669.9436524,0.047182614582657885,-2.0429585338517535,-1.8855267531131898,2.8179600291192886,nan
1740793669.9475584,-0.8590732421146335,-1.5828567688165343,-0.9296806876787501,2.5639656434693174,nan
1740793669.9514642,-1.1423356795468853,0.28637834438521326,1.0434434141983553,0.6561895721021148,nan
1740793669.9553733,-0.2204058651269476,2.0262955148872797,2.853046200394806,-1.4233321560067498,nan
1740793669.9592793,1.328341112229833,1.9994478445377541,3.127572110071891,-1.9866376783036588,nan
1740793669.9631853,2.187626064257791,0.1458549333222208,1.5414336707212843,-0.8391564673681662,nan
1740793669.9670913,1.5469524665765468,-1.824870774159797,-0.9178465137305972,0.5364986090093667,nan
1740793669.970997,-0.07424595149890592,-2.0868616765129357,-2.808086520423477,0.6548086499112116,nan
1740793669.974903,-1.3124750234411047,-0.4976298669309653,-3.2367006315460074,-0.32412748936108254,nan
1740793669.978809,-1.2932660855298712,1.368834250167282,-2.164146048816931,-0.9271478573488122,nan
1740793669.9827151,-0.4329432852664306,1.9131277371332962,-0.13149551345205587,-0.2797948531917903,nan
1740793669.9866211,0.1139171804094112,1.0160054202607114,2.001728510095124,0.7756041283037292,nan
1740793669.9905272,-0.26610060913282957,-0.18677051975507356,3.20221127102727,0.7930473211569228,nan
1740793669.9944332,-1.0217140911664035,-0.743476357122938,2.6735743082606884,-0.3057248532924323,nan
1740793669.998339,-1.0919155437407746,-0.7573286048599326,0.5542853710322792,-0.9672350994250025,nan
1740793670.0022478,-0.06556830385634964,-0.8312100336176381,-1.819457529322309,0.04192045166512279,nan
1740793670.0061538,1.4018286516880827,-1.0359840276425902,-2.736075567112809,1.8325114836459597,nan
1740793670.0100598,2.2577697937876424,-0.7965334330342325,-1.5524194949813008,2.151384954000049,nan
1740793670.0139658,1.9841754822620592,0.2290614042049644,0.6206243264719945,0.05403168511832279,nan
1740793670.0178719,0.8466821599327515,1.4941328599878585,1.8386233474794278,-2.6699168362157186,nan
1740793670.0217779,-0.5650730827117103,2.0094839361828845,1.0936947312524068,-3.2327951831810062,nan
1740793670.0256836,-1.7851953811615344,1.3484066756689654,-0.7764753361394364,-0.9402841927952689,nan
1740793670.0295897,-2.4591031289158796,0.01874391120329797,-1.9385594434697582,1.9316336891779022,nan
1740793670.0334957,-2.2055155925697205,-1.1320522753834201,-1.3067246899753988,2.594427888134858,nan
1740793670.0374017,-0.8598828841084826,-1.6564601970064807,0.5340633829021214,0.7777419871045398,nan
1740793670.0413077,1.065231032823452,-1.5764359749341053,2.019508679163114,-1.1383993655642282,nan
1740793670.0452137,2.4239961708165962,-0.9762879623844277,2.075984536241144,-0.9922138517797175,nan
1740793670.0491223,2.2735870064817933,0.11619918852718487,0.9050453169661649,0.6834377742661941,nan
1740793670.0530283,0.7865954600734014,1.3837685543986957,-0.49224746969425853,1.4583898507769615,nan
1740793670.0569344,-0.7868022254502319,2.0684718699136093,-1.3243072191540115,0.05857524687934875,nan
1740793670.0608404,-1.2243163503496295,1.5209011290225896,-1.4866938569381232,-1.998135519839271,nan
1740793670.0647461,-0.4493668095899055,-0.03673971645479544,-1.2418679916734934,-2.147053692400249,nan
1740793670.0686522,0.47524225984112045,-1.497341764738698,-0.7262301227967197,0.14529268928079983,nan
1740793670.0725582,0.46133686557950154,-1.7979123991148258,0.07634418381238219,2.590373848992237,nan
1740793670.0764642,-0.5291739345389426,-0.8668217871384579,0.9826321925097193,2.530723527574999,nan
1740793670.0803702,-1.4945432596388408,0.4008860128245869,1.486827211724356,-0.1330260703028465,nan
1740793670.0842762,-1.3928871995672798,1.0497593079227745,1.1716933455116785,-2.7991940212964743,nan
1740793670.0881822,-0.11041083111284157,0.8466734679064049,0.23325595396707804,-2.886614676579072,nan
1740793670.092088,1.455377339101569,0.22771661124295942,-0.556542280516582,-0.4004822867896838,nan
1740793670.0959966,2.151080944945237,-0.2911441727820846,-0.5537457709060137,2.2873123272068963,nan
1740793670.0999026,1.455735863501019,-0.489008287560268,0.07157665806247267,2.9198609409848166,nan
1740793670.1038086,-0.15162911417648425,-0.3647306725339713,0.447293195875992,1.3456036329930061,nan
1740793670.1077147,-1.533922473836508,0.004869344000837252,-0.10154554346150663,-0.7960160479336682,nan
1740793670.1116207,-1.7049087820844897,0.40173501753708096,-1.256037856763367,-1.8859763993652012,nan
1740793670.1155264,-0.5941922623985507,0.4550679750461874,-1.8899996296270614,-1.5761904508869222,nan
1740793670.1194324,0.8170847855855087,-0.030070402772398294,-1.143979755893449,-0.5490099700275627,nan
1740793670.1233385,1.2538309551003533,-0.7008375384672363,0.6663598054759245,0.41035594856881163,nan
1740793670.1272445,0.3113466060421778,-0.8416307200922574,2.253111528371405,0.8972602805908186,nan
1740793670.1311505,-1.0457467533699814,-0.12177621855839398,2.4961329749391563,0.7918137912344633,nan
1740793670.1350565,-1.324842043646838,0.9100561825414368,1.3820960762442198,0.1695217793944205,nan
1740793670.1389625,-0.0466615211912074,1.2827124588269148,-0.15818238426303724,-0.5727331799129639,nan
1740793670.142871,1.5913386092762376,0.6143835046899503,-1.229641203822319,-0.7999030656577146,nan
1740793670.146777,1.8190971001643548,-0.46768825012399784,-1.6639313086719743,-0.17114842948743103,nan
1740793670.150683,0.18614390657639315,-1.0196063253839718,-1.7602585899787997,0.888062827691679,nan
1740793670.154589,-1.7866913393534665,-0.7807553154713229,-1.5759018399669469,1.4423723035422626,nan
1740793670.1584947,-2.071995714786161,-0.3013295552167941,-0.76371885042482,0.9033158536910376,nan
1740793670.1624007,-0.2864755202402568,-0.10993007509946405,0.7975018801091018,-0.40318460770411296,nan
1740793670.1663067,1.8037707826310454,-0.04034577835945147,2.4117049930391357,-1.5582549713070006,nan
1740793670.1702127,2.0745002092283955,0.39561721535526195,2.906381416065536,-1.8582410971464,nan
1740793670.1741188,0.26395254525202333,1.1079717875415953,1.712004512350379,-1.2465142005034533,nan
1740793670.1780248,-1.7703891741944697,1.2834680967909091,-0.4666866634654351,-0.09569772013911426,nan
1740793670.1819305,-2.02293500968482,0.3458722091824468,-2.1804181638555375,1.1547195662386485,nan
1740793670.1858366,-0.3801377500188686,-1.1265158162195859,-2.4631611383409773,2.0512726772212395,nan
1740793670.189746,1.4274643685684991,-1.7890718573186142,-1.5125200240752588,2.089616109048025,nan
1740793670.193652,1.7502186274655713,-0.9484482197069178,-0.2324243750476477,1.0217626445570935,nan
1740793670.197558,0.6144859210405518,0.6050179083325454,0.7034730513275702,-0.681757930885178,nan
1740793670.201464,-0.637869220698597,1.3879299934300664,1.22407907280618,-1.9364230434746386,nan
1740793670.20537,-0.9774932649264195,0.7930610224518418,1.4589929169828442,-1.9289470909506974,nan
1740793670.2092757,-0.609363360428784,-0.3396092784218787,1.2957964710851557,-0.9317607761594767,nan
1740793670.2131817,-0.31600105145178975,-0.7637748787098402,0.5370311426552682,-0.020881789134683477,nan
1740793670.2170877,-0.30680921204501177,-0.2222862908240373,-0.6098338829702542,0.13498586698993723,nan
1740793670.2209938,-0.07627732020681803,0.4072223411588875,-1.4694596328488634,0.033227475328260855,nan
1740793670.2248998,0.6833362219043422,0.28047750393810444,-1.4705162337560678,0.6455931447043619,nan
1740793670.2288058,1.4350133004474395,-0.3968378690085785,-0.7084182462025295,1.9987664245803907,nan
1740793670.2327118,1.316600117828528,-0.6844584504614792,0.1772500097178192,2.772492881210887,nan
1740793670.236621,0.175780422039164,-0.08585571993615815,0.659367381973447,1.60363388579582,nan
1740793670.240527,-1.1827855740970241,0.8524258330685671,0.7398035394041467,-1.2458732359233629,nan
1740793670.2444327,-1.8160437919435148,1.1684782328675958,0.7065033350486154,-3.790061348268985,nan
1740793670.2483387,-1.4947931665133083,0.5202551262048342,0.6475230145012949,-4.057725010149688,nan
1740793670.2522447,-0.6377063021164593,-0.547045441111023,0.3755177064631068,-1.8848729586944368,nan
1740793670.2561507,0.36098627517243254,-1.2459127311914888,-0.1964824532977492,1.0803070050494106,nan
1740793670.2600567,1.3850673947611636,-1.2336993892089227,-0.7934958503910012,3.009716490508695,nan
1740793670.2639627,2.166038692942913,-0.6575258309097156,-1.0075853798246899,3.315451376239231,nan
1740793670.2678688,2.0274099449014975,0.19895951180158677,-0.7172050182250627,2.5165393164822256,nan
1740793670.2717745,0.5155065518992641,1.056952530435515,-0.16666253595338357,1.1552746149982474,nan
1740793670.2756805,-1.6981169893110624,1.5225398857299,0.33483777344017224,-0.673558412596651,nan
1740793670.2795866,-2.9653641183169177,1.1862806984856518,0.6498336330406472,-2.7055915704742266,nan
1740793670.2834957,-2.116052143730804,0.08352564375726926,0.7306740078089106,-3.9326691874492394,nan
1740793670.2874017,0.22261836759006828,-1.062695150878299,0.498134966965603,-3.207200708632006,nan
1740793670.2913077,2.0392418252607682,-1.3590902526988229,-0.003390676316364034,-0.5516452398822147,nan
1740793670.2952137,1.8617486900576574,-0.6354038695769857,-0.40476970673741375,2.4326280687944988,nan
1740793670.2991195,0.196244046884382,0.3110744203046315,-0.26124520820349423,3.787115331554708,nan
1740793670.3030255,-1.0938718877417881,0.5285406840012769,0.33484448555777985,2.884345211543467,nan
1740793670.3069315,-0.7958144903171105,-0.06108111597110548,0.5880735307536353,0.8125705578703719,nan
1740793670.3108375,0.4580609182402682,-0.6013744299999182,-0.20452290388318195,-0.8647117559274913,nan
1740793670.3147435,1.060624291257407,-0.30657480853017693,-1.6135198313278774,-1.51980203380548,nan
1740793670.3186495,0.2943615752047876,0.6219850193798736,-2.1470993504795213,-1.5730936679064587,nan
1740793670.3225555,-0.9206304772806883,1.2227607301401802,-0.7261609085957466,-1.4961423902502675,nan
1740793670.3264613,-1.1493172522488881,0.8531398913248333,1.8971940892989605,-1.1408543402749418,nan
1740793670.3303704,-0.07991302901835506,-0.13907122089629587,3.5199356137556883,-0.19786224604234542,nan
1740793670.3342764,1.1501747979285126,-0.8662120544189934,2.5586605745320243,0.9971818851442517,nan
1740793670.3381824,1.2081681025574609,-0.8532501626809024,-0.3033329922775991,1.5560647675031054,nan
1740793670.3420882,-0.043240227656373316,-0.382342189592635,-2.727506325887619,1.0447031259094446,nan
1740793670.3459942,-1.4613613009938597,0.02251867226106406,-2.9856387914250897,0.11373674491341468,nan
1740793670.3499002,-1.78472113102492,0.19022349944474906,-1.440085525507764,-0.18006599188657574,nan
1740793670.3538063,-0.7552643731756167,0.26679302457430276,0.25008741678028257,0.34817281260864086,nan
1740793670.3577123,0.8184283950248977,0.28653198262357765,1.0539498889587058,0.7116771164758627,nan
1740793670.3616183,1.8799673888246253,0.08065002743726052,1.3109068544803664,-0.07332826027400023,nan
1740793670.3655243,1.9113928677079561,-0.33420166350879255,1.6321251308265157,-1.6468630165343803,nan
1740793670.36943,1.082151603409992,-0.5333970895262627,1.6670432801886577,-2.4424683165673664,nan
1740793670.373336,-0.10215586291056623,-0.10945066281262662,0.5260408684813523,-1.3142077552611366,nan
1740793670.377245,-1.177779204256826,0.7144278758428487,-1.6443684056373769,1.088847285219835,nan
1740793670.381151,-1.8592686303793964,1.1517373934417912,-3.148235478357537,2.771904850739154,nan
1740793670.385057,-1.985462441736966,0.6809164121220521,-2.325187579219442,2.288105123550727,nan
1740793670.388963,-1.448244242219619,-0.3193282474379742,0.4426899373879291,0.13326796672300023,nan
1740793670.392869,-0.23716081700026748,-0.9600672611430148,2.7920097390656364,-1.7699664151035477,nan
1740793670.3967748,1.3816288513780268,-0.8463541234692938,2.703915152756359,-1.9149934598096536,nan
1740793670.4006808,2.7246216864786095,-0.4647150773191633,0.5635794026844193,-0.5084554882472601,nan
1740793670.4045868,2.8975208877202703,-0.4468122668563531,-1.382191467599468,0.9554024045596552,nan
1740793670.4084928,1.446227772606861,-0.6420692612218762,-1.5156136383522156,1.2294613461876556,nan
1740793670.4123988,-1.0076213147290431,-0.2531030752449272,-0.4062010896563617,0.36803482226043277,nan
1740793670.4163048,-2.911358179864196,1.0238511849448946,0.2407535424814708,-0.5957056805645639,nan
1740793670.4202108,-2.9135288229852483,2.2783345078734305,-0.2170553204158728,-0.8028379795512299,nan
1740793670.4241195,-1.097672408717788,2.1519185557619416,-0.7320379988179926,-0.31993677442054835,nan
1740793670.4280255,0.9750341293111505,0.37227483948434864,-0.1486485521132602,0.1483739400897858,nan
1740793670.4319315,1.676146075070351,-1.7322549235609435,1.1349646817310926,0.1258672918841926,nan
1740793670.4358373,0.8538739204614579,-2.4703952749568785,1.5789050112282492,-0.1407630676984169,nan
1740793670.4397433,-0.137247291269014,-1.4801041939253978,0.4662361007056622,-0.0346366054157168,nan
1740793670.4436493,-0.026942419981386,0.012622049571862427,-1.0814759663371223,0.6391544424433472,nan
1740793670.4475553,0.8946732150627907,0.6341307352290387,-1.360388293096495,1.2762500580891825,nan
1740793670.4514613,1.1319838226270666,0.3144574750607791,-0.10281806521035869,0.9794283494719886,nan
1740793670.4553673,-0.158465608215143,0.09809271330122313,1.1974433127890198,-0.459785203324028,nan
1740793670.4592733,-1.9479594116213037,0.6511702338956156,1.0283811006251893,-2.0824159381500014,nan
1740793670.463179,-2.2896016010629987,1.3532089692811848,-0.4394126484809027,-2.4192858421073535,nan
1740793670.4670851,-0.5042358737249577,1.1028417077937707,-1.656868118574667,-0.8461427121051514,nan
1740793670.4709938,1.8741294417238166,-0.17877579215223394,-1.485430282883979,1.624803539832869,nan
1740793670.4748998,2.5798454929819434,-1.2703972179591674,-0.27416425731385136,3.030578408306608,nan
1740793670.4788058,0.9771935539017564,-1.0451415913684579,0.8702490094071503,2.159764384409947,nan
1740793670.4827118,-1.2948827573145434,0.11506321956137344,1.4166413874689177,-0.2956055264020159,nan
1740793670.4866176,-2.0983887452593706,0.6751001283744902,1.607282102898638,-2.3158494095990143,nan
1740793670.4905236,-0.9977537507672215,-0.22128580161555816,1.5364203212116319,-2.3767910920548765,nan
1740793670.4944296,0.5211796728668258,-1.5892501507497694,0.6974052247893464,-0.7614628891370765,nan
1740793670.4983356,0.9089134757975368,-1.5997469828183613,-1.1567301142218243,0.9043327346572656,nan
1740793670.5022416,0.2476228791948039,0.2811222298690272,-3.0217491850220846,1.3358308724351289,nan
1740793670.5061476,-0.1295331858803194,2.468102877847779,-3.1857683946364985,0.7097915605200382,nan
1740793670.5100536,0.5100051799943098,2.8150851243605026,-1.0685710549364555,0.13526987036300356,nan
1740793670.5139594,1.2910962482012542,0.913602146765597,1.791301347382002,0.22658570789692653,nan
1740793670.517868,0.8076173878029717,-1.4277460567348434,3.048569116582224,0.4581524596481205,nan
1740793670.521774,-1.0098556423786897,-2.0953245859433314,1.9168315849853403,-0.014979407031197914,nan
1740793670.52568,-2.511328946357134,-0.8724159356483031,-0.07342936373437356,-1.1253933424681075,nan
1740793670.529586,-2.0007222759979046,0.493838657880013,-0.8448400527826184,-1.774091546469713,nan
1740793670.5334918,0.35345939464784154,0.3791820568066134,-0.058759724628709056,-1.026169377994492,nan
1740793670.5373979,2.5121567865306385,-0.8698180171625169,0.7046804184427531,0.7348877865316694,nan
1740793670.5413039,2.5290079968403774,-1.4102449289810153,0.0050306341763037485,2.0416043003652646,nan
1740793670.54521,0.43494311908415234,-0.1254873679840444,-1.6531399127125417,1.7633270816847426,nan
1740793670.549116,-1.8554997699883875,1.9598085538355263,-2.3962612480962173,0.20387082967426284,nan
1740793670.553022,-2.402333893339676,2.7031970313510305,-1.1988511312678973,-1.2487888213377643,nan
1740793670.556928,-0.93544106976337,1.179229181148174,0.9102000053002753,-1.47550893105172,nan
1740793670.5608337,1.1472298567026722,-1.2703538364041638,2.0254973177026843,-0.5612472197294315,nan
1740793670.564742,2.1923080190153446,-2.4224494231837794,1.4603098620446493,0.5097093725267556,nan
1740793670.568648,1.6091129102286577,-1.4529007179863638,0.3067421131288393,0.8771228674770272,nan
1740793670.572554,0.03272768138675682,0.3561387373749587,-0.05401237188059338,0.4516696696724122,nan
1740793670.5764601,-1.4376235909630806,1.1429881126616448,0.4125649698152645,-0.26784031647807843,nan
1740793670.5803661,-2.018579674267285,0.44440804516556404,0.5413263717945643,-0.7469985729980129,nan
1740793670.5842721,-1.5163685754083007,-0.5262565571735163,-0.4196074613062449,-0.7251879707358844,nan
1740793670.5881782,-0.2382335794659056,-0.4485344816150855,-1.7657037815469345,-0.20490277033492682,nan
1740793670.592084,1.1661087816543179,0.573940242149768,-2.098973698316168,0.5868015614131945,nan
1740793670.59599,1.9316657556587813,1.2238699452290305,-0.9291839716685624,1.190334604696881,nan
1740793670.599896,1.5808319441566654,0.5682720374167172,0.7785774982384518,1.1001638141477315,nan
1740793670.603802,0.3179827781378898,-0.8390518946070173,1.6655966502611406,0.20506532312326853,nan
1740793670.607708,-1.0010681289389678,-1.5673561861887582,1.3440406420387612,-0.938483976614256,nan
1740793670.611617,-1.465841847183729,-0.8717054713384572,0.5572896886815639,-1.4532111553459672,nan
1740793670.615523,-0.8373349426490356,0.5524581954271467,0.14562533032092212,-0.9229035051449949,nan
1740793670.619429,0.2560743246543542,1.3736962535839043,0.1409643030542823,0.17080681286316915,nan
1740793670.6233351,0.8658886306138392,0.9935172916725732,-0.03359740291407577,0.8831517069710332,nan
1740793670.627241,0.5331010669962257,-0.009241039824828903,-0.6736897224188739,0.7150177069630845,nan
1740793670.631147,-0.3604608278753424,-0.676049618725112,-1.3435887627337493,0.0485219650999474,nan
1740793670.635053,-0.9780913074219438,-0.6628888998065695,-1.3393223842592117,-0.33803450148655495,nan
1740793670.638959,-0.7623371685287719,-0.3567837216404501,-0.46035982750448556,-0.11490255225636022,nan
1740793670.642865,0.13340314738870143,-0.19640716565532068,0.7581505869895097,0.3221762973038827,nan
1740793670.646771,1.033218063073463,-0.1490965316152346,1.5117633417275957,0.38988346109391425,nan
1740793670.650677,1.3081928655992636,0.07320820884834257,1.3568675123163032,-0.0013621076854009042,nan
1740793670.6545827,0.8204265053338706,0.4770020433718449,0.46632000548604513,-0.3977751554154728,nan
1740793670.6584918,-0.06950020814917864,0.6953985186687418,-0.5650091607306108,-0.37988867596023423,nan
1740793670.6623979,-0.8363166082355097,0.4515142851383153,-1.1182215129243396,-0.04833888827459238,nan
1740793670.6663039,-1.135219909358189,-0.05744559018364541,-0.9106303731157709,0.13895576695712916,nan
1740793670.67021,-0.9217007370056689,-0.371348037419491,-0.16327633559050728,-0.055360293386072575,nan
1740793670.674116,-0.3655951075017113,-0.3053391006799601,0.5429293026990182,-0.35566465375221573,nan
1740793670.6780217,0.2769428230597477,-0.12802901466181002,0.6988973566479125,-0.29952463997163714,nan
1740793670.6819277,0.7398855179040976,-0.16488618878867725,0.2819252144190067,0.20871511370076348,nan
1740793670.6858337,0.8161187303186533,-0.3517133879661731,-0.24660728891576617,0.748388096234986,nan
1740793670.6897397,0.4697682773642223,-0.3208926671362748,-0.4052113482727175,0.7960793904338764,nan
1740793670.6936457,-0.08352716387856401,0.08704254820424144,-0.15805042573988654,0.2511495645145079,nan
1740793670.6975517,-0.46908278434101425,0.5484507776849782,0.11774892294076815,-0.46445561193074913,nan
1740793670.7014575,-0.42145001654360337,0.5941843939944761,0.10986292497113004,-0.8019550665228838,nan
1740793670.7053666,-0.014982827210654902,0.1669563422201816,-0.07964744000405935,-0.5653735277154829,nan
1740793670.7092726,0.3817102316169476,-0.2841219116091426,-0.12052898704160796,-0.03577657145027723,nan
1740793670.7131786,0.41732140823559155,-0.3029680961519221,0.08691896994389131,0.3241134951674543,nan
1740793670.7170846,0.05191458032476304,0.0638541623451932,0.2809545957558081,0.27984276439959416,nan
1740793670.7209904,-0.4366448422847943,0.3401972287126816,0.20045630394061395,-0.00796346648506681,nan
1740793670.7248964,-0.7078560968894924,0.1746185129312295,-0.049456604679107494,-0.17387075880596617,nan
1740793670.7288024,-0.6039726611729248,-0.2769091502576489,-0.13301500991122056,-0.0064121152847838895,nan
1740793670.7327085,-0.18657755762230235,-0.5580654730504304,0.0408742823541978,0.3445302310501179,nan
1740793670.7366145,0.36920092095801876,-0.42543474908204104,0.14880199313017925,0.5020348033808548,nan
1740793670.7405205,0.8451971211569819,-0.0647950627039979,-0.13005917535578454,0.22892227999272835,nan
1740793670.7444265,0.9946710088192199,0.18947299221783337,-0.6114308045442517,-0.31201025185770753,nan
1740793670.7483323,0.6380344802184588,0.2404263833800836,-0.704879040515038,-0.6740064851331808,nan
1740793670.7522411,-0.13530420548266,0.25844253844822795,-0.08975444637734746,-0.5364997228428229,nan
1740793670.7561471,-0.886251154433175,0.3742313260095941,0.8124010395005149,-0.016239081997322914,nan
1740793670.7600532,-1.0895392492875031,0.46082841741987873,1.1832593215385983,0.44117551377786873,nan
1740793670.7639592,-0.5951815374863475,0.284017144652862,0.6439166190709932,0.48740137281088847,nan
1740793670.7678652,0.17964819014405425,-0.17458716053316187,-0.3413865810274584,0.1781659582343373,nan
1740793670.7717712,0.6047875494801678,-0.625814411252916,-0.9410477938719723,-0.1437817891244962,nan
1740793670.775677,0.43106804652397385,-0.73137652747697,-0.7704920140407082,-0.22857556551969604,nan
1740793670.779583,0.0027436649766908005,-0.42550334219747654,-0.16716784947197844,-0.12941918938795885,nan
1740793670.783489,-0.15335625248796803,0.039308826795815904,0.28321948475965125,-0.042845367222356205,nan
1740793670.787395,0.08872768622201233,0.34175946008412805,0.3463540406642253,-0.027446389749971822,nan
1740793670.791301,0.35187781914958915,0.3601811339538262,0.21449066253425392,0.03183868181535758,nan
1740793670.795207,0.23652808619026153,0.21636017069797836,0.11764856538768076,0.1926577089071335,nan
1740793670.7991157,-0.19086787741140754,0.10957501059337686,0.04772913229080393,0.2981901501328036,nan
1740793670.8030217,-0.4761084423400581,0.1315930631371802,-0.09562642739763727,0.14272091082940555,nan
1740793670.8069277,-0.31649484662422267,0.21085280301088358,-0.23925716841472106,-0.22782107937917387,nan
1740793670.8108337,0.08957204841225624,0.1932890373542297,-0.18104695235766458,-0.4839607040873167,nan
1740793670.8147395,0.29099051965300504,-0.01850978456110944,0.10430311168519263,-0.34604691015915495,nan
1740793670.8186455,0.11379759590218332,-0.35989986331027357,0.3472739228403223,0.08644998442972401,nan
1740793670.8225515,-0.16692149195796552,-0.6122383546129874,0.2686100276156054,0.41288168169647904,nan
1740793670.8264575,-0.19445166035271133,-0.5517342903801081,-0.07118613524216588,0.3512971678126224,nan
1740793670.8303635,0.038497067070420804,-0.15021640861627295,-0.31960574871651704,0.025010626382879007,nan
1740793670.8342695,0.21914184237055948,0.35360179691760046,-0.24485447382900594,-0.20565891883483406,nan
1740793670.8381753,0.1338816372809768,0.6196034638503792,-0.003933294896780151,-0.15280256691015,nan
1740793670.8420813,-0.07036270341112057,0.48900334805682993,0.07500545208567795,0.029840188131973634,nan
1740793670.84599,-0.1028346250221271,0.11633054592060303,-0.07736566233889113,0.08554414571666741,nan
1740793670.849896,0.07653226579227869,-0.18838732546106962,-0.1801231307552049,-0.02418881308917504,nan
1740793670.853802,0.2024310803617918,-0.24731150226573317,0.02330056764971402,-0.10888957460821426,nan
1740793670.857708,0.05736145437584226,-0.13600944087648292,0.3941076702821946,-0.027756808718538153,nan
1740793670.861614,-0.22831565106094542,-0.035482580194967375,0.5148601079024631,0.11999464117300834,nan
1740793670.8655198,-0.32190685423314885,-0.015366639116670027,0.17960348808082294,0.13118909301513215,nan
1740793670.8694258,-0.10066479428407599,-0.0034655961635651233,-0.33027454239872,-0.03116589731350079,nan
1740793670.8733318,0.18932264877659782,0.05467473016550134,-0.5315429586122138,-0.1871580223075177,nan
1740793670.8772378,0.22840305130893437,0.08243459753236577,-0.26614363128705015,-0.16430213726608953,nan
1740793670.8811438,0.00488203464092894,-0.029786566880173053,0.1381651180947927,-7.817092383737011e-06,nan
1740793670.8850498,-0.18535907926743508,-0.2379728899600061,0.2506629283102957,0.1278869712679629,nan
1740793670.8889558,-0.10731218704523553,-0.32753730218656585,0.013639486943513046,0.12881651961337806,nan
1740793670.8928642,0.13831266641269777,-0.12703651936987298,-0.22646357116228893,0.07986195027301743,nan
1740793670.8967702,0.2575633846371748,0.2773585486766094,-0.1414699413472485,0.07435201768064123,nan
1740793670.9006763,0.12198745184323775,0.5812587353900345,0.2021957943666648,0.07367816495764755,nan
1740793670.9045823,-0.10169016327390736,0.5322311230135162,0.4280126882138153,-0.020477377112571138,nan
1740793670.908488,-0.1799761418619973,0.1546291094330587,0.2720465982519868,-0.18014851318335143,nan
1740793670.912394,-0.08430460331169409,-0.28814737275668806,-0.13552455390610135,-0.23543324956813375,nan
1740793670.9163,0.022025838481222804,-0.5282948900496401,-0.4154131982885649,-0.08697290734224392,nan
1740793670.920206,0.018368808826302638,-0.4827339696972012,-0.3231806537882227,0.12830080225830087,nan
1740793670.924112,-0.04388580726918746,-0.25166398464257494,0.033100636491509565,0.16850268698908036,nan
1740793670.928018,-0.0583855979015088,0.00711072498070527,0.3249447896098966,-0.015346384171853506,nan
1740793670.931924,-0.02367321077718078,0.18339547420667734,0.30907412530041684,-0.1911999923212867,nan
1740793670.9358299,-0.012582617682577856,0.2433546159561682,0.011981966044953775,-0.10871368214358439,nan
1740793670.9397383,-0.019640503125581354,0.21765498764738084,-0.3269113726199471,0.1885864806750391,nan
1740793670.9436443,0.0558644871466663,0.1743117729898524,-0.45104516507483033,0.38849440576315863,nan
1740793670.9475503,0.2341391406822618,0.16376743969983434,-0.25622346735348683,0.2587103244664619,nan
1740793670.9514563,0.33996466128780894,0.15843680234588092,0.15364474989548052,-0.09149423218257395,nan
1740793670.9553623,0.16625104056677772,0.06479282808641666,0.5277085090712612,-0.3421254274693825,nan
1740793670.9592683,-0.24037178984315877,-0.16293144009245908,0.6131386957723788,-0.31572772684860123,nan
1740793670.963174,-0.545544274774269,-0.4155714205137199,0.3207107938515072,-0.12995028729748492,nan
1740793670.96708,-0.4493959362448537,-0.4798336167805534,-0.1907343129647923,0.0005797908077293314,nan
1740793670.9709861,-0.019656327315606265,-0.2423449953406552,-0.5966756072255193,0.027761487844716656,nan
1740793670.9748921,0.3629886362787346,0.15810943584300827,-0.629309452194323,0.06800670078276116,nan
1740793670.9787982,0.40146252039971586,0.4220066702913579,-0.28065442728209533,0.17951535366551993,nan
1740793670.9827042,0.16763762149837255,0.3624118849416117,0.1865329250186194,0.2504296864577008,nan
1740793670.9866133,-0.03901662186284361,0.08201038349460933,0.44413129013392394,0.15572263711669607,nan
1740793670.9905193,-0.05969810545792462,-0.13854652826276254,0.35495524974982606,-0.04337421171455373,nan
1740793670.9944253,-0.017456832248632745,-0.12438729117886252,0.0629731089322604,-0.15074145574106088,nan
1740793670.998331,-0.08887144767325073,0.03855213666817933,-0.15556134457952076,-0.08639694514956003,nan
1740793671.002237,-0.23272826130915567,0.1282852641298733,-0.14007661957042206,0.0025117172397888152,nan
1740793671.006143,-0.2353367210453677,0.035063318354306365,0.03251913635184165,-0.060437455264316015,nan
1740793671.010049,-0.005438425416948071,-0.13917998951339922,0.15336576751442144,-0.2235509748079155,nan
1740793671.013955,0.27432992140218115,-0.21475973121729794,0.09789067383880798,-0.24368551689080375,nan
1740793671.0178611,0.34271491718475505,-0.1294475476489433,-0.06496943651474148,0.0016998231172634737,nan
1740793671.0217671,0.15683894185889632,0.016392546010593246,-0.17071490003232168,0.32068070468634746,nan
1740793671.025673,-0.07882316244089332,0.08651465648370386,-0.14554362205719595,0.399490409004953,nan
1740793671.029579,-0.17137112576959718,0.04921687462642993,-0.07150553577282233,0.16322906053365344,nan
1740793671.033488,-0.1451455298817952,-0.010422445655676616,-0.06184108217401268,-0.13912467441082282,nan
1740793671.037394,-0.14451263195620162,0.005882139213235214,-0.10017597477909851,-0.23085982009125755,nan
1740793671.0413,-0.19274710636614104,0.10823159300319482,-0.04741624030405066,-0.113254005974613,nan
1740793671.045206,-0.14799730387412735,0.2079524980774451,0.17349965357117972,-0.007278864740071783,nan
1740793671.0491118,0.08067559664871385,0.19289592235559405,0.4292164273383569,-0.033943306671433277,nan
1740793671.0530179,0.35519447179560687,0.024054869364134417,0.4632736595362062,-0.0691807087507838,nan
