timestamps,TP9,AF7,AF8,TP10,Right AUX
1741084700.1829154,1.7679202303214456,0.9049379619920496,0.4607242034756398,1.291789949244654,nan
1741084700.186805,0.8130281228252281,0.5175456444645643,0.6280694792497549,1.0445581335051601,nan
1741084700.1906946,-0.5608203217407159,-0.15154458876624285,0.5667489574549556,0.24665921093562085,nan
1741084700.1945841,-1.4702563230431378,-0.7331845896611044,0.2808688909451085,-0.6122607308576805,nan
1741084700.1984737,-1.4288491665455498,-0.9165467550070381,-0.15452454301607765,-1.065924867471307,nan
1741084700.2023633,-0.6018506574179582,-0.6296249731304532,-0.5886742722859698,-0.9232469752692849,nan
1741084700.2062528,0.403433840068291,-0.0631134296762612,-0.822951013324981,-0.32929185093534497,nan
1741084700.2101424,0.9971115465878297,0.4660543837672637,-0.695850572203101,0.3623789691906471,nan
1741084700.214032,0.963337786168634,0.7086249359202257,-0.19710914227923565,0.800583597421932,nan
1741084700.2179215,0.49599346202590416,0.6053195608854443,0.4709785757120778,0.8062463614055131,nan
1741084700.221811,-0.03781530856500902,0.27469233467623044,0.9613478644734675,0.4285848531332119,nan
1741084700.2257006,-0.37643558480418693,-0.09577769553107125,0.9731311850561143,-0.1124142393841818,nan
1741084700.2298176,-0.47843710474923107,-0.3614805029116702,0.45524230534088805,-0.5483672352653305,nan
1741084700.2337072,-0.44036193278680463,-0.4648188651268578,-0.32602960025467553,-0.6875744289979728,nan
1741084700.2375968,-0.3447970539052016,-0.41195090624340325,-0.9276483097845192,-0.492587909440224,nan
1741084700.2414863,-0.18982892230943063,-0.23432988676528407,-1.0036184152119212,-0.08379389282585825,nan
1741084700.2453759,0.055943675372964755,0.020583051459369152,-0.5289573886273863,0.3281717589731821,nan
1741084700.2492654,0.3542965661364238,0.2749514443507229,0.1865962909003711,0.5484707199205595,nan
1741084700.253155,0.5693970369608995,0.4245451945537151,0.7092874127642289,0.490764445672471,nan
1741084700.2570446,0.5503014510461095,0.3872172760053299,0.7674429675950887,0.21017881589520346,nan
1741084700.260934,0.255890323264832,0.16889321085373504,0.4098944944674049,-0.13768488711007962,nan
1741084700.2648237,-0.1877372920856874,-0.11525049633192959,-0.06762376997425897,-0.38420899773715866,nan
1741084700.2687132,-0.5518948304335665,-0.3022591334612392,-0.35731381026203274,-0.4301129594073332,nan
1741084700.2726028,-0.6467358261679917,-0.2931056197566593,-0.34988318935659124,-0.28051043638072654,nan
1741084700.2766986,-0.435704013306978,-0.12814850089244956,-0.16846275387352488,-0.0243483540827545,nan
1741084700.2805882,-0.04556372705350562,0.04295955662022758,-0.022433023520458627,0.21810930224559844,nan
1741084700.2844777,0.32336924824069807,0.08296320223118174,-0.01884308926505961,0.3472524076299857,nan
1741084700.2883673,0.5141976971095447,-0.01564247459248666,-0.08972882052323265,0.31663001616528647,nan
1741084700.2922568,0.4803390772263852,-0.12007967651287241,-0.083795615480567,0.14447634947501964,nan
1741084700.2961464,0.27604752935192045,-0.07280754593508998,0.0717197622110549,-0.09221936062841396,nan
1741084700.3000362,0.0014454879957028828,0.15657764459663934,0.2879609307305355,-0.2828771765412953,nan
1741084700.3039258,-0.2482024199811166,0.4143783351967557,0.38380351672904667,-0.3294166941921087,nan
1741084700.3078153,-0.4033361947512287,0.46386836141913745,0.24519303169656065,-0.20011147554378544,nan
1741084700.3117049,-0.4210500542707332,0.17814668889821397,-0.06633722705468871,0.040450505322567484,nan
1741084700.3155944,-0.28921570275354913,-0.3270864901951854,-0.35160672211927235,0.2557763730451936,nan
1741084700.319484,-0.04062840003394822,-0.7389696698827602,-0.4269048940429965,0.31514316322305136,nan
1741084700.3235774,0.2396779233929839,-0.7554402603149253,-0.2631873761158218,0.18011064168596005,nan
1741084700.327467,0.435596681813048,-0.30908182548515484,0.0031853111777736197,-0.06251047025232334,nan
1741084700.3313565,0.4509920086634948,0.36221827342605445,0.19094031015901683,-0.253239879204984,nan
1741084700.335246,0.2646210311778542,0.8586721407707445,0.2177949289013711,-0.2678386001287713,nan
1741084700.3391356,-0.047303779663569974,0.8792256260257274,0.1455370959860252,-0.1041795644581894,nan
1741084700.3430252,-0.340686636061851,0.4162897363611596,0.09556665773121872,0.11762628003008883,nan
1741084700.3469148,-0.4734777670401914,-0.24848908158431174,0.11937331429860872,0.24359140292117154,nan
1741084700.3508046,-0.37922439708127664,-0.7351108343493735,0.14603988190452885,0.1962602157793717,nan
1741084700.3546941,-0.10429619669814569,-0.8019379030957143,0.05689563350085885,0.0239445881349527,nan
1741084700.3585837,0.212388049665535,-0.46912368478277017,-0.17984520985126354,-0.1450644994389864,nan
1741084700.3624732,0.40888765929272314,0.03473594392270565,-0.44050289385975283,-0.2019536150824105,nan
1741084700.3663628,0.38516931314953634,0.4386958011755067,-0.517050085505559,-0.13022158940713996,nan
1741084700.3704538,0.15928086579677722,0.581705731731754,-0.2814937797480371,0.00019585172371705284,nan
1741084700.3743434,-0.13840330470066742,0.4620247030802004,0.18832194722132886,0.10108194198346454,nan
1741084700.378233,-0.3355996628559886,0.18631600228768175,0.630564560919137,0.13153801705219414,nan
1741084700.3821225,-0.3184198594702823,-0.11369161827578575,0.7642767088938313,0.10819441131687683,nan
1741084700.386012,-0.10333432985270187,-0.33399595316852915,0.4803705843823005,0.0644337170045551,nan
1741084700.3899016,0.16778809292023397,-0.4101623619859247,-0.07927101964904212,0.009927663719134758,nan
1741084700.3937912,0.3141233515535105,-0.3188152145172981,-0.6087032568631316,-0.06548019824628622,nan
1741084700.3976808,0.23390169575250794,-0.09176953863370511,-0.8253733280824839,-0.15184997826689722,nan
1741084700.4015706,-0.023320964031802727,0.17300806056773818,-0.6295325029690466,-0.19528464208682264,nan
1741084700.4054601,-0.283277201163055,0.33954855258567623,-0.14074226209595495,-0.13081360207171058,nan
1741084700.4093497,-0.3607385775508595,0.30905552052625873,0.39036818702045245,0.04692632684912419,nan
1741084700.4132392,-0.18641208849642765,0.0967743511102919,0.7208876187494149,0.24440426225706874,nan
1741084700.4173465,0.140411499830124,-0.15798997173150137,0.7211906719967892,0.3164108407952508,nan
1741084700.421236,0.4122758905159616,-0.27695291913403164,0.4090483928133327,0.1795428598492269,nan
1741084700.4251256,0.4480155864333377,-0.1728420817591047,-0.07583383481001038,-0.09971382794505665,nan
1741084700.4290152,0.2109315882294611,0.07515229303168536,-0.528488227937157,-0.3301986809891009,nan
1741084700.432905,-0.1674001346478715,0.2696737666367712,-0.7504899525734968,-0.33428374024388346,nan
1741084700.4367945,-0.4700517417328711,0.24215492758062213,-0.6291951508757342,-0.09591596966550175,nan
1741084700.440684,-0.5261721841608468,-0.010690160989075428,-0.20213539573203884,0.20908544106698682,nan
1741084700.4445736,-0.3064963978423553,-0.3110587046138015,0.33532184745221627,0.34125342400172015,nan
1741084700.4484632,0.06992615026824911,-0.42573957731624235,0.7098845477107395,0.1914119597616004,nan
1741084700.4523528,0.41015282666890035,-0.24236759857724752,0.7158215610928176,-0.11921058362552248,nan
1741084700.4562423,0.5503658678732338,0.13845238630767576,0.3443118924541159,-0.32645390575443833,nan
1741084700.4601321,0.4307323893465832,0.4680734048807073,-0.19589985657550202,-0.238961326613099,nan
1741084700.464218,0.11330523140399186,0.5247672362679949,-0.5967112052344908,0.09188725894370173,nan
1741084700.4681077,-0.2531618859664949,0.2683131896231116,-0.639794806627137,0.3961021566231292,nan
1741084700.4719973,-0.4999635194090311,-0.13800363284471992,-0.33048723269459396,0.39718003342093733,nan
1741084700.4758868,-0.5118538725573685,-0.44726782129177406,0.11653095596273068,0.04660749032899168,nan
1741084700.4797764,-0.28191987305388644,-0.4954103169171583,0.42773057276420096,-0.4141684705243577,nan
1741084700.483666,0.07754714156005947,-0.2933055188646746,0.44802211202172965,-0.6266952865078187,nan
1741084700.4875555,0.3837461826093232,0.009602128581149318,0.2214106408903504,-0.3948945066363867,nan
1741084700.4914453,0.4786814705342934,0.24451335044650513,-0.06992427837667266,0.15011046716668985,nan
1741084700.4953349,0.3223810261401304,0.3272698906358483,-0.2468517265795521,0.635156511232526,nan
1741084700.4992244,0.021984942052815228,0.2784789782736063,-0.24379050404829364,0.718435564995193,nan
1741084700.503114,-0.23357921986413951,0.16790692071323254,-0.11781766786704129,0.3401201171251124,nan
1741084700.5070035,-0.29876942323221795,0.04728630882521014,0.025802163928111063,-0.24099262986600656,nan
1741084700.511106,-0.17061842634769597,-0.07111790779497638,0.11466976448732069,-0.6450556375303272,nan
1741084700.5149956,0.014871053037780354,-0.18633961764195522,0.13448692645811977,-0.642042087174913,nan
1741084700.5188854,0.0930354336704171,-0.27373414978073063,0.10034307331515152,-0.28929752253609786,nan
1741084700.522775,0.006107397546169456,-0.28547101945297454,0.024456346200098435,0.15121950058387618,nan
1741084700.5266645,-0.14509521613143894,-0.18799836663429734,-0.08010431773159783,0.4248367393331346,nan
1741084700.530554,-0.18228277688747735,0.00035812263031881553,-0.17275700110592246,0.4461412344830958,nan
1741084700.5344436,-0.005809136303230153,0.20848849555670548,-0.18402422935376514,0.2984855378290782,nan
1741084700.5383334,0.3000555149187814,0.3502283341142227,-0.06489717135220818,0.10920093903058672,nan
1741084700.542223,0.507321336849187,0.369055583717831,0.1482160638217042,-0.0633029862571613,nan
1741084700.5461125,0.41199035695445263,0.257404443463152,0.32325113299457087,-0.22989538646441063,nan
1741084700.550002,0.004770621262628334,0.047223366298827875,0.31225926808021115,-0.38308649301857317,nan
1741084700.5538917,-0.49209740701411275,-0.20574526452963335,0.07376729563548116,-0.43718982594322514,nan
1741084700.5579917,-0.7616173873970371,-0.42611301934275875,-0.26489532271055904,-0.281745409539545,nan
1741084700.5618813,-0.608935557906049,-0.5215429450165843,-0.47544791002769926,0.08865717322992907,nan
1741084700.5657709,-0.10069905451372697,-0.4105062770827102,-0.39245419780715224,0.4998582015005019,nan
1741084700.5696604,0.47450060619442724,-0.08071974400816974,-0.0488114871004626,0.6800210180892748,nan
1741084700.5735502,0.7935415691895583,0.3599376289505023,0.3329494260442332,0.4607062314488424,nan
1741084700.5774398,0.6981881665123688,0.6990703965295026,0.49890477806972866,-0.06340999996222568,nan
1741084700.5813293,0.272131433147439,0.7251765819383245,0.351944668790988,-0.5659477085948984,nan
1741084700.585219,-0.23951783932350115,0.37096066971739483,0.01910794664566802,-0.7119805558967621,nan
1741084700.5891085,-0.5907091707815926,-0.2091250029636424,-0.2572291871598733,-0.4079710730728683,nan
1741084700.5929983,-0.6578910718523724,-0.7039988675133008,-0.3134893556962508,0.12281432082066314,nan
1741084700.5968878,-0.46218540333605324,-0.8313987768411027,-0.18152894088845495,0.5074786527525325,nan
1741084700.6007774,-0.11348216737364177,-0.5225763171611387,-0.032205594420920323,0.5045579032322705,nan
1741084700.6048748,0.25549365656385314,0.029045849398577968,-0.00195909463398197,0.17541642292920026,nan
1741084700.6087644,0.522573832806736,0.4978454824061887,-0.06281722339365534,-0.18776967033390235,nan
1741084700.6126542,0.5897972982914774,0.6435711852946496,-0.05847907175434822,-0.31034395419714556,nan
1741084700.6165438,0.41198406872431204,0.45699146424364967,0.12227685707734581,-0.15005919403087925,nan
1741084700.6204333,0.041354471082762564,0.12976707307009314,0.3965054141726883,0.09568119174916778,nan
1741084700.6243231,-0.35863253317029464,-0.11658608144882597,0.5156306802763635,0.18334160117183523,nan
1741084700.6282127,-0.5778991626079097,-0.19785248596408306,0.2727140459975941,0.04104593614119434,nan
1741084700.6321023,-0.4878558675681018,-0.19566960935521052,-0.27937004751759664,-0.17880977692878547,nan
1741084700.6359918,-0.14460786434952777,-0.2353048302831541,-0.8007622062489003,-0.2503484627631528,nan
1741084700.6398816,0.22847928409850377,-0.33238772723390086,-0.8865657002925748,-0.08649413817030606,nan
1741084700.6437712,0.39062192244378924,-0.35597696761032455,-0.3849888611359331,0.17974509414123724,nan
1741084700.6476607,0.2632170128826523,-0.151934785730322,0.4419723541476125,0.31618259741666077,nan
1741084700.6517558,-0.006525692647098542,0.2776281691170735,1.0644232664087692,0.20271286513648698,nan
1741084700.6556454,-0.16362992660437528,0.7069506389579739,1.0498003955869706,-0.05962265048134431,nan
1741084700.6595352,-0.061697957821452605,0.8168491859557242,0.3799124306207372,-0.2409251498903158,nan
1741084700.6634247,0.20001039565637954,0.44111294984263244,-0.5225673601352983,-0.19214467182361328,nan
1741084700.6673143,0.3457244664052536,-0.2651818253907174,-1.0839065190711792,0.019345906671278293,nan
1741084700.671204,0.15874166487155267,-0.8872384383162654,-0.9722522172128968,0.173932019477147,nan
1741084700.6750937,-0.3054230817090048,-1.0205089864423793,-0.30704256562474297,0.10771921205913622,nan
1741084700.6789832,-0.7174354449565931,-0.5585769984687936,0.4554603804484986,-0.12563507979857438,nan
1741084700.6828728,-0.7109236875055504,0.2182124725458375,0.8553310259906705,-0.2924632578657524,nan
1741084700.6867626,-0.18458968878244303,0.827377824858291,0.7249264939770509,-0.19104837541223743,nan
1741084700.6906521,0.5745314413118985,0.9115859952377303,0.24523602907061984,0.14883077378640436,nan
1741084700.6945417,1.0644041517022969,0.4711558917191447,-0.2401661095584495,0.46392243628718677,nan
1741084700.6986346,0.924196930427498,-0.16185236778710338,-0.4792191540504945,0.46894175907549845,nan
1741084700.7025242,0.2074731198421856,-0.5762532765878087,-0.43950716234422044,0.10651553537248079,nan
1741084700.7064137,-0.6397739833409017,-0.5651424122085703,-0.24923306752286678,-0.3821437654365934,nan
1741084700.7103035,-1.0860456246547772,-0.23507622599285163,-0.047304500962223106,-0.6361790825636464,nan
1741084700.714193,-0.8792194421485792,0.11909470971536246,0.11164422079788022,-0.46092351620864774,nan
1741084700.7180827,-0.20185331564607073,0.2551045146702014,0.2348117497145737,0.01625196403065419,nan
1741084700.7219725,0.4856064069068664,0.14772944812871586,0.31212964841328983,0.44920798168722553,nan
1741084700.725862,0.7797653088621532,-0.03568638538153526,0.2866816526965205,0.546983751564113,nan
1741084700.7297516,0.5916849011288284,-0.10348378373258309,0.11400481430706494,0.28989857230518107,nan
1741084700.7336414,0.15150657419271832,-0.0008961923579088797,-0.1550741431908791,-0.08438309724444115,nan
1741084700.737531,-0.20906516985935508,0.1625374161927939,-0.3687424418752201,-0.2969653496991082,nan
1741084700.7414205,-0.3047253856771678,0.22448246748138584,-0.3754370165570688,-0.250664344313725,nan
1741084700.7455108,-0.18796688779723655,0.11322827037370116,-0.1526840983155522,-0.07301501655510084,nan
1741084700.7494006,-0.04520576177640333,-0.09756423140626677,0.15572469505308623,0.03759156496035593,nan
1741084700.7532902,-0.01591229554768896,-0.25777182072160354,0.34029544146969637,0.0051768461085740115,nan
1741084700.7571797,-0.09191547904232912,-0.26383433032994946,0.28716054748812453,-0.07171870073058093,nan
1741084700.7610695,-0.16009990752618386,-0.13054833290364345,0.06377560819388908,-0.04652938764302585,nan
1741084700.764959,-0.12241943754440053,0.03884063247588583,-0.14509903084323608,0.10502733419976025,nan
1741084700.7688487,0.023227837181307987,0.14486313059210051,-0.1944723892629745,0.24515421550960223,nan
1741084700.7727385,0.19884912733239174,0.16137275985453792,-0.09135427165049825,0.20928215974234327,nan
1741084700.776628,0.3189398777620379,0.12954590524022658,0.03293281407217333,-0.014630605243837783,nan
1741084700.7805176,0.33956989766821766,0.09680728781335968,0.05721178225190009,-0.24621702648081473,nan
1741084700.7844074,0.25013246872603545,0.06707097282811775,-0.017325956469935254,-0.2683838164942725,nan
1741084700.788297,0.047270046052915515,0.009103436658733975,-0.08105472098734014,-0.04237253173345513,nan
1741084700.7923849,-0.2523076697785417,-0.09158291934543784,-0.037578281836548676,0.22775651082130094,nan
1741084700.7962744,-0.5620660588679437,-0.19519557965184176,0.08948191253564737,0.26508741727064,nan
1741084700.8001642,-0.7097995084361691,-0.22769865997578856,0.17324719854413864,-0.012910629918690039,nan
1741084700.8040538,-0.5208382327822962,-0.14449544578804194,0.11151432675578342,-0.3787846021621372,nan
1741084700.8079433,0.027999246376636405,0.021034794490130942,-0.059817967698814985,-0.4648720544827453,nan
1741084700.8118331,0.7100254818505825,0.17281267604864572,-0.18693367189557086,-0.09654111035984826,nan
1741084700.8157227,1.127950899220554,0.22309537487514408,-0.14396156551098924,0.5029596900220219,nan
1741084700.8196123,0.9627625950457467,0.15950270278363302,0.032972890311030914,0.8451430276393916,nan
1741084700.823502,0.22626849797801815,0.0493198433126436,0.16378691765840983,0.5711493829383155,nan
1741084700.8273916,-0.690326426900661,-0.02327244602897684,0.09590394046578685,-0.21241599469885233,nan
1741084700.8312814,-1.2452940357445408,-0.0314637626553241,-0.12645269396763575,-0.9599436437284025,nan
1741084700.835171,-1.108474242988763,-0.024356839768531497,-0.27114140392873015,-1.090241798540103,nan
1741084700.8392563,-0.38995206859768494,-0.07120590968572196,-0.12751764261326962,-0.4562261631149572,nan
1741084700.843146,0.4440429650031871,-0.18036497761370476,0.2603415079886484,0.5094107747311957,nan
1741084700.8470356,0.9078216211904986,-0.2690499576555791,0.5686116846310195,1.1119901447048206,nan
1741084700.8509254,0.8256580051525573,-0.2204867573619229,0.4455098540290026,0.9327659065489341,nan
1741084700.854815,0.4028431452455658,0.010383417788574658,-0.14854287230629262,0.15143461832608118,nan
1741084700.8587048,0.001982430298330376,0.3297768331448731,-0.8204296512404297,-0.6125334665556208,nan
1741084700.8625944,-0.1695613672855954,0.5419099105141773,-1.000586923164474,-0.8078833502278039,nan
1741084700.866484,-0.19122260679934655,0.4767690674273566,-0.4124316942807725,-0.38529986640619607,nan
1741084700.8703737,-0.279525287607644,0.12087327541285639,0.6286442928165805,0.201953188389294,nan
1741084700.8742633,-0.5124416919263733,-0.34845517422511774,1.3771058578011837,0.4192630164042131,nan
1741084700.878153,-0.6989297586919165,-0.6607470042804187,1.2075124899780791,0.12230102005231296,nan
1741084700.8820426,-0.5341629942199402,-0.623060306409237,0.13682891716477685,-0.3320587837510278,nan
1741084700.8861444,0.08518659724017734,-0.24904336141781627,-1.1204296544705552,-0.4291060130778954,nan
1741084700.890034,0.8762431373765734,0.24388427838703375,-1.6540935902304927,0.013358320787163485,nan
1741084700.8939238,1.3144213395205409,0.5709894485591169,-1.051787464246368,0.6488852493001062,nan
1741084700.8978133,1.0244237342484857,0.5607470158840581,0.26454327301181235,0.8870215836855532,nan
1741084700.9017031,0.1051392752071057,0.25893879992335067,1.3454733790769304,0.4199656155834016,nan
1741084700.9055927,-0.8950280216908975,-0.11303150495071164,1.4382207453756202,-0.47141866011396005,nan
1741084700.9094825,-1.3583597780499115,-0.3160198664819648,0.555816199761789,-1.1149573218463615,nan
1741084700.913372,-1.0423787277700924,-0.2576870648916603,-0.5649860576289869,-0.9958714599808287,nan
1741084700.9172616,-0.2357733861993601,-0.04827347128417755,-1.077701947610247,-0.19193369420038647,nan
1741084700.9211514,0.49402294785098316,0.0933334667120977,-0.7026981905850438,0.6829528986899583,nan
1741084700.925041,0.7459285234512801,0.017599472031132095,0.09202679606695799,0.9856582782943065,nan
1741084700.9289308,0.5541859932036848,-0.2245920686954972,0.5442407382162416,0.5695011214067262,nan
1741084700.93303,0.27263200809263527,-0.4031244997560662,0.28418063625874507,-0.12233414389069008,nan
1741084700.9369197,0.20101553415053944,-0.2811916414086201,-0.34566910077312507,-0.4718368106196116,nan
1741084700.9408092,0.2997691351045531,0.1784262069012672,-0.6203642520367565,-0.24043030021032136,nan
1741084700.944699,0.2521372340566503,0.732294336240794,-0.12503062543480858,0.2311331768886137,nan
1741084700.9485886,-0.1855134736763965,0.9846426920744306,0.8077854982154578,0.35863832181989974,nan
1741084700.9524784,-0.8723699393513695,0.6598675191292213,1.329657674043512,-0.11251649055165243,nan
1741084700.956368,-1.315640938081406,-0.1660930446801767,0.8114290178915714,-0.8193899261334752,nan
1741084700.9602578,-1.0519951847696694,-1.0559017430696491,-0.543347410448022,-1.061691639628347,nan
1741084700.9641473,-0.0658606747035796,-1.4604117785552562,-1.7641691496285974,-0.42970692945382877,nan
1741084700.9680371,1.1210244141093608,-1.0774166729259644,-1.8554315483129409,0.7675794412163458,nan
1741084700.9719267,1.7890671843800827,-0.07349214112044895,-0.6234639862116825,1.6745745014144995,nan
1741084700.9758162,1.5295708528276983,0.9982032215185955,1.1086227292987658,1.5528270157535533,nan
1741084700.979913,0.5193310772122202,1.541962818721413,2.1084531292834336,0.3929480815996749,nan
1741084700.9838028,-0.6446417703547147,1.292534605347084,1.6890952490305626,-1.0454232857431387,nan
1741084700.9876924,-1.3892249272695159,0.4584096361248785,0.2321995972989105,-1.8114697635825145,nan
1741084700.9915822,-1.5112202940484072,-0.4566711251123578,-1.1506259850212166,-1.4823870930687049,nan
1741084700.9954717,-1.1679997050162214,-1.0085228792263232,-1.52958415666494,-0.43052208306969225,nan
1741084700.9993615,-0.5940186493654884,-1.072825161966381,-0.8715064665190028,0.5604597106793243,nan
1741084701.003251,0.13208411421819197,-0.827791072708485,0.03852229537803495,0.9657767746104183,nan
1741084701.0071409,1.0240037725157556,-0.5088497405444022,0.3747538368024487,0.8757991349406031,nan
1741084701.0110304,1.9109686736189697,-0.1733518836000924,0.0387236661609006,0.742573108493897,nan
1741084701.0149202,2.2936425548530797,0.30280095860037326,-0.2878203022315183,0.7957580905891448,nan
1741084701.0188098,1.602196253929509,0.989391946166246,0.12847214549673777,0.7289650608122528,nan
1741084701.0226996,-0.2572822963800462,1.6555218253884254,1.2247214396634758,0.014633184807335237,nan
1741084701.026794,-2.535298366383671,1.7884116910298011,2.00280983198991,-1.406289302853877,nan
1741084701.0306835,-3.886856350847819,0.948168010533492,1.340531826290393,-2.7409777382508094,nan
1741084701.0345733,-3.21394702586465,-0.7774129424566295,-0.8750740916579925,-2.763968664418707,nan
1741084701.0384629,-0.5445274995205157,-2.6056944558347306,-3.3137300582803686,-0.8390058192213982,nan
1741084701.0423527,2.759290213756625,-3.4091028178379785,-4.005627580693264,2.2800470505034123,nan
1741084701.0462425,4.744771797137011,-2.4308399805402967,-1.895686373676496,4.659414830121107,nan
1741084701.050132,4.1291420514258785,0.10557557645269543,2.069383959869333,4.4463117085532975,nan
1741084701.0540218,1.1971507045638532,2.961249837696336,5.314480892117692,1.320162102811979,nan
1741084701.0579114,-2.3364771891051617,4.5289550807027705,5.376335279683963,-3.0161315205646035,nan
1741084701.0618012,-4.434151993839977,3.7941960051789354,1.7913917368119177,-5.82175681191755,nan
1741084701.0656908,-4.035253219823993,0.9963654473930988,-3.331773324973027,-5.176795027540849,nan
1741084701.0695806,-1.6399169416166457,-2.451366446824193,-6.615704888393741,-1.3780741507792673,nan
1741084701.0736725,1.1815856741189947,-4.747132860231507,-5.74687704423259,3.1926958004031736,nan
1741084701.0775623,2.9147459445900834,-4.704296718085098,-1.1608899606946665,5.680649816405574,nan
1741084701.081452,3.0017943675292034,-2.3715588178956204,4.181733048637035,4.691362007739949,nan
1741084701.0853417,1.9208203671347661,1.0585550679589661,6.809333288609179,1.1470491115731531,nan
1741084701.0892315,0.5437057921777481,3.9299693918568406,5.108554212536677,-2.511766161233701,nan
1741084701.093121,-0.5831045386459344,4.954763816874477,0.36186236601895444,-4.112286597220665,nan
1741084701.0970109,-1.433745625879464,3.756864075654764,-4.242883564222666,-3.1596243719314043,nan
1741084701.1009004,-2.1219858472207647,0.9338998030054574,-5.850688097800513,-0.8817180713748554,nan
1741084701.1047902,-2.4396866519498976,-2.2789201616496455,-3.7934194853922545,0.9689329423074967,nan
1741084701.1086798,-1.8657965471670053,-4.525953055436564,0.19706894501982392,1.4926569647577612,nan
1741084701.1125696,-0.11576230786071176,-4.837593029263051,3.4133058715860742,1.1006146725354784,nan
1741084701.1164594,2.276746249867853,-3.005735365132734,4.071995487127682,0.8058504637878443,nan
1741084701.120549,3.987321655830048,0.27066715257056934,2.315643909485628,1.0945662915904457,nan
1741084701.1244388,3.7056320964312066,3.5747498049621687,-0.24992623175945425,1.4315339119985557,nan
1741084701.1283283,1.1831185207725108,5.329612426078713,-1.9221950529493192,0.840331051332019,nan
1741084701.1322181,-2.3313080282658767,4.5640128391246435,-2.044565857815434,-0.9864778358734559,nan
1741084701.1361077,-4.738208927550872,1.511023309998796,-1.148412959015119,-3.0950588249410806,nan
1741084701.1399975,-4.460746520729573,-2.3673053469361784,-0.2042197981654709,-3.825318115072596,nan
1741084701.1438873,-1.572706451236471,-5.070044909600381,0.2454786381460112,-2.149104447658815,nan
1741084701.1477768,2.175103523308267,-5.152208327350569,0.35221019323115793,1.3001108040766416,nan
1741084701.1516666,4.4965884729966,-2.58494749080361,0.5381119202389497,4.428564727603788,nan
1741084701.1555562,4.080750329328362,1.1882036348095932,0.9059627759113807,5.080398103314977,nan
1741084701.159446,1.4002160825746917,4.087131444402796,1.0824039459210981,2.6210161952648696,nan
1741084701.1633358,-1.721550478373899,4.622755274678906,0.6243346274841729,-1.5070678727896272,nan
1741084701.1674228,-3.409404599036989,2.7384461506954128,-0.43552931946412826,-4.715640138632667,nan
1741084701.1713126,-2.9335512409553037,-0.2627635589627525,-1.4620363960511753,-5.028410862534954,nan
1741084701.1752024,-0.9928356388920495,-2.6180772810820248,-1.676915936107451,-2.3899343831101794,nan
1741084701.179092,0.9895241169550987,-3.1997724355717967,-0.8217674210445812,1.3916243443210548,nan
1741084701.1829817,1.917177523693358,-2.0837234687851462,0.5656564376216536,3.9577915982317498,nan
1741084701.1868713,1.6252437257471968,-0.28436747836001364,1.5311816163007663,3.966489225927831,nan
1741084701.190761,0.706143300642917,1.0561485625175635,1.441753517550124,1.8120778035846352,nan
1741084701.194651,-0.1333681284576193,1.40017342892724,0.46738466652388233,-0.8909114212825857,nan
1741084701.1985404,-0.5809788614183532,0.9865489754478771,-0.5925199341045654,-2.532886157913927,nan
1741084701.2024302,-0.7328378015250475,0.43198889454930706,-0.9815519009527591,-2.494808524927018,nan
1741084701.20632,-0.7520141294136795,0.16639868310582773,-0.581892647165297,-1.273967927397745,nan
1741084701.2102096,-0.6027933966097587,0.16007355062916281,0.06344603814968577,0.14231874991880883,nan
1741084701.2142944,-0.14093487867732293,0.0959428532819361,0.2946540009025892,1.0309485157764524,nan
1741084701.2181842,0.5715836843539477,-0.24038761721653165,-0.05119904795341505,1.2480191868159234,nan
1741084701.222074,1.118157285806528,-0.7239864340630898,-0.5053110621291449,1.0211810461245459,nan
1741084701.2259636,0.9880320912728097,-0.9977792510913946,-0.43076182215956876,0.5767365862089046,nan
1741084701.2298534,0.06853794357379005,-0.7953634192626001,0.3316344897358888,-0.005212730546396595,nan
1741084701.2337432,-1.0966286981841746,-0.17727119996635665,1.2266458058589291,-0.6431534701835813,nan
1741084701.2376328,-1.6079237515086127,0.5175212653527986,1.4043294756202818,-1.0830716449607032,nan
1741084701.2415226,-0.9130725913983675,0.9376066029602054,0.4687984783582081,-0.9854112462897965,nan
1741084701.245412,0.6488697158056844,0.954963805256134,-1.0835173908119904,-0.24929151783113307,nan
1741084701.249302,1.9713145861428225,0.679384994700688,-2.1481650178510066,0.7491622066241872,nan
1741084701.2531917,1.9672583297532351,0.28332371219744124,-1.8408576112841901,1.3133473623567238,nan
1741084701.2570813,0.4470677522921436,-0.15883638805530073,-0.22420164269226658,0.941013836935331,nan
1741084701.2611823,-1.6238662470416227,-0.6513710694303748,1.6622419954014738,-0.20657745789383714,nan
1741084701.265072,-2.755666566278044,-1.1167006497490757,2.525991763541224,-1.3195915291805516,nan
1741084701.268962,-2.0256846619350712,-1.2999831502202663,1.761315629030748,-1.5076815877482992,nan
1741084701.2728515,0.18861598097328486,-0.9025227108379251,-0.1093593546709743,-0.5121087059103793,nan
1741084701.2767413,2.4162033319853733,0.11933785164501033,-1.8222739125867504,1.0178498792376955,nan
1741084701.280631,3.1168438973898995,1.3563792066480296,-2.282785217475348,1.953173559521902,nan
1741084701.2845206,1.7784046764120311,2.0898018562997898,-1.310471333866533,1.5269895042139623,nan
1741084701.2884104,-0.7179332321781712,1.7501865804596308,0.31450941227487145,-0.054017726073242366,nan
1741084701.2923002,-2.7225947918978397,0.37467383086904676,1.4853825105829064,-1.7180618441302744,nan
1741084701.2961898,-2.961910979267986,-1.3130567853422126,1.5622126278332582,-2.294244460826723,nan
1741084701.3000796,-1.3736065075482236,-2.3200488231325163,0.7332685147530563,-1.362261602141367,nan
1741084701.3039694,0.9306420244314557,-2.0352193188221523,-0.26433315231317417,0.45191776854934895,nan
1741084701.308068,2.484606934482933,-0.6477762030555844,-0.7694604682386226,1.9419397301813113,nan
1741084701.3119576,2.439719091606631,0.9802896661238542,-0.6482688254986229,2.1784722164364707,nan
1741084701.3158474,1.020978002933053,1.898997102700457,-0.25667126115044814,1.1160383126438234,nan
1741084701.3197372,-0.7666276537234068,1.6859177602369413,-0.02621749782822137,-0.46466408193289915,nan
1741084701.3236268,-1.8730578546988323,0.6564628816202632,-0.07308916040603956,-1.5710013867595842,nan
1741084701.3275166,-1.8269777226795068,-0.4463693051320602,-0.15874024835562947,-1.6675988782064624,nan
1741084701.3314064,-0.8763469097019042,-1.0072396803573553,0.006745753977940245,-0.923073080368378,nan
1741084701.3352962,0.32541834478256154,-0.9092786872123095,0.4272538511014109,0.06348477959098767,nan
1741084701.3391857,1.169807466981071,-0.4791728982867363,0.769711018181839,0.7543422995154199,nan
1741084701.3430755,1.3685228769980429,-0.12169897672688666,0.6513283125068503,0.9765644801571353,nan
1741084701.3469653,0.9644057870352468,0.014447684426179077,0.010404222357147904,0.8627246351302512,nan
1741084701.3508549,0.19794389057280273,0.07277012761503714,-0.7738341903287366,0.5864869468927182,nan
1741084701.3549511,-0.6158928101703243,0.24815715593538845,-1.1369432393992023,0.19017343931094702,nan
1741084701.358841,-1.1571341587313684,0.5303668084589407,-0.7669248380652707,-0.3462109890183195,nan
1741084701.3627305,-1.1758631056854778,0.6827965711565788,0.12890333077569044,-0.91401237355352,nan
1741084701.3666203,-0.6123379103998812,0.4723350882462568,0.9504329715901914,-1.2123928783672235,nan
1741084701.37051,0.30514757866214737,-0.07340200264958374,1.1364744126717616,-0.9347370489451239,nan
1741084701.3744,1.109493059626308,-0.6332157601279589,0.5735560160704588,-0.06824743700112829,nan
1741084701.3782895,1.333432040409156,-0.8309833442068025,-0.3270469496349172,0.9750567329828629,nan
1741084701.3821793,0.8122245204179253,-0.5430356329801955,-0.9362416274200849,1.5645838724703072,nan
1741084701.386069,-0.17171687319843854,-0.002472711524712605,-0.8613655436135996,1.2804333772913854,nan
1741084701.3899589,-1.0401128177315728,0.3960166852809288,-0.2108931472714293,0.24270243796372298,nan
1741084701.3938484,-1.2862559393727242,0.4228979346010575,0.5127187495445985,-0.9302773484293491,nan
1741084701.3977382,-0.8029239944250169,0.18654271117969515,0.7941638837342676,-1.5263306269892907,nan
1741084701.401832,0.06650680876307372,0.0022508344908945344,0.4707753442873264,-1.2160667549885074,nan
1741084701.4057217,0.7842879806463833,0.07881501091049961,-0.17684708435292631,-0.2551008030475715,nan
1741084701.4096115,0.9821770331701685,0.3098136760770347,-0.6543179285267194,0.7230394731371181,nan
1741084701.4135013,0.6650212091878573,0.3671479899708559,-0.6185306218845191,1.1518467648516717,nan
1741084701.417391,0.1292253091774853,0.023396187667083,-0.11238187891350646,0.8831935578307378,nan
1741084701.4212806,-0.29997946379436025,-0.5852182314734077,0.48567850439970717,0.21281282146051006,nan
1741084701.4251704,-0.4844519596726271,-1.0079977329796415,0.7430419983539637,-0.3914761109457962,nan
1741084701.4290602,-0.48718631490382547,-0.8296504483150825,0.4766120159948773,-0.6216785608860858,nan
1741084701.43295,-0.42092564075291855,-0.040183002261098104,-0.12990103694683297,-0.48032316172617157,nan
1741084701.4368398,-0.3044915330095604,0.8946346272170788,-0.6634428490446436,-0.18438561212225313,nan
1741084701.4407294,-0.0679980608378289,1.3467939602591141,-0.7673891823343811,0.04885180045430095,nan
1741084701.4446192,0.3112559157335325,0.9907983992788556,-0.377561374766039,0.14604767397771068,nan
1741084701.4487107,0.6945925904397297,0.05341407451297835,0.2451531761057496,0.163211997275195,nan
1741084701.4526002,0.8269154557612124,-0.8516903504550657,0.6974984255696209,0.17248644170307867,nan
1741084701.45649,0.5289686690158191,-1.1734928053262275,0.7022860146044352,0.1778696575010513,nan
1741084701.4603798,-0.12159531981792997,-0.8034434484648977,0.28261514989070635,0.13109870355805855,nan
1741084701.4642696,-0.7879078938693064,-0.09874937096697786,-0.2689360640999536,0.009767575841142476,nan
1741084701.4681594,-1.076985199868203,0.44135069473696514,-0.5972765249827865,-0.13541398495529455,nan
1741084701.472049,-0.8040458435699486,0.5612140500538112,-0.5222964381223509,-0.2152003096873875,nan
1741084701.4759388,-0.11922349088626702,0.38314487220217835,-0.14501156056566733,-0.18135600268158242,nan
1741084701.4798286,0.595320415820743,0.21016912854282432,0.2447817836915085,-0.06976186078902803,nan
1741084701.4837184,0.9734665606107858,0.20410136917729763,0.386130862031955,0.03538663972740183,nan
1741084701.4876082,0.873954190890178,0.24034341237489137,0.22934173626000182,0.07916616795565287,nan
1741084701.4914978,0.41611651810776523,0.06707787445680966,-0.04815388060294381,0.0778446265802948,nan
1741084701.4955869,-0.14553514892160124,-0.3879426935452891,-0.1979547062743227,0.08526580504837837,nan
1741084701.4994767,-0.5835829328090111,-0.8623683109529114,-0.10412193622461835,0.12094737526272253,nan
1741084701.5033662,-0.779550183275977,-0.927684483266219,0.1265009707463028,0.13711615357854853,nan
1741084701.507256,-0.7079660532648809,-0.3625702079722801,0.2587199578943586,0.06438258837613117,nan
1741084701.5111458,-0.39380560923385005,0.5879022566514478,0.13281420329825233,-0.10417248346625058,nan
1741084701.5150356,0.08874614524319341,1.316538018092465,-0.18803102390070875,-0.2755064834775896,nan
1741084701.5189254,0.5867502569359715,1.2787564291649338,-0.4518604739010672,-0.3141107692702241,nan
1741084701.5228152,0.8812449077255721,0.4197590968670208,-0.4149416832390969,-0.15510761886511631,nan
1741084701.5267048,0.7886644102735181,-0.7392224728802652,-0.04820862946388797,0.12478121032490395,nan
1741084701.5305946,0.3008832655527843,-1.4445698622241965,0.4158691241824158,0.34806852224513096,nan
1741084701.5344844,-0.35613485312088433,-1.2385276334029012,0.6438805321514213,0.36490740634789337,nan
1741084701.5383742,-0.8273130597317746,-0.27961159279013975,0.45237103440805315,0.16686181942038938,nan
1741084701.5424607,-0.8504734836573239,0.7803293689975237,-0.045113208384179385,-0.10789584215848642,nan
1741084701.5463505,-0.43738295622250295,1.2625321429250498,-0.513069009623443,-0.28226867946339473,nan
1741084701.5502403,0.13232432757696816,0.9210207716763558,-0.6376306877279245,-0.27117626435309117,nan
1741084701.55413,0.5112386468467177,0.06868945169506577,-0.35321751172050686,-0.12939902715546722,nan
1741084701.5580199,0.5285092681456937,-0.69196812208643,0.11980023296074496,0.015749315619371564,nan
1741084701.5619094,0.28834634697227085,-0.9044691107914515,0.45001035254257715,0.07977700768145521,nan
1741084701.5657992,0.04915733263072072,-0.5358896124603717,0.44142616035568943,0.08030807937875112,nan
1741084701.569689,-0.009863290140997166,0.07476606994909105,0.16068417071994717,0.09261970636977508,nan
1741084701.5735788,0.06499504519296014,0.5085874350814408,-0.1439242920664908,0.15122792709615088,nan
1741084701.5774686,0.06706712958044184,0.5525559253505379,-0.2527478084204377,0.19738627963144464,nan
1741084701.5813584,-0.15257555263759626,0.2820931583539257,-0.1388479920394899,0.12931149372004805,nan
1741084701.5852482,-0.5081128711414393,-0.06894138631129869,0.040358421059202634,-0.08598262850583957,nan
1741084701.5893323,-0.7087709037629492,-0.30208662199456165,0.10134524240929055,-0.34459944534302445,nan
1741084701.5932221,-0.48857457141281596,-0.35389524158946506,-0.0016355047757318302,-0.45692503716135535,nan
1741084701.5971117,0.14512423893503054,-0.2620681172709234,-0.14658881867887114,-0.2917092294638103,nan
1741084701.6010015,0.8550611445494272,-0.08155347260768125,-0.16573656029525533,0.1002414623331935,nan
1741084701.6048913,1.1763212507475145,0.147578545166837,-0.005960039465095157,0.4911094323311098,nan
1741084701.608781,0.8406560898256966,0.3638241440944981,0.21534879954653485,0.6208755274114133,nan
1741084701.612671,-0.015189107072473054,0.4537773278629663,0.30788616244115463,0.38091607589875115,nan
1741084701.6165607,-0.9143190217122573,0.3027171394534751,0.1741061902289116,-0.10006318776044176,nan
1741084701.6204505,-1.3363823100567949,-0.09004340954888447,-0.10087091536904123,-0.5338770212642366,nan
1741084701.6243403,-1.0414639235317285,-0.5391075375235879,-0.31311090051304463,-0.6600861868425042,nan
1741084701.62823,-0.2067199525850021,-0.7454735282944773,-0.30389255263755266,-0.41096980244096454,nan
1741084701.6321197,0.6990505387046855,-0.49947853303109885,-0.08627081404103429,0.05544702451836402,nan
1741084701.6362202,1.2013358882620624,0.12875182027840001,0.1696908174797007,0.4659433416506207,nan
1741084701.6401098,1.0774872950999022,0.7774743213231179,0.2767428266723937,0.6015335781645045,nan
1741084701.6439996,0.4436277814328274,1.0067234687397397,0.1763330874579883,0.414350528120847,nan
1741084701.6478894,-0.3467385262376499,0.6062775070853529,-0.027912000112244668,0.03140447876445128,nan
1741084701.6517792,-0.904030460739224,-0.2251002541009375,-0.16836482552881213,-0.335801548703337,nan
1741084701.655669,-0.9873744538512166,-0.9771756413200006,-0.15261704835173356,-0.5077923551321483,nan
1741084701.6595588,-0.596207110432082,-1.1547717380698799,-0.02590966946515179,-0.41661608827963337,nan
1741084701.6634486,0.04977802078465289,-0.6141737085907498,0.08706997017694519,-0.12280383998503092,nan
1741084701.6673384,0.6205654733709544,0.32623946178811997,0.09880406081307035,0.2216646192283942,nan
1741084701.6712282,0.8322245218859261,1.0832303243675279,0.02708169760869112,0.4428599496980507,nan
1741084701.675118,0.5892220809316923,1.1833026468731183,-0.0400756083905401,0.42421641268609894,nan
1741084701.6790078,0.04280580435907926,0.5646356970078299,-0.03993412449163015,0.1686240075983787,nan
1741084701.683124,-0.4818586175961024,-0.3894577526212149,0.004731548459583957,-0.1894590827776706,nan
1741084701.6870139,-0.6704866102041857,-1.0983408433066313,0.018102072689371796,-0.4436320868825294,nan
1741084701.6909037,-0.4167982734653204,-1.1446484693460766,-0.03822672919877054,-0.43089149569815827,nan
1741084701.6947935,0.09873129998656922,-0.5186298034989718,-0.11028420201062518,-0.14078544701853019,nan
1741084701.6986833,0.5181388765596998,0.3945178851549961,-0.09469794679253794,0.2582178594595273,nan
1741084701.702573,0.5458358166850935,1.0586417018217835,0.05252798440157795,0.5099184965314068,nan
1741084701.7064629,0.15817164990149382,1.1023521626826993,0.24449201862388414,0.43407423258457406,nan
1741084701.7103527,-0.3713091660768909,0.5207329172714441,0.3099006966509638,0.0564043050003501,nan
1741084701.7142425,-0.6593187858205989,-0.34073535262420224,0.13572788844290593,-0.3912732550635358,nan
1741084701.7181323,-0.4846176568568092,-0.9944880521101386,-0.21071745696398964,-0.6132661130701302,nan
1741084701.7220218,0.051736380574280115,-1.0849211993063854,-0.49622511554536625,-0.445762611588977,nan
1741084701.7259116,0.5950193594441978,-0.5771224087598885,-0.48321163077079965,0.026587143159929983,nan
1741084701.7300072,0.7836461892964839,0.23584966964499016,-0.12231789763598484,0.5163800430221567,nan
1741084701.733897,0.49414276433531285,0.9032886814318909,0.3799416446345962,0.71445329743075,nan
1741084701.7377868,-0.0879976513902262,1.0673925624224512,0.6870221809959606,0.4868823949475679,nan
1741084701.7416766,-0.6091203699551325,0.6559066572297744,0.5697267108161039,-0.040643033437881455,nan
1741084701.7455664,-0.783971578106292,-0.08797982071485881,0.0796922227686592,-0.5620592889018761,nan
1741084701.7494562,-0.5570958518421338,-0.7518035056472444,-0.47500177663694804,-0.7774336223379443,nan
1741084701.753346,-0.09409866883226128,-0.9889988741091029,-0.7389877061483954,-0.5670259093542007,nan
1741084701.7572358,0.35762460495372694,-0.705519369612527,-0.5518020848681885,-0.050888852291956985,nan
1741084701.7611256,0.6165680898010637,-0.092312648281428,-0.04880670615972876,0.4900680213962823,nan
1741084701.7650154,0.6263105891160813,0.5056860144178374,0.4447664401241084,0.7738694920191711,nan
1741084701.7689052,0.4230513448957623,0.7940400114294339,0.6394904369521236,0.6638595775196153,nan
1741084701.772795,0.07994271810953905,0.6790290610799637,0.4609129002056638,0.22798029398713912,nan
1741084701.7768881,-0.3117140592734086,0.2823585725151016,0.06518282493792572,-0.3083567521242309,nan
1741084701.780778,-0.6301240024098828,-0.16626196535926208,-0.29623604491072414,-0.6817225403027337,nan
1741084701.7846677,-0.7336596476456003,-0.47084436487881137,-0.4457159096379075,-0.7197412646790954,nan
1741084701.7885575,-0.5277662674532859,-0.5524248796177167,-0.36217752589591906,-0.4191051393814305,nan
1741084701.7924473,-0.051847282410510995,-0.4405654439386995,-0.14362943185272967,0.06139728537218612,nan
1741084701.7963371,0.49551678180823133,-0.21084058421220805,0.08880943693509474,0.4865205800142921,nan
1741084701.800227,0.8425606189230774,0.06638638073149755,0.25708775794708155,0.6641578833442168,nan
1741084701.8041167,0.8015153578691894,0.3312457723766094,0.3264904674106175,0.5361119521233785,nan
1741084701.8080065,0.38842985659163337,0.5132710252093201,0.27596382443065026,0.1927780200734387,nan
1741084701.8118963,-0.1848366009601082,0.5303653267191526,0.09636196424592226,-0.19100364611013998,nan
1741084701.8157861,-0.6418599045816064,0.3309846043965883,-0.17069813216313764,-0.4542791415712186,nan
1741084701.819676,-0.7988129804068541,-0.047172163364466835,-0.40324053505631624,-0.5204634824413751,nan
1741084701.8237667,-0.6387122094246886,-0.4577494266641647,-0.44014873552113404,-0.4043472806787384,nan
1741084701.8276565,-0.27076299117319136,-0.7006525938152904,-0.19456429743755935,-0.17011891368897997,nan
1741084701.8315463,0.1632446481178802,-0.6303134204803276,0.24116954079581007,0.11213726974345942,nan
1741084701.835436,0.5467003068852827,-0.2502370891803542,0.6036061046519375,0.37581145900208524,nan
1741084701.839326,0.7806034680511902,0.2715901505103158,0.612511295327459,0.5420657308655918,nan
1741084701.8432157,0.7626714688355328,0.6826695918467094,0.18341233712359611,0.5219408883455773,nan
1741084701.8471055,0.4228981441046422,0.7770089238892415,-0.46183313940253634,0.26523893217711236,nan
1741084701.8509953,-0.18411931842951754,0.502834721083365,-0.8979169598636996,-0.16924729544785697,nan
1741084701.854885,-0.8194546038439958,-0.010484066584134737,-0.7740991719050845,-0.591725523010213,nan
1741084701.858775,-1.1338573996250831,-0.5166461259751385,-0.08482047333676611,-0.760217156092391,nan
1741084701.8626647,-0.8771403012045978,-0.7722200151294042,0.7723751296767988,-0.5343918506552453,nan
1741084701.8665545,-0.10869379289254391,-0.6541197182941354,1.2247631210037133,0.0006276387393477852,nan
1741084701.870643,0.7710200575088626,-0.2213448180238077,0.9078492755564925,0.5503302750301876,nan
1741084701.8745327,1.2395221250265558,0.30878294791657024,-0.05483030441331875,0.7850144434708588,nan
1741084701.8784227,0.998126841838548,0.6648339407731046,-1.0858695305856996,0.5639606325651826,nan
1741084701.8823125,0.19609990925551693,0.6623992694971518,-1.5070448180514164,0.04367231350180332,nan
1741084701.8862023,-0.651390967360375,0.3108029333259555,-0.9910947601085496,-0.4247466981904482,nan
1741084701.8900921,-1.0140240483083198,-0.18175275093979487,0.1928302677038471,-0.5465061352878869,nan
1741084701.893982,-0.715812557210179,-0.5233114357300537,1.3212689539072213,-0.29681109516845167,nan
1741084701.8978717,-0.045406217291772015,-0.5168031462913614,1.6707756797542,0.07121570337598924,nan
1741084701.9017615,0.4792409722821439,-0.19093848674997535,0.9925185204715528,0.23746279107159282,nan
1741084701.9056513,0.510810522898819,0.21294033140475413,-0.31010175552262487,0.08105838166827282,nan
1741084701.9095411,0.12540247835974205,0.4040759609174922,-1.4281295365483297,-0.21517853697737396,nan
1741084701.913431,-0.2681098099562869,0.2510285460556269,-1.6639097901634534,-0.31690392891595337,nan
1741084701.9175167,-0.284357545541766,-0.11547679627701518,-0.8805354326856039,-0.0335276229567774,nan
1741084701.9214067,0.10823221559585557,-0.3923154552592999,0.4129027477325475,0.4844098095544876,nan
1741084701.9252965,0.5543705273439152,-0.33255519006975776,1.3965718575053485,0.822877341881901,nan
1741084701.9291863,0.6066410601808516,0.054251977294250485,1.4725697993308424,0.6193420147109794,nan
1741084701.9330761,0.11078343106854237,0.48923711988445584,0.6421700722086165,-0.12158183613324229,nan
1741084701.936966,-0.6338420159857935,0.6228380977427392,-0.5176801755770932,-0.9689198728404015,nan
1741084701.9408557,-1.0778069054224586,0.3037171097683795,-1.2528927301272392,-1.334997217042657,nan
1741084701.9447455,-0.838385964720846,-0.28800724545283773,-1.1305385488218893,-0.8934920505659679,nan
1741084701.9486353,-0.00675371280480838,-0.754569380622433,-0.3026672377109669,0.1596340637829313,nan
1741084701.9525251,0.8948281461006954,-0.764876343959733,0.6302205516241506,1.2036704341614517,nan
1741084701.956415,1.2766585326838913,-0.2972501805128234,1.0460380911518457,1.5919341439647265,nan
1741084701.9603047,0.893657982644089,0.3443192997596132,0.7166614852497405,1.075683444841862,nan
1741084701.9643884,0.00404546342114899,0.752205720567513,-0.06775102683668931,-0.03908958825801531,nan
1741084701.9682782,-0.8280154747283828,0.7035146391804659,-0.7328721953774142,-1.1000265314910163,nan
1741084701.972168,-1.1234192523320226,0.29534518140622085,-0.8310349981115804,-1.5247033376312864,nan
1741084701.9760578,-0.7837428418313896,-0.16554296557884549,-0.33648474887268365,-1.1385385871636826,nan
1741084701.9799476,-0.09883703000113532,-0.4136900049797406,0.3691132890938178,-0.22768471599892834,nan
1741084701.9838374,0.49918578816104964,-0.40572738339931785,0.7881355734722353,0.6875341241050421,nan
1741084701.9877272,0.7268967066043855,-0.2919459546853752,0.6537765382694611,1.1732417453217516,nan
1741084701.991617,0.5795125656561724,-0.22580236607493656,0.0900425746992392,1.0854965692267695,nan
1741084701.995507,0.24771226834728072,-0.19882537942699627,-0.506915816628187,0.5664511253566687,nan
1741084701.9993968,-0.06555838560598945,-0.060644424697954044,-0.7569716069002598,-0.10277352091487874,nan
1741084702.0032866,-0.2678453289573843,0.2898038863497305,-0.5396184048411543,-0.6588135833787678,nan
1741084702.0071764,-0.3670429989564085,0.7242609198903979,-0.03528630310268439,-0.9340584888105193,nan
1741084702.011276,-0.38432682600021356,0.9088661586670504,0.4333917802411668,-0.8619055165008022,nan
1741084702.015166,-0.3003648570812282,0.5550862135209239,0.621645386943072,-0.46702693818425584,nan
1741084702.0190558,-0.08929885547649223,-0.2903714620263448,0.4875390211566702,0.12726615687008622,nan
1741084702.0229456,0.20578425189340815,-1.1743712728921345,0.16197379272816098,0.7017152316323757,nan
1741084702.0268354,0.4493439330210805,-1.49367624572314,-0.17504026384293292,1.0019240924923036,nan
1741084702.0307252,0.4868332845662745,-0.9255432998368243,-0.4004619186218839,0.8597901340825845,nan
1741084702.034615,0.2643675559199368,0.28591088993133273,-0.47173841033805874,0.3079478507416894,nan
1741084702.0385048,-0.10864781306289904,1.4290274656164677,-0.38977558018067177,-0.4038529316116981,nan
1741084702.0423949,-0.4169760329780538,1.7746843088082402,-0.1691742476291708,-0.925909781185608,nan
1741084702.0462847,-0.4815799645108927,1.0728031093108679,0.1462809707070685,-0.9987830604964952,nan
1741084702.0501745,-0.2794885896919768,-0.2607527647011364,0.4518755486585536,-0.5973579158439862,nan
1741084702.0540643,0.04839776382248129,-1.4090456541825251,0.5956895061370819,0.0625828852695955,nan
1741084702.0581615,0.30237085416470777,-1.689615992313399,0.4616741523585412,0.6532310396071288,nan
1741084702.0620513,0.35715435171229937,-0.9881755954390093,0.07078820720454103,0.910615630950748,nan
1741084702.065941,0.22561718485125498,0.20146660582293208,-0.3904618119651221,0.7518763207243224,nan
1741084702.0698311,0.019348613308028825,1.1365785470440117,-0.6626932974148726,0.2833784902918011,nan
1741084702.073721,-0.14535847270022798,1.3135937700420108,-0.5795850807277204,-0.27610825484769247,nan
1741084702.0776107,-0.21565534229447625,0.7488665233611622,-0.18849830535286424,-0.696049048634224,nan
1741084702.0815005,-0.20177675952416316,-0.10880366842889883,0.2718493282721886,-0.8131663317793555,nan
1741084702.0853903,-0.13180739349455223,-0.7254936692068591,0.5302183186098282,-0.5790304656568213,nan
1741084702.0892801,-0.018914748576219734,-0.8204653240686853,0.4649656866409114,-0.08103655162815829,nan
1741084702.0931702,0.12649035618250232,-0.47643327803374713,0.17449407375612436,0.4719247111681838,nan
1741084702.09706,0.2615967548035199,0.0023159241376870397,-0.11423248440256487,0.8188620197543879,nan
1741084702.1009498,0.30448932415693164,0.33156837917241827,-0.22380173005728496,0.7679130688349856,nan
1741084702.1050446,0.1827857636270188,0.4035233315687189,-0.14997244610490443,0.31617972881536394,nan
1741084702.1089344,-0.0923152687384522,0.28055004496968133,-0.037019049743398404,-0.31537592806027637,nan
1741084702.1128242,-0.39294597883766225,0.08708427982561306,-0.033091250920880666,-0.7825107606244347,nan
1741084702.116714,-0.5283432637552418,-0.08475196108654175,-0.15113671396830508,-0.8151263985570563,nan
1741084702.1206038,-0.36582895222114076,-0.19303166339853856,-0.2540897639288793,-0.3910248859970837,nan
1741084702.1244938,0.06023348917402892,-0.21504009721091108,-0.1780811446610576,0.23759008173741628,nan
1741084702.1283836,0.5353796445796802,-0.13344250780956154,0.10926253168996693,0.6963652012509278,nan
1741084702.1322734,0.7734460237943416,0.034842048939615754,0.45084454715685585,0.7251233976221982,nan
1741084702.1361632,0.58962409377365,0.20788978075618067,0.5989896095603341,0.33875465932788196,nan
1741084702.1400533,0.031670404975559174,0.26451143954418377,0.40096126221716033,-0.1966212239045064,nan
1741084702.143943,-0.6195695889814447,0.13142215807801982,-0.07171780225193493,-0.5504992724265411,nan
1741084702.1478329,-0.9936097382696814,-0.13573163324721535,-0.553189402888598,-0.5422939851813618,nan
1741084702.1519253,-0.8430158933759188,-0.360984803534751,-0.7550619833047204,-0.23588256831427623,nan
1741084702.1558151,-0.2027855220081836,-0.3634974951854938,-0.556375933494299,0.13731663231690486,nan
1741084702.159705,0.6039892710753059,-0.10120732993446105,-0.07711165607278381,0.35287555321837105,nan
1741084702.1635947,1.131288623798756,0.2747186215487677,0.4100334875661016,0.3319426748483004,nan
1741084702.1674848,1.0625383954682797,0.5116507966166737,0.6575106975329746,0.15511468726971703,nan
1741084702.1713746,0.40600468362539155,0.43464400538301373,0.5823223323846173,-0.033023008981989115,nan
1741084702.1752644,-0.49021919285907506,0.07843238558987708,0.2807130889982332,-0.13645132049797715,nan
1741084702.1791542,-1.12732331709122,-0.33154796381846857,-0.06900959065658271,-0.1512284011592663,nan
1741084702.183044,-1.146717686285916,-0.5372318219850053,-0.32664654855441655,-0.12591741251701544,nan
1741084702.186934,-0.5470355225495853,-0.4255717770530004,-0.4457650081872437,-0.09488850218452931,nan
1741084702.1908238,0.31374429987917374,-0.09384992124177813,-0.44473067032463814,-0.05082498061611333,nan
1741084702.1947136,0.939860172445542,0.23788322343822763,-0.3445918230369003,0.026374668033618508,nan
1741084702.1988037,1.0038144632858268,0.3890878128669955,-0.14275814573469328,0.12434190315361539,nan
1741084702.2026937,0.5366646691138346,0.327850226777108,0.15363596483765718,0.1892233836973059,nan
1741084702.2065835,-0.12164373645320507,0.15401034317719223,0.47429847282292736,0.1660094196829336,nan
1741084702.2104733,-0.5698914965991164,-0.008718669510885723,0.677255978100262,0.050685384064251424,nan
1741084702.214363,-0.610666871655602,-0.10868765766073366,0.6154958524034215,-0.09649633856100359,nan
1741084702.2182531,-0.34564318264835,-0.17264666377375798,0.24315709911221284,-0.19180185653060383,nan
1741084702.222143,-0.046459582058056406,-0.23430313276077813,-0.31693488986584645,-0.18839556642687233,nan
1741084702.2260327,0.0815805398127631,-0.26789095279964575,-0.8060497369261904,-0.10468657086440362,nan
1741084702.2299228,0.04890846649023072,-0.19957900676062082,-0.9586503711414818,0.0006228546399387804,nan
1741084702.2338126,0.029512992812585095,0.009484032864625212,-0.6558540436630687,0.07963117196452679,nan
1741084702.2377024,0.16416230165367288,0.28903237204286847,-0.009020728818948113,0.12427050670256998,nan
1741084702.2415922,0.39875179581530446,0.4754133997044047,0.6821019825381764,0.1501161860844743,nan
1741084702.2456799,0.5077638673784257,0.4216153067803009,1.0783362362810838,0.15792451898931162,nan
1741084702.24957,0.2925979105237786,0.11880380786153194,0.9763514993710083,0.11829660084738301,nan
1741084702.2534597,-0.2127640761381214,-0.27358073553981394,0.4150900299089784,0.0014867271593337424,nan
1741084702.2573495,-0.7149950939175329,-0.5240803438781404,-0.3425884471515243,-0.1732280552606733,nan
1741084702.2612395,-0.8575556179035392,-0.4852741032485344,-0.9411472809708422,-0.3203341152198057,nan
1741084702.2651293,-0.4950139136255354,-0.19271625149012123,-1.106460196305374,-0.33211962840332077,nan
1741084702.2690191,0.17531859055013874,0.16680650082543677,-0.7739922655540298,-0.15902848374042067,nan
1741084702.272909,0.7394114878264231,0.3895667819360627,-0.1100472495828668,0.1364747688854222,nan
1741084702.276799,0.8595589937521616,0.3868119355897114,0.5779019523526896,0.4015601876121108,nan
1741084702.2806888,0.507598303904019,0.21864184455152302,0.9904543355803366,0.48263855660808297,nan
1741084702.2845786,-0.04054699366744114,0.018283593030107976,0.9686535054986836,0.32208138380802626,nan
1741084702.2884686,-0.43379591789082944,-0.1181444986288216,0.5492323411899598,-0.005038814713870094,nan
1741084702.2925537,-0.5044936139034026,-0.18324517922275205,-0.07226326601621635,-0.3365311531331632,nan
1741084702.2964437,-0.34893171632520603,-0.21937600530739104,-0.6389479880881723,-0.515265059887079,nan
1741084702.3003335,-0.1824969971217647,-0.24077054335161058,-0.9373879543896564,-0.4664169904423479,nan
1741084702.3042233,-0.11734055126869954,-0.20067013307170423,-0.8671261411200019,-0.21972293965785344,nan
1741084702.3081133,-0.07094833737763283,-0.041117852641173215,-0.4612309021895503,0.11947026189579524,nan
1741084702.3120031,0.1127096112979857,0.21952545772431722,0.13247790881936067,0.4189554424404793,nan
1741084702.315893,0.44950228377405127,0.4505425896701302,0.6956617089575772,0.5623460476832699,nan
1741084702.319783,0.7245249989951964,0.4769973644445254,1.0035445631037692,0.4817922509034774,nan
1741084702.3236728,0.6380302545338541,0.21473462969179768,0.9050915407878097,0.18615940168454906,nan
1741084702.3275626,0.08436976565919159,-0.2331056259137522,0.40022082091848465,-0.22304389380120326,nan
1741084702.3314526,-0.6809249924595009,-0.6083517041886258,-0.32619579763244344,-0.571548860565517,nan
1741084702.3353424,-1.162298556745734,-0.6561826931833734,-0.9544069938255063,-0.6824602161479172,nan
1741084702.3394253,-0.975501482342255,-0.30599270351140956,-1.1679248478999982,-0.47346290255043855,nan
1741084702.3433151,-0.1636714808590012,0.25768520114053733,-0.8235617856523558,-0.02194700377715111,nan
1741084702.347205,0.785668294863888,0.6961991833184725,-0.055977027634528984,0.45695409222785655,nan
1741084702.351095,1.262927492372394,0.7307630806541967,0.762761404121288,0.7215595968348623,nan
1741084702.3549848,0.9674789070033809,0.32708782264599745,1.2086112255735382,0.6403859836280024,nan
1741084702.3588746,0.1207461025257783,-0.27573706276976323,1.0406945683307511,0.26558516629334644,nan
1741084702.3627646,-0.7023054806936561,-0.7138323380441961,0.3461568803473812,-0.20519683931799987,nan
1741084702.3666544,-0.9920057326635026,-0.7268445333869534,-0.5006983483235005,-0.5489072161725614,nan
1741084702.3705442,-0.6515431860832004,-0.3168653944932162,-1.048556302277957,-0.6350524935117048,nan
1741084702.3744342,-0.017541515707608948,0.26150053906223764,-1.0246416071329059,-0.4687136310853269,nan
1741084702.378324,0.4376242287732393,0.6662872066434643,-0.4815713051609739,-0.1499386106773089,nan
1741084702.382214,0.4675773030211201,0.6768195174653395,0.2499488643868343,0.19841314914148278,nan
1741084702.386313,0.19315223895479017,0.31439594882166,0.7661285590993733,0.4749016583914857,nan
1741084702.3902028,-0.06276456112220138,-0.19104204691872892,0.8218940126610109,0.6017281466882617,nan
1741084702.3940926,-0.07858537005330743,-0.5531451051195557,0.45108609750533263,0.5200509338925219,nan
1741084702.3979826,0.0904223896653811,-0.5963126873768501,-0.08490608102931294,0.21608010253841514,nan
1741084702.4018724,0.2002715064349076,-0.3373872215350721,-0.4721972001100685,-0.23125322017393823,nan
1741084702.4057624,0.07042198993718139,0.05327260054343021,-0.5277257956567101,-0.6373651222026089,nan
1741084702.4096522,-0.23531886029137708,0.3687535283791741,-0.28443865651683803,-0.782354984450178,nan
1741084702.413542,-0.45937254571533526,0.478673988971643,0.058132791904494205,-0.5451382854886222,nan
1741084702.417432,-0.38141616225923125,0.37483714280920755,0.27310898191179606,-0.010109921977806916,nan
1741084702.4213219,-0.020390323755849003,0.14074286499551059,0.2455333815916522,0.5494199439795868,nan
1741084702.425212,0.371479179399199,-0.11478762005263454,0.03195712661919597,0.8250192612389373,nan
1741084702.4291017,0.5150849338266373,-0.3086120579061903,-0.18790527524210954,0.6686844221883178,nan
1741084702.4331982,0.3292101434275454,-0.39516135891690823,-0.23407076035214036,0.18951518270851633,nan
1741084702.4370883,-0.01844373145861709,-0.35381721498418417,-0.04944277940156994,-0.32377506821803437,nan
1741084702.440978,-0.26810479246107943,-0.18296498197061847,0.2523599508815421,-0.5991825115388327,nan
1741084702.4448678,-0.28516933508018233,0.08477462939152312,0.4498362200437093,-0.5499115927604837,nan
1741084702.448758,-0.14623864644803972,0.36389739766363144,0.3576555050875103,-0.2934582369052605,nan
1741084702.4526477,-0.030267668574063274,0.527854190413809,-0.033510811840433606,-0.022645687383171693,nan
1741084702.4565377,-0.03080632657512615,0.46667798611682976,-0.5174392546779878,0.15143800801335403,nan
1741084702.4604275,-0.07235601770862533,0.16409978728502334,-0.7773124828099134,0.25093024700047317,nan
1741084702.4643173,-0.008837129710438528,-0.261992470701128,-0.586899235972675,0.3458158596520207,nan
1741084702.4682074,0.19601713463399337,-0.5999334156258763,0.016574550528857795,0.42845720947614685,nan
1741084702.4720972,0.39089301762800926,-0.6572342481701355,0.7136942672736521,0.3833363113314559,nan
1741084702.4759872,0.3547453126868461,-0.3808444880306747,1.0750906602996946,0.0980340970783644,nan
1741084702.4800813,0.015882586815921237,0.09696804501137371,0.8318280512144399,-0.3792163112281552,nan
1741084702.483971,-0.432505530155741,0.5261558814853249,0.06986217409892388,-0.7940090197047455,nan
1741084702.487861,-0.6494735336735523,0.6831415156429556,-0.7921919701861959,-0.8307180513071265,nan
1741084702.491751,-0.4209481853008514,0.5002592738541178,-1.2456911765017264,-0.36038961205739384,nan
1741084702.4956408,0.13687701966228183,0.09683197698952425,-1.007277181135347,0.4066263125367827,nan
1741084702.4995308,0.633412190175313,-0.30458779947551806,-0.2014413695003119,1.011796940735951,nan
1741084702.5034206,0.6951913894851058,-0.5153897427864912,0.7123625985749252,1.0476270358746922,nan
1741084702.5073106,0.264065141439026,-0.4783507941451565,1.2212525238822356,0.45473963232630876,nan
1741084702.5112004,-0.3456871147259283,-0.26846095912449,1.0644312024235345,-0.41170240002776004,nan
1741084702.5150905,-0.6867805196260773,-0.01421284822762088,0.36856125356049335,-1.0110002356597547,nan
1741084702.5189803,-0.525052873210088,0.18992056445898475,-0.45895078962478764,-0.9829993675677012,nan
1741084702.52287,-0.012282420113693696,0.31536983656184336,-0.9885133836243023,-0.38593942070286585,nan
1741084702.5269618,0.45061030376087924,0.367501325176218,-1.0019827115956017,0.36367199738955985,nan
1741084702.5308518,0.5393631454515907,0.33781524558386894,-0.5666194294112447,0.7949406553330388,nan
1741084702.5347416,0.24850025893337374,0.19682502090813647,0.05997200722929266,0.6990122805614746,nan
1741084702.5386317,-0.14229220625264474,-0.06061995409325976,0.5953883755390323,0.23200977710730794,nan
1741084702.5425215,-0.3293265206944332,-0.3628267690318666,0.8537553417118102,-0.24643804167736616,nan
1741084702.5464115,-0.23535229951281506,-0.5637746680605944,0.7765475688761148,-0.45016478223181633,nan
1741084702.5503013,-0.03471924382658235,-0.5212771327925448,0.4070205864225969,-0.34201640605590733,nan
1741084702.5541914,0.049841354830553054,-0.20381686863635168,-0.13488756806017985,-0.09659146997408027,nan
1741084702.5580812,-0.02534687876299799,0.25702705732095116,-0.6622807483895412,0.08207329417810658,nan
1741084702.561971,-0.09334284076085848,0.6217846414273709,-0.9517593411326498,0.11816725597094324,nan
1741084702.565861,0.028868246190761913,0.682009054565556,-0.8294217200543169,0.0768232645104666,nan
1741084702.5697508,0.31147863938989384,0.3931277991930175,-0.28738792708572347,0.05389901779855807,nan
1741084702.5738404,0.4866336192371452,-0.0908485325181268,0.45506364903957225,0.06830577425675341,nan
1741084702.5777302,0.28267980020769995,-0.5075103052416592,1.024756931289801,0.06043081149662532,nan
1741084702.5816202,-0.2795117508096864,-0.6424986543546148,1.0934948455450828,-0.015826459291735245,nan
1741084702.58551,-0.8155477113431591,-0.45035093290046424,0.5879078681376746,-0.1152587834359691,nan
1741084702.5894,-0.8454698822383339,-0.06608977049744544,-0.23778539468029813,-0.1297738125493063,nan
1741084702.5932899,-0.21113627874559013,0.290270929476159,-0.9347711917733648,-0.004337760473803507,nan
1741084702.59718,0.71406381178223,0.44664609295571367,-1.1250032128947391,0.1762110935060481,nan
1741084702.6010697,1.2451912929490707,0.36505889241062706,-0.7269087207474072,0.2327545708607852,nan
1741084702.6049597,0.907880847624657,0.1379842383540412,0.007647623622106432,0.052304025344743314,nan
1741084702.6088495,-0.1432705892184313,-0.08713909202824283,0.6636995763843234,-0.274946047745601,nan
1741084702.6127396,-1.174179902808929,-0.1987505693028916,0.9182036238988652,-0.483403382020385,nan
1741084702.6166294,-1.3974654350705153,-0.17401854310751894,0.7091581251110106,-0.33436633130984483,nan
1741084702.6207163,-0.5898560025419483,-0.07292092534534547,0.22325426076574062,0.158719939985347,nan
1741084702.6246064,0.6909318641901192,0.01196467080071217,-0.2597726756371189,0.68055687349842,nan
1741084702.6284962,1.492001699500217,0.01673183118063001,-0.538845303034557,0.8151655320470428,nan
1741084702.6323862,1.184011701312717,-0.05430997157515046,-0.567158872156278,0.3682705108856674,nan
1741084702.636276,-0.03698220781687087,-0.13085459862158388,-0.4122018250098188,-0.43827679226375044,nan
1741084702.640166,-1.2678159614862847,-0.12152469581199457,-0.16785394353112854,-1.0742745989175915,nan
1741084702.644056,-1.5675568793475745,0.019612581224531397,0.09882664542602727,-1.0610893185768453,nan
1741084702.647946,-0.6760342790460276,0.243877674303487,0.33920125956640335,-0.3307096307845391,nan
1741084702.651836,0.7707193616256827,0.41517269498902076,0.49221004060442647,0.6876008223075311,nan
1741084702.6557257,1.7020502253375656,0.3848475950230778,0.4862032018976907,1.3349081869102135,nan
1741084702.6596158,1.4083229329395237,0.09871293013509053,0.28610249323249193,1.1668824821467962,nan
1741084702.6635056,0.07203954181377696,-0.3347905788437127,-0.056079042891734,0.2631199785107043,nan
1741084702.6675901,-1.362473985615941,-0.6769241653018974,-0.40201005114898325,-0.8173434053912555,nan
1741084702.6714802,-1.8776543031919517,-0.6926166914983723,-0.5926416638108349,-1.4028883696033476,nan
1741084702.67537,-1.1132029021022136,-0.3106926112731166,-0.5362229285284387,-1.1438666649135767,nan
1741084702.67926,0.3944589066794397,0.2999621113048938,-0.2568311685779834,-0.22284012182332885,nan
1741084702.6831498,1.6178107740177696,0.8060549486791149,0.12569044674123733,0.7856891450467992,nan
