timestamps,TP9,AF7,AF8,TP10,Right AUX
1741084818.3059964,-0.9564396293565155,0.23255276639525532,0.19913974781588994,-1.2024537752673776,nan
1741084818.3098943,-0.4003214033655349,1.289746082266462,0.6877790975197065,-0.37956326085281733,nan
1741084818.3137925,0.37194753286821125,1.6179608105087877,0.7350895514687196,0.6480812392070593,nan
1741084818.3176906,0.8742149550243186,1.0257370151994485,0.34547506495453295,1.1790166554879953,nan
1741084818.3215888,0.8126198316353744,-0.11558558911023974,-0.20877671391887634,0.8987045915212544,nan
1741084818.3254867,0.27364809712491894,-1.1201611420269006,-0.5858260393577868,0.07313522929049046,nan
1741084818.3293848,-0.354182317222464,-1.4285224771678233,-0.5922305449768741,-0.6871299481377557,nan
1741084818.333283,-0.6624336553511678,-0.9428153211375778,-0.2768645007094295,-0.8886495665462606,nan
1741084818.337181,-0.501073990530779,-0.04201925735797132,0.13901262361174602,-0.4861022074359373,nan
1741084818.3410792,-0.055562845789437675,0.7087413145831416,0.42108679848960506,0.14623353251026094,nan
1741084818.3449771,0.319630038724494,0.9338959399354753,0.4533701125200142,0.5412297497069638,nan
1741084818.3488753,0.3730615023254357,0.647545434491486,0.2694285267993,0.48583787232618264,nan
1741084818.3528686,0.12662686723144212,0.16409144736653236,-0.005930325275662914,0.12757839955902656,nan
1741084818.3567665,-0.17359100099286312,-0.17854063933944167,-0.24106482890414913,-0.20415433095676452,nan
1741084818.3606646,-0.27060456023160556,-0.2578212277824307,-0.35169453536705425,-0.28132396278273764,nan
1741084818.3645627,-0.09825471055546046,-0.19666680979196835,-0.31239396925313173,-0.12834937104186722,nan
1741084818.368461,0.18256528926817547,-0.1920061328592247,-0.14710487762479368,0.05625384078494258,nan
1741084818.372359,0.3284133808155164,-0.3069125144218489,0.08051949877690276,0.10487799029041914,nan
1741084818.376257,0.2126184946032428,-0.4069474459328758,0.2788841968831491,0.019666567739611864,nan
1741084818.380155,-0.0800571805478251,-0.29032503462415443,0.35668587027488824,-0.06462659248907525,nan
1741084818.3840532,-0.32976492214081876,0.10470101914104017,0.2676384349203164,-0.035992850488770066,nan
1741084818.3879514,-0.35709585715619213,0.5976774650516015,0.04595776374498258,0.07874355149996565,nan
1741084818.3918493,-0.15444613957051534,0.86581947366307,-0.2001350689856916,0.14496348560875813,nan
1741084818.3957474,0.12372353461661895,0.6773579462656976,-0.34431246700822504,0.062139273465401185,nan
1741084818.3997393,0.29037938816871206,0.07905150833240307,-0.315636321321538,-0.12350089758059817,nan
1741084818.4036374,0.2632360885615409,-0.6097175023426555,-0.13943674677712659,-0.2467939453882101,nan
1741084818.4075356,0.10450846283416675,-0.9969547390070336,0.08337778965481323,-0.17163958573663696,nan
1741084818.4114335,-0.053201437580641844,-0.8682046136703289,0.24214242682909015,0.07437537676477261,nan
1741084818.4153316,-0.1193667761943658,-0.31164139284172254,0.27875965783902196,0.30476688592168616,nan
1741084818.4192297,-0.10099042186694314,0.35730689227389706,0.20525999680238288,0.32268340406829127,nan
1741084818.423128,-0.06632921372942097,0.8010747466035403,0.07442423093655617,0.08943859683234577,nan
1741084818.427026,-0.06418312553541099,0.8451526899047006,-0.06264099399225906,-0.23218794923090408,nan
1741084818.430924,-0.0779152832067259,0.5326865350669574,-0.17545860557894064,-0.4008597665571698,nan
1741084818.434822,-0.05267095186699618,0.04840154841310901,-0.24312864224976422,-0.2867037829682125,nan
1741084818.4387202,0.03695313035706734,-0.4019905817643391,-0.23887978778682548,0.02681446318169381,nan
1741084818.4426184,0.14772410436827116,-0.6705490950225872,-0.13879826523733768,0.31034623116746185,nan
1741084818.446609,0.19681946656830468,-0.6839744163036816,0.04579321577911462,0.3671715212917375,nan
1741084818.4505072,0.13381068290362477,-0.4379382623900403,0.2452498353159486,0.1774622617159118,nan
1741084818.4544053,-0.010288722438599488,-0.005908413102056875,0.35263210604425005,-0.1020160785648482,nan
1741084818.4583035,-0.14267234865674636,0.4510354913606142,0.28840191075230176,-0.2710946346245326,nan
1741084818.4622016,-0.18132016144513774,0.721597987937636,0.06500795864041078,-0.23680283082656878,nan
1741084818.4660995,-0.11773381282714003,0.6480026498859632,-0.2034751098857015,-0.06364267267267908,nan
1741084818.4699976,-0.016396926264634452,0.24212371173341923,-0.3651329316819965,0.10164828975482693,nan
1741084818.4738958,0.04597560801016513,-0.28371654690272874,-0.328263353294833,0.1534669019047784,nan
1741084818.477794,0.045686905223983734,-0.6263765157649973,-0.12306706889890034,0.09440293489173772,nan
1741084818.481692,0.024003305201154925,-0.5879899108938851,0.12024424536783036,0.003813366955201237,nan
1741084818.48559,0.037490577107987824,-0.21873361461216223,0.26181215436671557,-0.04593502531262664,nan
1741084818.4894881,0.09466052232337588,0.2125474371572895,0.2437809037687293,-0.043854179110937926,nan
1741084818.4934778,0.13944193888328074,0.41256138270247866,0.11643427167666567,-0.02503960173079108,nan
1741084818.497376,0.09976539552210095,0.2804195116519167,-0.015274915256894032,-0.016779975639806613,nan
1741084818.501274,-0.03998877792758854,-0.023664076163574008,-0.07680459672128491,-0.009071383447691674,nan
1741084818.5051723,-0.2080077891015731,-0.21693003842849515,-0.07150964054355541,0.021468390186649762,nan
1741084818.5090702,-0.28780024052417585,-0.13130324283141115,-0.056975062641678925,0.06656483313394392,nan
1741084818.5129683,-0.20481167387684396,0.14476169980314305,-0.07788828843899295,0.07731722266403392,nan
1741084818.5168664,0.011239174024957022,0.34052909955909283,-0.11823240235572433,0.010986937240670448,nan
1741084818.5207646,0.23869480527333786,0.2363795206905831,-0.11582040753857901,-0.10956176134163079,nan
1741084818.5246627,0.3430188362999394,-0.1367807367983653,-0.025697346154260857,-0.1903879406470506,nan
1741084818.5285606,0.26413320692937764,-0.5032294447031809,0.1252989445562269,-0.1369446799259139,nan
1741084818.5324588,0.05056462865340725,-0.5572455186694636,0.24445435280590844,0.05273752539113608,nan
1741084818.536357,-0.17784010981241413,-0.21524073323793042,0.23986992830713338,0.2593578425548481,nan
1741084818.5403452,-0.3053006368923503,0.3030918848159655,0.095243997429033,0.31920771886561455,nan
1741084818.544243,-0.28047494205538814,0.6360734241553496,-0.10942500965518025,0.15555036905224348,nan
1741084818.5481412,-0.13007456150628355,0.5564993127791588,-0.25081419029701274,-0.14360078461888956,nan
1741084818.5520394,0.06824460751012736,0.14083160378568735,-0.2490154661254375,-0.37533980930949606,nan
1741084818.5559375,0.22625799860050544,-0.30259151662933476,-0.12088791270974035,-0.3703443950591395,nan
1741084818.5598357,0.2775359261184899,-0.48137321360902546,0.03985171745337805,-0.12474209885304574,nan
1741084818.5637336,0.19822346517049919,-0.3360651362606292,0.13682374844628856,0.19280574156837696,nan
1741084818.5676317,0.019242387866825646,-0.052889521718961,0.13860367087148337,0.36791276307155,nan
1741084818.5715299,-0.1760253225071784,0.12345285142317897,0.08764815603017687,0.30049927242704366,nan
1741084818.575428,-0.2815234083578044,0.10389286369465522,0.04910703794898577,0.07005172643473526,nan
1741084818.5793262,-0.2255396227945115,0.008208632881871724,0.04774527585704524,-0.14238870091728809,nan
1741084818.5832243,-0.025981752258337414,0.01913983339810792,0.048716334641375335,-0.20469922582132002,nan
1741084818.5872211,0.20125095196997111,0.18034798149852452,-0.0019265842591884219,-0.12838317824732265,nan
1741084818.5911193,0.3043474389036606,0.33284608353815365,-0.11404440986108189,-0.03234209141580074,nan
1741084818.5950174,0.1989743555761953,0.2588487191880401,-0.2258481541224403,-0.016971291891663815,nan
1741084818.5989153,-0.05929490168429437,-0.09155594716049624,-0.24163385693875,-0.06741775168198962,nan
1741084818.6028135,-0.2969270621854206,-0.5035767575548896,-0.10931551585139804,-0.0754333799774256,nan
1741084818.6067116,-0.3373649453852471,-0.6408643566302307,0.12407110790552431,0.04099855458661347,nan
1741084818.6106098,-0.13236454930510372,-0.32750241063001245,0.3277567990693111,0.2338690714212814,nan
1741084818.614508,0.1902151999004016,0.26924642833676327,0.36922087360098654,0.34166675742220365,nan
1741084818.618406,0.4071788282844344,0.7292249035930476,0.20633204501576186,0.22445109875024893,nan
1741084818.622304,0.35768242228634894,0.6941043275972856,-0.07729010258878485,-0.09567519623925672,nan
1741084818.626202,0.06283193720088541,0.16105386973884658,-0.3211181734203817,-0.41816458799231276,nan
1741084818.6301003,-0.2844140388291705,-0.490442605613278,-0.38834054271339025,-0.5023855159154144,nan
1741084818.6341043,-0.45449438163303996,-0.7772360905368859,-0.2499104361096389,-0.2581697548119353,nan
1741084818.6380024,-0.34192416300707174,-0.48550836807014586,0.0031024138611018674,0.16740323685661893,nan
1741084818.6419005,-0.03276181986661561,0.15827290117640233,0.22309248988518374,0.4863437148936759,nan
1741084818.6457987,0.2670309328268389,0.6597018035558266,0.29892759110552475,0.48140413155667344,nan
1741084818.6496968,0.38181893240303366,0.6397716911296883,0.2164068777494269,0.16866385193785602,nan
1741084818.653595,0.2790308027966073,0.12681894625050613,0.0516013408778381,-0.2176564450390031,nan
1741084818.6574929,0.06569685837626398,-0.4725541046014541,-0.08997230448162788,-0.4060985847902803,nan
1741084818.661391,-0.1136322923983003,-0.6963967607160763,-0.14199454555028315,-0.29114013549484613,nan
1741084818.6652892,-0.18533102900291373,-0.3847623247853461,-0.10886040349003948,-5.826758979131747e-05,nan
1741084818.6691873,-0.17546641400603416,0.20887756365600138,-0.04591512949690559,0.2229707834113667,nan
1741084818.6730855,-0.14941233748348928,0.6298281850263827,-0.009974864694352933,0.21568870657949174,nan
1741084818.6769836,-0.1306596108239758,0.5781271799978017,-0.01805115869932596,0.018190845839129305,nan
1741084818.6809773,-0.07919995592867274,0.12427789513919406,-0.04123971356730364,-0.1760663492099447,nan
1741084818.6848755,0.05145693522693298,-0.3730916684670117,-0.03359451989921718,-0.18950403248422207,nan
1741084818.6887736,0.2371534667171547,-0.5614817905860598,0.027655900583551885,-0.006813778860280086,nan
1741084818.6926718,0.3674562209792962,-0.3548912067328315,0.1195657037279232,0.21840007096076464,nan
1741084818.69657,0.31977361839243545,0.03784848643871519,0.18395477820404058,0.2946060545853741,nan
1741084818.700468,0.06797028989670914,0.3129532167108887,0.16422979000404261,0.14831628815486048,nan
1741084818.704366,-0.26897149680942556,0.3150752147483619,0.04535509670041973,-0.1207585383708266,nan
1741084818.708264,-0.49023752335985543,0.1255176693880951,-0.1282962674225478,-0.3225395682340594,nan
1741084818.7121623,-0.4494182257124365,-0.053352750500322885,-0.2700112433928755,-0.3227057165704179,nan
1741084818.7160604,-0.1613774816800276,-0.09142654951476148,-0.29575669799916837,-0.13420919430642214,nan
1741084818.7199585,0.20379470403921832,-0.025869087971322164,-0.17353801603790137,0.10932413710285362,nan
1741084818.7238567,0.4364113737718632,0.011699063886954759,0.051172913622415876,0.26275673995961735,nan
1741084818.72785,0.4249169090868593,-0.05205015014951671,0.2714660178600209,0.2665218155056766,nan
1741084818.731748,0.2148745994608397,-0.15289687184391595,0.37204939159789857,0.16135492726635992,nan
1741084818.7356462,-0.045606389485445126,-0.15740561593298008,0.29271099592701627,0.028043782744058582,nan
1741084818.7395444,-0.2200447466353899,-0.008291601112294737,0.06618733046969459,-0.08110747037483607,nan
1741084818.7434425,-0.264573860048577,0.19819791231575945,-0.19438046269672052,-0.15949970487690318,nan
1741084818.7473407,-0.22177645594836637,0.28443091133696996,-0.35526270089482304,-0.2113325232373501,nan
1741084818.7512388,-0.15153615010258376,0.15298762526537565,-0.33670872389499645,-0.2150792348947232,nan
1741084818.7551367,-0.07179674652073667,-0.11086370907428345,-0.15787035743255043,-0.13240164348339406,nan
1741084818.7590349,0.03767744285020284,-0.29680052205409163,0.07661333651099253,0.04200417456419049,nan
1741084818.762933,0.18115515609300933,-0.24532164633889664,0.24119959658139517,0.24198716831188083,nan
1741084818.7668312,0.3048367987015323,0.009915266811104226,0.26440637407836914,0.35194279180528054,nan
1741084818.7707293,0.31802279358148877,0.2615401128394236,0.16547624443963901,0.2846884110893902,nan
1741084818.7747216,0.16764399902469043,0.2989182438874957,0.029488429033118872,0.055461237555355904,nan
1741084818.7786198,-0.09846666878449847,0.08589650818341302,-0.05941219298357311,-0.21289462583635702,nan
1741084818.782518,-0.34171563094188007,-0.20686898572856258,-0.07678563294345717,-0.3659293871661957,nan
1741084818.786416,-0.4189403202826352,-0.343498400117417,-0.06464458563739535,-0.32065799603977796,nan
1741084818.7903142,-0.28173631693357143,-0.21746667397794084,-0.08204332138871481,-0.11808621438456858,nan
1741084818.794212,-0.011511955554356617,0.06594184283923046,-0.1406843491574114,0.11264291569450685,nan
1741084818.7981102,0.23728620216782437,0.28549660023475126,-0.18186688404478374,0.246942018630803,nan
1741084818.8020084,0.34100684656863506,0.2900951515706586,-0.12095073814422964,0.24163231663323043,nan
1741084818.8059065,0.2785677200862493,0.11277435138207607,0.070130961546446,0.14249963255230688,nan
1741084818.8098047,0.12271912129951873,-0.08018819875650043,0.30995877652200926,0.028922169660131062,nan
1741084818.8137028,-0.03046951256471675,-0.14907010343378232,0.4385856314599473,-0.0499764486157643,nan
1741084818.8176007,-0.12931874746484046,-0.0990104154097657,0.32537199601288525,-0.09550449397683221,nan
1741084818.8215911,-0.17898766464042143,-0.05039670825239333,-0.019025915638816157,-0.12938276807874224,nan
1741084818.8254893,-0.20127860708608847,-0.09590353212774567,-0.4162861633120956,-0.15234278240719448,nan
1741084818.8293874,-0.19122056166745366,-0.18727162616961962,-0.6167672186138824,-0.1354900480591849,nan
1741084818.8332856,-0.11739151114210235,-0.16978855311152838,-0.46549959343235703,-0.05257328246719912,nan
1741084818.8371837,0.033843115037764715,0.05665814043573747,-0.023434877764849753,0.08028054236278351,nan
1741084818.8410816,0.21625659170191788,0.3986546914333953,0.45124706785803625,0.19922562247798808,nan
1741084818.8449798,0.3322453597960303,0.5970476272687424,0.662933777565744,0.2321584312616904,nan
1741084818.848878,0.29576180642037864,0.4249471576204105,0.47633918112877316,0.15195501668642034,nan
1741084818.852776,0.10214999907758196,-0.09920440773715535,0.013180201853451277,-0.000997595409748213,nan
1741084818.8566742,-0.15439346629645212,-0.6723952402197808,-0.4261445180066878,-0.14550162271167583,nan
1741084818.8605723,-0.33529715231025764,-0.899780937976017,-0.5660035569538625,-0.21293292051462223,nan
1741084818.8644705,-0.3458666658572859,-0.5853314684728798,-0.3416914816453901,-0.18518695087453585,nan
1741084818.8684595,-0.1923655556934107,0.10563690010138825,0.06449601789320811,-0.09243180685103497,nan
1741084818.8723576,0.031090962074430045,0.7470672323851831,0.36195695057427957,0.018219005994755625,nan
1741084818.8762558,0.2096372489459775,0.94640372617101,0.36211463871815364,0.11117859976400818,nan
1741084818.880154,0.27487488824366907,0.610933655168877,0.10563263047683946,0.16720183525550666,nan
1741084818.884052,0.22712456742040954,-0.010730682451936832,-0.18403171372160954,0.17237386905426424,nan
1741084818.88795,0.11033183875015952,-0.5294818364885556,-0.2796994147367736,0.11492254967437454,nan
1741084818.891848,-0.026315585237615652,-0.690370012373499,-0.1225986710964541,0.0006421104142013686,nan
1741084818.8957462,-0.14610819059732638,-0.5102146722720953,0.14249049960038998,-0.1295266006880982,nan
1741084818.8996444,-0.21865239840959247,-0.19532612595363122,0.29034223516881347,-0.20751934912110007,nan
1741084818.9035425,-0.2140794341874382,0.06003234995632551,0.19559467462940366,-0.17928009673489814,nan
1741084818.9074407,-0.11813826728244446,0.21024967357127863,-0.07150965316898882,-0.051257596481039336,nan
1741084818.9113388,0.041204833322122866,0.32543345620928327,-0.3051099406949492,0.10069133937366874,nan
1741084818.9153273,0.1882920670890074,0.44793053432627705,-0.3268455292627986,0.17814295070435437,nan
1741084818.9192255,0.23684930742917137,0.4965975440448792,-0.12129994958871348,0.1330073951095378,nan
1741084818.9231236,0.15141882698694248,0.3255364374109767,0.15969785284197807,0.008014576609303955,nan
1741084818.9270217,-0.016260924111036787,-0.10892167061298524,0.3200341960813604,-0.09358104635207361,nan
1741084818.93092,-0.15441992481102307,-0.6334062589402819,0.26665238431085514,-0.09035722058920333,nan
1741084818.934818,-0.17047356692761437,-0.9244828121047058,0.0660673274383162,0.008498357325656581,nan
1741084818.938716,-0.06292950167332044,-0.7328604381616554,-0.12538227735647373,0.10761975573183527,nan
1741084818.942614,0.07469862364892284,-0.09470272903634593,-0.1903388706624308,0.10435539785695687,nan
1741084818.9465122,0.1267587632992817,0.6485447867035772,-0.13008358385364993,-0.020519184976086426,nan
1741084818.9504104,0.04951847815291182,1.0578716274898214,-0.037197658352790625,-0.1772647320356098,nan
1741084818.9543085,-0.09072923333982555,0.8885633209985485,0.0023633387071394633,-0.23313391771117345,nan
1741084818.9582067,-0.16972817283509015,0.2529232239820762,-0.014960663689815827,-0.12019893352851521,nan
1741084818.9622035,-0.10753034186385686,-0.4629053794270633,-0.022057161552789802,0.10236796932671499,nan
1741084818.9661016,0.06244539175243042,-0.8603700369013656,0.037491040086637985,0.28511056769844234,nan
1741084818.9699998,0.21563388524569263,-0.7748331799274573,0.13979590219668292,0.2982616307521453,nan
1741084818.973898,0.23327733306480572,-0.3401389888570266,0.19198450607200163,0.12899834624374862,nan
1741084818.977796,0.09572542121382942,0.14770170922775058,0.11759682896084113,-0.11030012576569063,nan
1741084818.981694,-0.10320878808861988,0.4420635785341292,-0.06167725023661636,-0.267529156567408,nan
1741084818.9855921,-0.23060177411329735,0.4746332007547737,-0.22675811944079596,-0.2604725384190246,nan
1741084818.9894903,-0.21472496612678504,0.3338236486293217,-0.25180329310192895,-0.12491709203713397,nan
1741084818.9933884,-0.09004893073196676,0.1491800054650433,-0.11041834835865723,0.03040039897592706,nan
1741084818.9972866,0.044472259178423075,-0.0059181361138872105,0.09551797395929813,0.11662806288204595,nan
1741084819.0011847,0.11138108794970998,-0.12586018120008366,0.21401802298256872,0.12494868159925553,nan
1741084819.0050828,0.10858251120555834,-0.22093716421486945,0.1655542044178496,0.10821935349486403,nan
1741084819.0090775,0.08863550966826385,-0.2738436419593296,0.006750634736557604,0.11017572442429478,nan
1741084819.0129757,0.09067414128062076,-0.24976028686760238,-0.12002644553897358,0.11372505716319928,nan
1741084819.0168736,0.09443801720706338,-0.14025561751165674,-0.1092067636141771,0.059431932963193886,nan
1741084819.0207717,0.04289350436224335,0.013746463793411693,0.018061519939349648,-0.0820656086894707,nan
1741084819.02467,-0.08710364178852473,0.14825106097367058,0.1343666419458023,-0.25374180474357017,nan
1741084819.028568,-0.2360871349030086,0.2245250641736293,0.11975535179119308,-0.3329631617792051,nan
1741084819.0324662,-0.2901719837639148,0.24769303546486432,-0.029694218992236978,-0.22399550764317191,nan
1741084819.0363643,-0.17243821800651168,0.23641217110406335,-0.19360330907096227,0.05035434946407343,nan
1741084819.0402625,0.07820339569370909,0.1802654118118794,-0.22827405303536655,0.3391745279123807,nan
1741084819.0441606,0.3143981718372143,0.040482349929587345,-0.09073877598500782,0.4560228281310897,nan
1741084819.0480585,0.3791888950305636,-0.1931692738601377,0.12148110672657617,0.3107994135198829,nan
1741084819.0519567,0.22300387141957487,-0.44236250355679085,0.2500912675954827,-0.01848245003067092,nan
1741084819.0559504,-0.054983562195666406,-0.5511917319440622,0.2068947141544867,-0.33190055347867836,nan
1741084819.0598485,-0.2770733265458401,-0.387790687838224,0.042932485987067864,-0.4413202441327759,nan
1741084819.0637467,-0.3152030904503706,0.032106726797404346,-0.1029179008442659,-0.2950767571079905,nan
1741084819.0676448,-0.17682054794698712,0.508716530552924,-0.12861823502311714,-0.004747324464989116,nan
1741084819.0715427,0.016128305344715186,0.763003659125432,-0.0548461878055773,0.24073675183571117,nan
1741084819.075441,0.13183679376289673,0.622925854224647,0.005224823484732732,0.3061620361036951,nan
1741084819.079339,0.12754335382149384,0.15347519667569973,-0.03563164506537266,0.19084925223676324,nan
1741084819.0832372,0.06373080455621855,-0.3761085974516282,-0.14252120976785512,0.0078055494322025925,nan
1741084819.0871353,0.030523189895107952,-0.6716814400927943,-0.17936695768977426,-0.11216313812216251,nan
1741084819.0910335,0.05803487886315657,-0.6073065326901402,-0.03765962945895486,-0.11359070481167692,nan
1741084819.0949316,0.09207120231476511,-0.28749289489502033,0.23900451571958858,-0.04019549561265782,nan
1741084819.0988297,0.05451488855144795,0.060411961791713806,0.45457980199649317,0.018110188673672204,nan
1741084819.102822,-0.06999950205753794,0.26630442088592027,0.4037423288521053,0.0048453130976487966,nan
1741084819.1067202,-0.2038639131447669,0.3198975437486864,0.0505692613274147,-0.06061083423860699,nan
1741084819.1106184,-0.23492422774435645,0.3207589216756545,-0.4087490292090158,-0.10607434605875968,nan
1741084819.1145165,-0.11512389987568473,0.3376223528944369,-0.6663445110383432,-0.07084147370489316,nan
1741084819.1184146,0.08806909009486553,0.31785018749965094,-0.5254518695713287,0.04172174760767873,nan
1741084819.1223128,0.23670261048344177,0.13924856448584882,-0.0548534467629254,0.16279000986972564,nan
1741084819.126211,0.22993977836022053,-0.23822550404072956,0.4495505110570857,0.20662134071393948,nan
1741084819.130109,0.0844981646353292,-0.6649581769002143,0.6717679198852219,0.13197727176678753,nan
1741084819.1340072,-0.08079096726512497,-0.8575501727698023,0.494981713346511,-0.027089489797008443,nan
1741084819.1379054,-0.14412113022601297,-0.6006217051575827,0.06865140127391628,-0.18095628789495194,nan
1741084819.1418033,-0.07981876129749534,0.057436569254016086,-0.31905393039272084,-0.24011865325384674,nan
1741084819.1457014,0.02656124832810442,0.7818075946493096,-0.4544725044928653,-0.17029800262434514,nan
1741084819.1496928,0.05922600624444929,1.1438765011858072,-0.32989694815588677,-0.01279886552295074,nan
1741084819.153591,-0.021388807582815434,0.903169387540915,-0.1037915362495577,0.1413705125035119,nan
1741084819.157489,-0.13967084257616408,0.17636917089464563,0.05567161703736368,0.20693505841749885,nan
1741084819.1613872,-0.16884223665055476,-0.6304900507860653,0.10121654033264982,0.1552127385860637,nan
1741084819.1652853,-0.04471334755329598,-1.078439003004329,0.10647143011211214,0.029106005205173684,nan
1741084819.1691835,0.1681546757292635,-0.9601218738726413,0.1544870538811594,-0.08722623990385696,nan
1741084819.1730816,0.31689474041316745,-0.39756772062587264,0.23203842994618304,-0.12473573244826516,nan
1741084819.1769798,0.27768810244306696,0.2715433231813252,0.23436067846523895,-0.07460922454813708,nan
1741084819.1808777,0.05575540121308943,0.7161545829415368,0.07655276982776746,0.009229272057167033,nan
1741084819.1847758,-0.2128952925032059,0.7844857018686685,-0.19627403317566602,0.05308298978569991,nan
1741084819.188674,-0.3593342707522911,0.5332347936494483,-0.41243273733069735,0.021546794482109867,nan
1741084819.192572,-0.3014530284788549,0.1359878559573623,-0.4019384178658639,-0.05319023453864549,nan
1741084819.1965628,-0.09367130288342054,-0.2341311601316631,-0.14408888765353722,-0.09561153665010277,nan
1741084819.200461,0.12555341202608417,-0.4685671778346837,0.19759559876349098,-0.04905114833745346,nan
1741084819.204359,0.2389450043861546,-0.5246163311352671,0.3933004519460367,0.07183084592278814,nan
1741084819.2082572,0.22280698456732828,-0.4057534984130081,0.3254144665366476,0.1825215749438865,nan
1741084819.212155,0.13666063353334668,-0.15656987554742594,0.07827140518920715,0.18860483718390425,nan
1741084819.2160532,0.052745344267786425,0.13415613335165505,-0.13852686054645996,0.061454034004991075,nan
1741084819.2199514,-0.00565842128140017,0.35311641405179545,-0.16922694932794743,-0.12989026991061584,nan
1741084819.2238495,-0.06482880650809587,0.4144689511200078,-0.039891018903735725,-0.26019011747367604,nan
1741084819.2277477,-0.14840511376423748,0.31128387895455395,0.07610923730994816,-0.23623334556403827,nan
1741084819.2316458,-0.22931482234632328,0.11922667410732911,0.02569223437332215,-0.06666674526966787,nan
1741084819.235544,-0.23709261905397958,-0.05911374834397219,-0.17124886670731304,0.14061892899048828,nan
1741084819.239442,-0.11892984754240733,-0.16604584978486936,-0.3239541716634694,0.2535317548434098,nan
1741084819.2434316,0.09903097657184995,-0.21439989362035994,-0.2355386419367487,0.20784126288228277,nan
1741084819.2473297,0.3081091857677335,-0.24509525515285577,0.10674775726414619,0.04800787890433792,nan
1741084819.2512279,0.38223134130631753,-0.26056597998884995,0.48472975820333297,-0.11146182688639775,nan
1741084819.255126,0.26501077622871766,-0.205599725902352,0.6012135286492596,-0.171497422360356,nan
1741084819.259024,0.012318707690088483,-0.024821350783773594,0.31807510869516215,-0.1147027182935003,nan
1741084819.262922,-0.2418420743403931,0.25176838902370036,-0.2127635351416527,-0.0054639852777023604,nan
1741084819.2668202,-0.36972129293625405,0.48360830526143184,-0.6409121395433287,0.06893056703826808,nan
1741084819.2707183,-0.3229868810470666,0.5002019059246565,-0.6703424524379702,0.06500906278299694,nan
1741084819.2746165,-0.14745245666666185,0.23759616790142674,-0.2800607374822328,0.006578539016741402,nan
1741084819.2785146,0.06028204689628597,-0.1827792396053283,0.2593326757649933,-0.04610652163138965,nan
1741084819.2824128,0.2139118451630611,-0.5138759241178734,0.5861382578740157,-0.048776216799978164,nan
1741084819.286311,0.2731420324033516,-0.5517137088384934,0.509390888856982,-0.0029785160952650455,nan
1741084819.2903085,0.2409490610247804,-0.28589529886339965,0.13267251141148284,0.05488133201953947,nan
1741084819.2942066,0.14144645358252633,0.09139888659574325,-0.24618399595280255,0.08705547589011815,nan
1741084819.2981048,0.004636129130720862,0.33137857990533254,-0.36984610090883635,0.07822192709322635,nan
1741084819.302003,-0.13393134795142966,0.3152515626244589,-0.20378738512465608,0.03432621575376323,nan
1741084819.305901,-0.23161075747778626,0.13073729227630984,0.06707680540026371,-0.03135196935972299,nan
1741084819.3097992,-0.25016667706059015,-0.022152347158134567,0.20723444123532359,-0.10363315975246898,nan
1741084819.3136973,-0.17783423496363587,-0.013257490507260081,0.11890479565841307,-0.15775897240702746,nan
1741084819.3175952,-0.04267873054321874,0.10533711989357285,-0.0974400002891328,-0.15620666301918457,nan
1741084819.3214934,0.09901298382791913,0.1545114756536297,-0.24368296275767623,-0.06851022843222562,nan
1741084819.3253915,0.19420754423797007,0.0031968758150759044,-0.19018687989408403,0.09272016602712506,nan
1741084819.3292897,0.22035232811806232,-0.29117742638488675,0.028663596654971906,0.25336350442871514,nan
1741084819.3331878,0.18716805416819868,-0.505739733518449,0.2547590299185098,0.30795765268603353,nan
1741084819.3371747,0.11524374615294582,-0.4287436355272735,0.3342076647769983,0.1912567509507663,nan
1741084819.3410726,0.015478256551327837,-0.045310967027343184,0.22409054059238148,-0.0593311447615418,nan
1741084819.3449707,-0.10829427047400399,0.4258727736143941,0.002766718064034854,-0.3072227323011551,nan
1741084819.3488688,-0.23626567777513557,0.682508737562147,-0.20429259110162215,-0.39802052610846067,nan
1741084819.352767,-0.3168726906157764,0.558770044411948,-0.3093237505628572,-0.2666128644989534,nan
1741084819.3566651,-0.28491339944195126,0.14146899255087234,-0.29395088303201794,0.011013132455955072,nan
1741084819.3605633,-0.11042375294292683,-0.304992447002276,-0.1843078259149526,0.2660217968925603,nan
1741084819.3644614,0.1582850829432786,-0.5361068270430943,-0.014950170013808287,0.3529316710903641,nan
1741084819.3683596,0.39934963329264317,-0.4852624358521519,0.17814742725443342,0.24635646682246737,nan
1741084819.3722577,0.4795106514870489,-0.26564513668346285,0.34034115834337875,0.04514344181161429,nan
1741084819.3761559,0.33725708948069777,-0.03833879710873787,0.3957102675822366,-0.11466583480430595,nan
1741084819.380054,0.02878086233553927,0.12203298629973608,0.28467955928803723,-0.16329254675965915,nan
1741084819.384049,-0.29859496225231935,0.24643382361995606,0.02038965446864044,-0.13250954635946346,nan
1741084819.387947,-0.48962106859889987,0.37561690370889744,-0.28945661692859387,-0.10041179828559564,nan
1741084819.3918452,-0.46537923591748004,0.4612008650403682,-0.4893102950438753,-0.10336197149472773,nan
1741084819.3957434,-0.2554546650613792,0.3775197008062263,-0.46821783442500614,-0.09994244764270487,nan
1741084819.3996415,0.034462332783632,0.04859291502315645,-0.23181015620866666,-0.021362978800992513,nan
1741084819.4035397,0.2872550794893704,-0.4258918532333269,0.10094848807632459,0.1403073940090743,nan
1741084819.4074378,0.42481151970864467,-0.7794306231108344,0.372828153216634,0.2946144794239122,nan
1741084819.4113357,0.4205148468564326,-0.7476571686267279,0.4772683875523927,0.31209935641549613,nan
1741084819.4152339,0.2853022556926856,-0.27819942014937976,0.39922166060157177,0.13722131016294584,nan
1741084819.419132,0.05443415893794547,0.3907778343435401,0.19279729920376204,-0.14483024023342586,nan
1741084819.4230301,-0.21224376803479847,0.8642716896748808,-0.06708190258238098,-0.35544788011712053,nan
1741084819.4269283,-0.42941489093301416,0.8516246586454632,-0.311667860698444,-0.35510905748698857,nan
1741084819.4309223,-0.5062213435772553,0.365603214187647,-0.47362282852820037,-0.15359666794958976,nan
1741084819.4348202,-0.38962080752515504,-0.2874059905521563,-0.4825705751138635,0.09741969429543383,nan
1741084819.4387183,-0.10532667831316009,-0.7164746127974804,-0.2945851232729322,0.22732618384302392,nan
1741084819.4426165,0.2386187455416558,-0.6999001405122455,0.05426986133604011,0.18244826442567033,nan
1741084819.4465146,0.4980436091036017,-0.3067475880886699,0.42414799723330643,0.058231469001592366,nan
1741084819.4504128,0.5638840190813347,0.18188443082070432,0.6245224137256581,-0.00011642998437194861,nan
1741084819.454311,0.41372389912611784,0.4738045822179963,0.5292730392317996,0.06041854437678454,nan
1741084819.458209,0.11366284204801608,0.44013988367367146,0.1736490243493527,0.14625596040677014,nan
1741084819.4621072,-0.22271791807580565,0.15947243360964197,-0.25078971930746635,0.10555683691660966,nan
1741084819.4660053,-0.484464345946477,-0.1656643585460353,-0.5146603922553187,-0.11479489526979784,nan
1741084819.4699035,-0.5928590574383851,-0.3398844072758303,-0.5008375084891407,-0.387198835076748,nan
1741084819.4738016,-0.5085272287142802,-0.2721076553943351,-0.2718525566760071,-0.48320763052386057,nan
1741084819.4777942,-0.23556426486545903,-0.006313905171355533,-0.0031350907128166365,-0.2621008618513602,nan
1741084819.4816923,0.16434206949656174,0.3045372003696096,0.15990895588240334,0.18827865924578902,nan
1741084819.4855905,0.5620075798117842,0.4647995534306412,0.20047409452026746,0.5871472934979551,nan
1741084819.4894886,0.7861737012226262,0.33188138388901606,0.20529539708183042,0.6592171257144239,nan
1741084819.4933867,0.6974868903004955,-0.08497858437193871,0.24794756416202032,0.34315426815076006,nan
1741084819.497285,0.2799475819714824,-0.5822950878357108,0.2956369222361209,-0.15827573475169904,nan
1741084819.501183,-0.31392976229899006,-0.8386338465781492,0.23308795790090825,-0.5288363352160815,nan
1741084819.5050812,-0.8135451802373668,-0.6070545224559502,-0.01292527697685946,-0.5690938613256159,nan
1741084819.5089793,-0.9651101578082357,0.08288588907989022,-0.3649228915838997,-0.32235550236653004,nan
1741084819.5128775,-0.6756948031917709,0.8729015083546983,-0.6142956761477345,-0.003920592765154529,nan
1741084819.5167756,-0.07443379443774953,1.259935069320593,-0.570424720995297,0.19167626477966432,nan
1741084819.5206735,0.5524395627527546,0.929710793912278,-0.21928569788002805,0.2329495146861061,nan
1741084819.5246658,0.914672876074275,0.009593814927019296,0.24812019186148151,0.2262968270859928,nan
1741084819.528564,0.8657150904360341,-0.968996081065392,0.5703291902300468,0.2639633700297908,nan
1741084819.5324621,0.46091440123766575,-1.408346566519182,0.6033553035290655,0.30275723304813834,nan
1741084819.5363603,-0.09470260937482725,-1.0540491116772464,0.40332940352345525,0.2002247187255846,nan
1741084819.5402584,-0.5620220851898229,-0.16905029993274967,0.13898601296667773,-0.11817679189824055,nan
1741084819.5441566,-0.7739623359984967,0.6695930785956348,-0.07512266912121734,-0.5233002541023795,nan
1741084819.5480547,-0.6845009380454491,0.9983792720734134,-0.26003641610116773,-0.7289780082307721,nan
1741084819.5519528,-0.3589953435693871,0.7813390408749202,-0.48720035324604594,-0.5129909116949409,nan
1741084819.555851,0.06738915177034002,0.3613524572885363,-0.7158406057438602,0.06602352153414677,nan
1741084819.5597491,0.43884813666290234,0.10374440096944286,-0.738249830391808,0.6575998558120812,nan
1741084819.5636473,0.6273486820983005,0.054653347466742254,-0.3344998285902294,0.8569238484992328,nan
1741084819.5675454,0.5765422275271006,-0.06948933281434531,0.46780540954240496,0.5178197397173755,nan
1741084819.5715353,0.3264332198487601,-0.5375410607386669,1.274961495075661,-0.11582681028226496,nan
1741084819.5754335,-0.002817901882041744,-1.2174757761348598,1.521261850128844,-0.5848587795019483,nan
1741084819.5793316,-0.2722953670937102,-1.540448305071954,0.8874848942277426,-0.5705730526664947,nan
1741084819.5832298,-0.39982719394386923,-0.9287530115903387,-0.3765842746053384,-0.1465495937776728,nan
1741084819.587128,-0.3969518080462881,0.6218670941515223,-1.5288136773338237,0.28546395287401033,nan
1741084819.591026,-0.3355114696152014,2.318122040132536,-1.8204814998522945,0.33257540142370146,nan
1741084819.5949242,-0.26759934339854213,2.9886108733329344,-1.0512676571949449,-0.051958718312190774,nan
1741084819.5988224,-0.1681997295426679,1.919537961097466,0.25130257093325264,-0.5135983122820518,nan
1741084819.6027205,0.03998042106115659,-0.5099037830247222,1.2087474710929866,-0.5805958794811926,nan
1741084819.6066186,0.38741217332434363,-2.930300359209453,1.2577432339693615,-0.06523285738182598,nan
1741084819.6105168,0.7659315675921093,-3.8320757903757596,0.5737018513512308,0.7428934550389211,nan
1741084819.614415,0.9393459084123086,-2.588408584918972,-0.11381297321685377,1.2569081444470358,nan
1741084819.6184037,0.6819875570450106,0.09358548841280379,-0.18381432738952896,1.0177515202568488,nan
1741084819.6223018,-0.03530748787947093,2.6363228880106697,0.29207502386507145,0.04526773422853895,nan
1741084819.6262,-0.9502497391197442,3.636129585192816,0.5800177156711849,-1.143300692655889,nan
1741084819.630098,-1.5991863917975238,2.7298625093373934,-0.0325230724183941,-1.852600641010396,nan
1741084819.6339962,-1.5633731873357937,0.6856973681709222,-1.4503219499216076,-1.632904763322206,nan
1741084819.6378944,-0.7288477536113409,-1.267959692153225,-2.6050664284423815,-0.5301742974399877,nan
1741084819.6417925,0.6033469947466953,-2.2939707140732306,-2.1897514204689017,0.9597213939106154,nan
1741084819.6456907,1.8322707330451729,-2.3253139618242376,0.18636555538601163,2.1499462549083326,nan
1741084819.6495888,2.340203710982964,-1.7768336076953593,3.3586158397764723,2.4613449563645977,nan
1741084819.653487,1.7966368072920755,-0.9762124195490981,5.144793744891556,1.6426237147901308,nan
1741084819.657385,0.3365304531483807,0.0989285186466506,3.846456000260679,-0.11081134313219626,nan
1741084819.6612833,-1.4629234786880367,1.5361042080656613,-0.3269884297220576,-2.1437663937319065,nan
1741084819.6652713,-2.7970112511651455,2.986794811739668,-5.04956149931956,-3.4933378039416114,nan
1741084819.6691694,-2.9668905959611354,3.5515353401290572,-7.227893689429918,-3.271968965888619,nan
1741084819.6730676,-1.7191483835354127,2.34456379694919,-5.095914886907673,-1.2059102165959268,nan
1741084819.6769657,0.5480134018567414,-0.6208879869552028,0.4062838937845414,1.968347386134834,nan
1741084819.6808639,2.847606602583398,-4.007136610701374,6.0331138721080695,4.629417308838767,nan
1741084819.684762,3.992790675939867,-5.733559155154105,8.259338742852636,5.060916651508771,nan
1741084819.6886601,3.201927997316083,-4.337949724675572,5.600699701469378,2.565368573863899,nan
1741084819.6925583,0.6259222107579454,-0.17757275469698466,-0.3646137970844628,-1.823356411076993,nan
1741084819.6964564,-2.5548118984702994,4.505036637692686,-5.996839303854899,-5.6669474252636105,nan
1741084819.7003546,-4.641690838220335,6.8722019511321255,-7.945296940518593,-6.498970400071553,nan
1741084819.7042527,-4.3512914540334275,5.343147096296461,-5.254358927980339,-3.4703414249911995,nan
1741084819.7081509,-1.6487545973285005,0.7202939417575964,0.16533644814231954,1.8692076353994334,nan
1741084819.712147,2.083650939100531,-4.25062748415613,4.929343974511041,6.339134916221241,nan
1741084819.7160451,4.755071045816232,-6.632577318194791,6.397949428606346,7.097018498231463,nan
1741084819.7199433,4.796554016096281,-5.168417607713111,4.204413157987399,3.5484558712238647,nan
1741084819.7238414,2.1565887055547837,-0.9968022671722455,0.1711182541044351,-2.1442899050775837,nan
1741084819.7277396,-1.6134712360467556,3.2270392224388424,-3.1366055824616352,-6.402252672231196,nan
1741084819.7316377,-4.29467686322639,5.1215742261784944,-4.090157630417694,-6.576731030610625,nan
1741084819.7355359,-4.379643410539489,4.011396113405279,-2.7810776241601216,-2.706567936811871,nan
1741084819.739434,-1.9936636117321813,1.0847389642820096,-0.5562057489022249,2.5449876171459205,nan
1741084819.7433321,1.252228147255608,-1.6684794016840745,1.1389921569791157,5.738854674792601,nan
1741084819.7472303,3.360995025007099,-2.8453976295884136,1.6796710978006584,4.99471297528304,nan
1741084819.7511284,3.237512346869175,-2.349771523442884,1.3677214297947957,1.174661000657939,nan
1741084819.7550266,1.293361778746254,-1.076036536625663,0.857686708007326,-2.8774968340929337,nan
1741084819.7590213,-0.9928020809287879,-0.001227980003898047,0.5132307833658472,-4.429601578358622,nan
1741084819.7629194,-2.1740836123349063,0.5152855610745557,0.2245628413688957,-2.7435541932554424,nan
1741084819.7668176,-1.774993225302429,0.7361843464877131,-0.26957774518912325,0.5809541069912297,nan
1741084819.7707157,-0.4374160333499634,1.015200579435509,-0.952948610091079,2.954452277051974,nan
1741084819.7746139,0.7293216660716817,1.31294217856744,-1.4326781274152989,2.7539775404352667,nan
1741084819.778512,1.0160636335543294,1.2163808967488414,-1.2604934928037255,0.4221180371630888,nan
1741084819.7824101,0.5280867577780116,0.40914952991912795,-0.3684710591375484,-2.0381391841895686,nan
1741084819.7863083,-0.09533208136581964,-0.8831865087372307,0.7871199581837925,-2.6876087874263823,nan
1741084819.7902064,-0.3223685949429389,-1.9223664614583844,1.5184685185950935,-1.109314389061776,nan
1741084819.7941046,-0.14802515253850917,-1.9794312991864178,1.4012791888494442,1.3762533669333652,nan
1741084819.7980027,0.03546584485735695,-0.9222456130221822,0.5710795841349148,2.815752844382193,nan
1741084819.8019009,-0.07009060796107723,0.6307849037124335,-0.4059819118713763,2.1309917439485186,nan
1741084819.8058949,-0.3202018055813144,1.733578687476813,-0.9628789535548673,-0.12476562395892082,nan
1741084819.809793,-0.27316594490710305,1.7803206211521811,-0.9092723429315587,-2.2723070999146504,nan
1741084819.8136911,0.2992380693986479,0.8955006896336113,-0.4784014628315249,-2.8042885394315586,nan
1741084819.8175893,1.0387117368193628,-0.23581409620569935,-0.056204188401965435,-1.4548385622261633,nan
1741084819.8214874,1.1853271549954585,-0.9219606240188203,0.14367144532964277,0.721566033964472,nan
1741084819.8253856,0.24736795599027941,-0.9395952900653854,0.18803213557986956,2.2214110574455916,nan
1741084819.8292837,-1.4013913474985056,-0.5736599255435826,0.26327475365045405,2.1795828119977347,nan
1741084819.8331819,-2.5861617492753375,-0.2545989315961722,0.4320265647318113,0.8655562316343703,nan
1741084819.83708,-2.145319144545235,-0.15257283482095033,0.54675285423698,-0.6839695541068284,nan
1741084819.8409781,0.07075346370622185,-0.08566588480859523,0.3963430414149247,-1.499250803474658,nan
1741084819.8448763,2.835965221796137,0.20923326478309084,-0.05965641453837406,-1.3018981181052813,nan
1741084819.8487744,4.233051071482098,0.725180373541915,-0.5949993115908401,-0.5128891180655939,nan
1741084819.8527668,2.9990698050761733,1.1012607937986325,-0.8595135308563415,0.2285227339500767,nan
1741084819.856665,-0.4326448817809211,0.9058456929134058,-0.6480730998431905,0.5642543746802817,nan
1741084819.860563,-4.027607877611128,0.04977049688178154,-0.07092664408080382,0.5519679076112578,nan
1741084819.8644612,-5.423801735309043,-1.0389703548012375,0.5168303001887198,0.4297521742969163,nan
1741084819.8683593,-3.543663174963788,-1.6598208037214326,0.768643811496499,0.31600870846320883,nan
1741084819.8722575,0.5958913100024837,-1.337730873584015,0.5804394257420156,0.1396359874008277,nan
1741084819.8761556,4.483167967002104,-0.19348955850757882,0.13109466833696184,-0.17884518701224567,nan
1741084819.8800538,5.7368483147120175,1.1036016270568731,-0.2790449534911053,-0.5315240566139625,nan
1741084819.883952,3.645109705270585,1.7719960549658182,-0.44443149099670004,-0.6501101232347951,nan
1741084819.88785,-0.4244551929795107,1.426423695804865,-0.3583549990317593,-0.35393609227461714,nan
1741084819.8917482,-3.982981881698226,0.30449662999535526,-0.15381284318495697,0.22259207869422606,nan
1741084819.8956463,-5.041169947396749,-0.9196686855964601,0.0320082821768567,0.670563878973582,nan
1741084819.8996377,-3.2807824322340253,-1.5718911924977572,0.14246880312001955,0.6221700862055805,nan
1741084819.9035358,-0.05338026254789275,-1.3584546101636459,0.18476768043993458,0.08108201849113582,nan
1741084819.907434,2.66296505365523,-0.47187025323393833,0.1674150375867747,-0.5358345910362861,nan
1741084819.9113321,3.5383462886797505,0.5831009835325972,0.07939179788989893,-0.7147095185341299,nan
1741084819.9152303,2.5411312715333225,1.2833810062289055,-0.06653760402747781,-0.2736019844839203,nan
1741084819.9191284,0.656453202276547,1.3247867171702332,-0.19037390684060343,0.45843170677125583,nan
1741084819.9230266,-0.9549117679078055,0.7189444474041597,-0.1779464156693116,0.8820150888573979,nan
1741084819.9269247,-1.6781204724165877,-0.23919236194953813,0.012988972774455657,0.6090358732319989,nan
1741084819.9308228,-1.595942730421935,-1.0932887845639496,0.27098920652654745,-0.2047670185331666,nan
1741084819.934721,-1.1294915280159563,-1.4093779828217563,0.3765878929930725,-0.956461080175789,nan
1741084819.9386191,-0.5883083603947842,-0.983523249703678,0.17317441726266228,-1.0566925963814402,nan
1741084819.9425173,-0.013080662154164762,0.012931575890485074,-0.2677133379626647,-0.391943146234067,nan
1741084819.9465075,0.6424804934639845,1.0633415314714825,-0.6450087325004921,0.5788155677562432,nan
1741084819.9504056,1.2568431886658609,1.5568754769489936,-0.6306848469903888,1.1685416088479441,nan
1741084819.9543037,1.5086178096707212,1.155531178498272,-0.1392317647307334,0.974626983244854,nan
1741084819.958202,1.1190058582941693,0.046804902588697815,0.555771152799572,0.16224720533749368,nan
1741084819.9621,0.14483067669409036,-1.1211412661040991,0.9796691643633466,-0.6862215656887878,nan
1741084819.9659982,-0.9615685197133637,-1.6261610541323002,0.7961567869333863,-1.0166486160740815,nan
1741084819.9698963,-1.6106502711077728,-1.1444093917723956,0.07543742734766151,-0.6884522398694531,nan
1741084819.9737945,-1.4634743917501676,0.020065253659811273,-0.7264030445444772,-0.019191973996166883,nan
1741084819.9776926,-0.649528474821144,1.1266107860335877,-1.079508818928184,0.5063965523191205,nan
1741084819.9815907,0.34505705172493384,1.4906217922945102,-0.7576963326208748,0.602893508797024,nan
1741084819.985489,1.015943749698626,0.9344441502257502,0.002916676040066925,0.340769075994261,nan
1741084819.989387,1.1396783900015632,-0.1199884066171606,0.6836979012524222,0.009136418886994471,nan
1741084819.9933763,0.8286099296008668,-0.9709929870211652,0.8618262883184045,-0.15633019846154328,nan
1741084819.9972744,0.3520501754127279,-1.1246115395503802,0.49836780023151833,-0.13850155949460927,nan
1741084820.0011725,-0.08788183006523001,-0.5965201308038738,-0.07418431341704826,-0.08199230932450141,nan
1741084820.0050707,-0.4388673548959126,0.16677194650632757,-0.43556866344947887,-0.10593851491719601,nan
1741084820.0089688,-0.7110154060332203,0.6508245468481414,-0.3964645826779427,-0.17912135266307802,nan
1741084820.012867,-0.8515838502307193,0.6278372295198857,-0.1046856111536827,-0.16915541130092718,nan
1741084820.016765,-0.7336343831049483,0.251719940726454,0.12412374940394592,-0.0025049623086752706,nan
1741084820.0206633,-0.2825951407161727,-0.13264864722772055,0.09072255068638005,0.23176435553367675,nan
1741084820.0245614,0.38403478150512793,-0.27603490843765793,-0.12977700957209334,0.34318126678754257,nan
1741084820.0284595,0.9574901691281533,-0.17650365040008736,-0.27743190071635854,0.21408337176876313,nan
1741084820.0323577,1.1137713206702642,-0.009549061995051808,-0.153383314252526,-0.07665537256801783,nan
1741084820.0362558,0.7398858805801481,0.060398558960053715,0.19455911635794515,-0.3030279915419729,nan
1741084820.040244,0.02869979862411578,0.00933183611786663,0.5031184749223983,-0.28054300182252534,nan
1741084820.0441422,-0.6401319559065312,-0.06923923190453206,0.5103976753618092,-0.030110609445708494,nan
1741084820.0480404,-0.945076110300092,-0.08378279868654775,0.17340962098237755,0.23160288743077853,nan
1741084820.0519385,-0.8085918001576112,-0.030675995320406012,-0.29296587947022484,0.27430554809108254,nan
1741084820.0558367,-0.3955389085569519,0.02773933144612216,-0.5817169141021256,0.05449942639954731,nan
1741084820.0597348,0.0478077208000889,0.04946959537512565,-0.523126370875796,-0.24068269301402057,nan
1741084820.063633,0.365522629911363,0.05953827327032609,-0.19400009998349052,-0.34876200409200286,nan
1741084820.067531,0.5400616454774146,0.10486232899751369,0.1678778050766265,-0.15689979230494452,nan
1741084820.0714293,0.6085195667037072,0.171229590395159,0.3567660415667425,0.1954634448649154,nan
1741084820.0753274,0.5590412924963918,0.16523543571367913,0.33489798512811897,0.426404019576847,nan
1741084820.0792255,0.3255356215738734,0.0017643061655584775,0.2118676429164555,0.34370425911351965,nan
1741084820.0831237,-0.10941315470102919,-0.27800372592868966,0.10993852052820813,0.0048650324564098535,nan
1741084820.0871108,-0.6122135067807783,-0.4852870043522046,0.0501774448953578,-0.32935507117514834,nan
1741084820.091009,-0.9208193149663932,-0.41238638238405734,-0.03878502573370606,-0.4084499630735495,nan
1741084820.094907,-0.8091037407280195,-0.02209412931769977,-0.20928473801168024,-0.19359287238541095,nan
1741084820.0988052,-0.27328442882706644,0.4706554468576886,-0.39801375062620503,0.12012601561945027,nan
1741084820.1027033,0.42045066997418534,0.723418701478867,-0.4481439323729381,0.27542765729936675,nan
1741084820.1066015,0.8885005089086112,0.52286648219159,-0.24284725512000208,0.17034688645976173,nan
1741084820.1104996,0.881962427140869,-0.02925043200088065,0.16526920984584575,-0.06298905526263465,nan
1741084820.1143978,0.4496661377672121,-0.5661016637403048,0.5516228692244305,-0.18314963990374608,nan
1741084820.118296,-0.11239106690684568,-0.7213895680134316,0.6640336299750476,-0.05904599908549677,nan
1741084820.122194,-0.48264938994743667,-0.40705342613625617,0.40814298246052316,0.20534025638477307,nan
1741084820.1260922,-0.5310000986795032,0.12198249430468677,-0.07305656566160978,0.3516316094978785,nan
1741084820.1299903,-0.36636005473479816,0.4732242595104758,-0.4923196350790746,0.19042200587221864,nan
1741084820.133985,-0.19442169077214488,0.42701604460742393,-0.6148551695864395,-0.21823188433068297,nan
1741084820.1378832,-0.12143928077322348,0.09740447971909942,-0.4098220613275561,-0.5830887697597796,nan
1741084820.1417813,-0.07712304887737903,-0.1874704064092054,-0.04760536522374152,-0.5957683799651323,nan
1741084820.1456795,0.081522947791805,-0.18015005660740932,0.24243432475835122,-0.17787363553747043,nan
1741084820.1495776,0.38668434586305395,0.07081199736572266,0.33405962501142034,0.4335913136704704,nan
1741084820.1534758,0.6721242220169682,0.272323826162328,0.2629259451287079,0.8361656241060101,nan
1741084820.157374,0.6771638037578966,0.1622545376352136,0.15293309513552855,0.7419038004356174,nan
1741084820.161272,0.26973112554967144,-0.2317013788498586,0.08978952992809472,0.18363611479710187,nan
1741084820.1651702,-0.3978350394268294,-0.584047800868286,0.05516757369866228,-0.5010992125469612,nan
1741084820.1690683,-0.94595583682108,-0.5375612253291103,-0.0285414028313672,-0.894230970416877,nan
1741084820.1729665,-1.0164994662005709,-0.026629478378162777,-0.1937111406207269,-0.7688206047727426,nan
1741084820.1768646,-0.5323337165642936,0.6219502744586307,-0.36512173147370636,-0.22277807257496918,nan
1741084820.1808584,0.2325331014461363,0.9159230539828949,-0.40217937861254816,0.4044329139148099,nan
1741084820.1847565,0.8324472200820442,0.5849606195095389,-0.21515213917935452,0.7590438279216142,nan
1741084820.1886547,0.9488990216993669,-0.18270945610772316,0.1414450425875123,0.6834877848623756,nan
1741084820.1925528,0.5881042428182589,-0.8562053918224383,0.4800378845609409,0.27971377318718965,nan
1741084820.196451,0.03822937804264176,-0.9530354459206354,0.5952096341960325,-0.1920749858491459,nan
1741084820.200349,-0.36568070695925897,-0.4044364163887545,0.401059153977179,-0.4886924183545095,nan
1741084820.2042472,-0.47711408088249196,0.3908782165324681,-0.007788729277254482,-0.5118632511972534,nan
1741084820.2081454,-0.3939938422768362,0.8672458337855012,-0.41260316389323715,-0.32170201226414785,nan
1741084820.2120435,-0.30983909192626424,0.7129188748339435,-0.6021728033190623,-0.05652061983782032,nan
1741084820.2159417,-0.3044324442560814,0.08765464417157583,-0.4910687450940016,0.16493273794729862,nan
1741084820.2198398,-0.26424779278315563,-0.5214331259905387,-0.15479247492313894,0.29138606795228345,nan
1741084820.223738,-0.007926558059217584,-0.6805658064475383,0.22678092260473282,0.3234275333662896,nan
1741084820.2277305,0.4899253040343781,-0.3255564959643108,0.47137431358836346,0.27180433697423023,nan
1741084820.2316287,0.9817093203416148,0.22201859195357423,0.48070706105935235,0.13793787732963786,nan
1741084820.2355268,1.0697024810059008,0.5302520468788059,0.27377636624258184,-0.06636726540021785,nan
1741084820.239425,0.5086825350032775,0.39246053406904974,-0.03563051023832232,-0.2859991888031088,nan
1741084820.243323,-0.5361576249036775,-0.037942909564686524,-0.2973112560059951,-0.4200287627671341,nan
1741084820.2472212,-1.499595593552531,-0.39947244258161213,-0.3929998168442344,-0.37046096197294026,nan
1741084820.2511194,-1.7381288252989124,-0.41958180639624204,-0.28982676881563146,-0.11724407380243125,nan
1741084820.2550175,-0.9707293435972726,-0.11499869753019697,-0.056417785081184994,0.23765135744090105,nan
1741084820.258916,0.4685651238706002,0.25001414788959975,0.1715240763974144,0.5039374789199972,nan
1741084820.262814,1.7713080239335435,0.39201660944437583,0.26641921076869807,0.5101139812644632,nan
1741084820.2667122,2.13314582499724,0.22844367976727925,0.18621697473219836,0.2213602662305793,nan
1741084820.2706103,1.2732845757033968,-0.08022057940122984,0.0033220412477069396,-0.21533709712301477,nan
1741084820.2746022,-0.351582399616181,-0.28075858622686317,-0.14225603641012674,-0.5437070726675952,nan
1741084820.2785003,-1.7985932005677714,-0.23361549455914643,-0.14149984648448066,-0.5547826457441806,nan
1741084820.2823985,-2.2110200816772054,-0.00935598684508363,0.0007912472858500012,-0.22868356954270108,nan
1741084820.2862966,-1.3501166471834836,0.18841633044272044,0.16386702733312158,0.23882188813190378,nan
1741084820.2901947,0.25616545983103456,0.19635386175509278,0.19934887626147374,0.5539554881777886,nan
1741084820.294093,1.6444978929626066,0.017410428222278077,0.0493084389103552,0.5158911598219712,nan
1741084820.297991,2.0139815690608645,-0.19269804874273266,-0.19660590301595168,0.15279179519929362,nan
1741084820.3018894,1.2077110138619054,-0.2553702865554215,-0.35600931704128147,-0.29414712511112995,nan
1741084820.3057876,-0.222145556181985,-0.10741261422396016,-0.28731244732419975,-0.5323582987574171,nan
1741084820.3096857,-1.3905479841870407,0.15469341222457947,-0.0038464714511456557,-0.41521829413408506,nan
1741084820.3135839,-1.639250918668946,0.3478472574504318,0.32138671433966215,-0.03734529146671738,nan
1741084820.317482,-0.9179060463653925,0.3311644076722449,0.47091705609393053,0.3381139745756382,nan
1741084820.321472,0.24031455471229415,0.09898377093957253,0.33682448792393044,0.4658468285548887,nan
1741084820.32537,1.1014418992613186,-0.21813369703927177,-7.867290544931052e-05,0.28358754651742185,nan
1741084820.3292682,1.199507091534378,-0.4356645044428287,-0.3256075378898938,-0.05940285480563773,nan
1741084820.3331664,0.5877257644579889,-0.42414449911711566,-0.4415080144722992,-0.32275957982307385,nan
1741084820.3370645,-0.26287486447865127,-0.1815913593459062,-0.29848290876666567,-0.34811576061171096,nan
1741084820.3409626,-0.8114091831122314,0.16664012714974466,-0.017310581533795555,-0.1568402526968112,nan
1741084820.3448608,-0.788978736534371,0.4365203580137137,0.2110097726248437,0.09024529416631089,nan
1741084820.348759,-0.31763678080514846,0.48513250237485767,0.26468800058830194,0.22622307882427037,nan
1741084820.352657,0.23558356948668557,0.2889554163095973,0.16414369963661585,0.1948954465092135,nan
1741084820.3565552,0.5321358596061838,-0.043030606011993176,0.030406201711222096,0.06665622232191665,nan
1741084820.3604534,0.4636192821061657,-0.3320197641875678,-0.027412154686077817,-0.04281533584378523,nan
1741084820.3643517,0.16443607595062257,-0.4338575653719707,0.0004708251112384986,-0.07155274413796553,nan
1741084820.3683405,-0.13332281726183162,-0.32128320831862195,0.03146162841492318,-0.045267350433202264,nan
1741084820.3722386,-0.27076686548684986,-0.08950188776173593,-0.020137364086761655,-0.028938367166209362,nan
1741084820.3761368,-0.2373422112700737,0.11882041547417281,-0.151995038023366,-0.051797847438959245,nan
1741084820.380035,-0.12374231019656809,0.21390714507521214,-0.26158182145455766,-0.07896129028627391,nan
1741084820.3839333,-0.020875477121723086,0.2082002634201352,-0.22709143830148418,-0.0534050003079292,nan
1741084820.3878314,0.04346324387848078,0.17772625845029708,-0.01687317757341843,0.03643378842681735,nan
1741084820.3917296,0.09136718543231952,0.17199372975813512,0.2638926198724097,0.13233552024990136,nan
1741084820.3956277,0.13927885873354634,0.15605753399150013,0.43342395325123456,0.1526727485929141,nan
1741084820.399526,0.16424611295197905,0.04433669244447873,0.3608289470254725,0.06866995912901833,nan
1741084820.403424,0.12437351180898577,-0.195978891654342,0.06666013956707331,-0.061603027540610186,nan
1741084820.4073222,0.008942190106086463,-0.4658377927140729,-0.2803473514476735,-0.13770694229534408,nan
1741084820.4112203,-0.13459143945206017,-0.5675689846080476,-0.4713304065677114,-0.10392505278319412,nan
1741084820.415208,-0.22608816745925323,-0.348986222388994,-0.39447409911017395,-0.0006300008536978002,nan
1741084820.4191062,-0.21019149725965425,0.14700658267121935,-0.10541479375216434,0.07028077126425443,nan
1741084820.4230044,-0.09613796694107064,0.659299643322294,0.2154357940451101,0.039424078978147266,nan
1741084820.4269025,0.052605219029796056,0.8583153627991245,0.3842667935088858,-0.060374062816824156,nan
1741084820.4308007,0.16609671262943762,0.5764660002380576,0.32746944465699895,-0.11658074365399795,nan
1741084820.4346988,0.20965683007193642,-0.051946361437493024,0.1129915085378102,-0.03970898643970286,nan
1741084820.438597,0.1874077552308484,-0.6592307237588438,-0.11214725079984524,0.14128895597774796,nan
1741084820.442495,0.11546428605963081,-0.8851636034318772,-0.2249154576497552,0.281291154514318,nan
1741084820.4463933,0.001379023644764168,-0.6184630753844588,-0.1959559886667669,0.230605551354117,nan
1741084820.4502914,-0.14449924097490371,-0.06086865554224958,-0.08537500180102177,-0.0292187793244317,nan
1741084820.4541895,-0.2798738343599407,0.43067242258100447,0.018564313777563752,-0.3418454128815901,nan
1741084820.4580877,-0.32552683236327795,0.5986267906762203,0.06411055518674523,-0.474784496515098,nan
1741084820.4620843,-0.21050456559481173,0.44130773871831297,0.057952582019600234,-0.29506628770990595,nan
1741084820.4659824,0.05689639358872519,0.1619829851384401,0.03861869289275781,0.11321277511382896,nan
1741084820.4698806,0.3554023305009971,-0.028288854361098993,0.03345995403904371,0.48869555849735363,nan
1741084820.4737787,0.5024179864779822,-0.07938121747489947,0.03787629831253588,0.5709075232544055,nan
1741084820.4776769,0.3735508626913652,-0.10348747575244602,0.029753630541802207,0.28878371090186744,nan
1741084820.481575,0.007435270579943351,-0.22233859768221312,-0.0007108238185167339,-0.18132451172427358,nan
1741084820.4854732,-0.39225603136555,-0.41014909856858556,-0.03704531053759141,-0.533989531663148,nan
1741084820.4893713,-0.5772074093456302,-0.4853927812408818,-0.051731609467448966,-0.5446769234614068,nan
1741084820.4932694,-0.4220970585528334,-0.27067083525406616,-0.03465827216779282,-0.22024260057092657,nan
1741084820.4971676,-0.01879782633292725,0.21557639258943403,-0.005470138520017641,0.21464971995705603,nan
1741084820.501066,0.37797891075679985,0.7125172339536653,0.004501165032707933,0.47868834000575056,nan
1741084820.504964,0.5213839065135777,0.8784164070875599,-0.0148432157476955,0.42294426992362955,nan
1741084820.5089583,0.3390580774228256,0.5467926634795377,-0.03710907339805956,0.1167568893836132,nan
1741084820.5128565,-0.024273643475360155,-0.12559791045798388,-0.020926104393676273,-0.21864662681718672,nan
1741084820.5167546,-0.31715309364801036,-0.7453954813926774,0.046709911039228134,-0.36934734773109573,nan
1741084820.5206528,-0.3608280644511446,-0.9471127539797675,0.1249129445857863,-0.2651603238209531,nan
1741084820.524551,-0.16562035493015112,-0.6379078081250346,0.14130345225788715,-0.006818231183689145,nan
1741084820.5284493,0.09600873379021801,-0.04182168514166455,0.052375374070584874,0.2194657393362685,nan
1741084820.5323474,0.2299739084264401,0.4782035506183075,-0.1062756729149672,0.27033522126478515,nan
1741084820.5362456,0.16274693159654008,0.6722083998767582,-0.22877182585324887,0.1302763714740498,nan
1741084820.5401437,-0.019860905167229517,0.5369420915575461,-0.21216148753553515,-0.09263494429958073,nan
1741084820.5440419,-0.15657730738357342,0.2506375153459923,-0.04309931434166234,-0.2453261847248248,nan
1741084820.54794,-0.14225917565151922,-0.005974835533768927,0.17412661333169366,-0.22721780797315835,nan
1741084820.5518382,-0.002570210593015423,-0.1773487092132352,0.2823755641176215,-0.049005478952735916,nan
1741084820.5558314,0.1398071241425481,-0.3115945299751031,0.190050398131144,0.17667982975727947,nan
1741084820.5597296,0.1706227770403129,-0.43805846867661635,-0.047146012058502926,0.303906790270337,nan
1741084820.5636277,0.07230585253976744,-0.48384083579802595,-0.25360360021517675,0.24235211612649726,nan
1741084820.5675259,-0.07196863386607029,-0.32512319702660014,-0.26202129232577714,0.01640917479589112,nan
1741084820.571424,-0.15302574831957372,0.0675773188093333,-0.04982634254809323,-0.24230588271042805,nan
1741084820.5753222,-0.12250754719030503,0.5334871524609403,0.22678063573944987,-0.3706462454462183,nan
1741084820.5792203,-0.02218826582783799,0.7885115990157792,0.340685739975689,-0.27700866023933035,nan
1741084820.5831184,0.06111686109687376,0.6269869356707374,0.17169730430132027,-0.006965164037186974,nan
1741084820.5870166,0.07084624660062476,0.10005477374871735,-0.18231530107013305,0.27719444423580075,nan
1741084820.5909147,0.022139310117656276,-0.4870969362597034,-0.45800262111707496,0.3976533594212898,nan
1741084820.594813,-0.02097258609042385,-0.7769939654202874,-0.41783043258196245,0.2790312681208874,nan
1741084820.5987113,-0.007771293153951553,-0.6128392913587885,-0.04168234837365038,0.0005641044759591719,nan
1741084820.6027036,0.052789421242937416,-0.14486351162020114,0.43251102191692714,-0.25806026702196433,nan
1741084820.6066017,0.09983418127177203,0.2946748845307738,0.6643055672518036,-0.3409058774720585,nan
1741084820.6104999,0.07385936093443496,0.446683393451779,0.45796526196902626,-0.21974137772680483,nan
1741084820.614398,-0.02975846192060356,0.305110418363186,-0.08115617766314633,-0.001438309427434582,nan
1741084820.6182961,-0.15060771559176653,0.08145136925829695,-0.6045846652967852,0.1628306772107929,nan
1741084820.6221943,-0.2041742724896787,-0.004799036214856798,-0.7595202492936751,0.19131805540446256,nan
1741084820.6260924,-0.14224225704116633,0.076467781837284,-0.43751853360299137,0.11745249447930828,nan
1741084820.6299908,0.011580633026767095,0.152679996399553,0.1490670628363559,0.0367234108073119,nan
1741084820.633889,0.17496470216558768,0.029301342046209513,0.618608678863738,0.00926111192233178,nan
1741084820.637787,0.25718303276925203,-0.29772694088075424,0.6865687724979946,0.00944049011880815,nan
1741084820.6416852,0.21210754732141493,-0.5941952040381097,0.3511867505822096,-0.0317281577564284,nan
1741084820.6455834,0.06194024201799432,-0.5638312980664817,-0.130883761256892,-0.13447371606054204,nan
1741084820.6495745,-0.11830825996585495,-0.11226547660014405,-0.44709234762087174,-0.2230083668202201,nan
1741084820.6534727,-0.24205688031875985,0.5258110484623846,-0.44774011212458276,-0.1810646468026976,nan
1741084820.6573708,-0.25368711461746246,0.9218062186111217,-0.21923029072456188,0.02912707487939381,nan
1741084820.6612692,-0.15210070837540424,0.7648980585515653,0.025553738535103485,0.29468188860276284,nan
1741084820.6651673,0.012598741219263267,0.11228358633807516,0.13247773279503716,0.41066926904584744,nan
1741084820.6690655,0.16474697563992222,-0.6250208275212926,0.11077578782185588,0.2424101545194216,nan
1741084820.6729636,0.23832631481854813,-0.9638454088666658,0.08174725073922384,-0.13849909191818072,nan
1741084820.6768618,0.20608083945859498,-0.6922767828196994,0.13385855026436355,-0.4728095774580414,nan
1741084820.68076,0.08967117381543138,-0.01747485758548872,0.22355115786812607,-0.49688484835260827,nan
1741084820.684658,-0.05353503966686925,0.5917978039809295,0.2142325078538655,-0.15715979153983076,nan
1741084820.6885562,-0.15992209581141137,0.7460427428182798,0.018396413803352923,0.3219021045502034,nan
1741084820.6924543,-0.18961922340992532,0.4023123798678931,-0.28875119305683106,0.589498638718277,nan
1741084820.6964445,-0.1415241539050523,-0.13517128730376596,-0.4964803170720776,0.4353569270878118,nan
1741084820.7003427,-0.04742624903267904,-0.46584103653168185,-0.41818841191183287,-0.0375354498563069,nan
1741084820.7042408,0.048201770891344885,-0.3921177948750669,-0.055625664011198526,-0.48068097988009595,nan
1741084820.708139,0.10949853961166517,-0.0404883948864233,0.3745671470799769,-0.5653463834707062,nan
1741084820.712037,0.12127288212048695,0.2719066744288122,0.5868147898434884,-0.2384037222470832,nan
1741084820.7159355,0.08981145607564858,0.3017622916633828,0.4374145065934157,0.23798611843924075,nan
1741084820.7198336,0.03637201013286012,0.06030524427841585,0.03409950069640878,0.4979617318016968,nan
1741084820.7237318,-0.012697061856435968,-0.22310326760315558,-0.3447964917028755,0.36416254457830116,nan
1741084820.72763,-0.03764596848611509,-0.3072734711973517,-0.4591239425386071,-0.01863318714337262,nan
1741084820.731528,-0.036284460806638816,-0.13683899514799683,-0.27882267233534197,-0.31751022593153677,nan
1741084820.7354262,-0.02727239126988964,0.12807659087447604,0.014476047704077311,-0.29834528689346984,nan
1741084820.7393243,-0.03809583353683312,0.26306190175034067,0.18993726455779852,-0.021052684452203166,nan
1741084820.7433133,-0.07958740712399301,0.17490848881012755,0.15521723787043074,0.22461773895916512,nan
1741084820.7472115,-0.12444752328702983,-0.026041258014499916,0.014256296031235953,0.18778540907902266,nan
1741084820.7511096,-0.11380074095337442,-0.13496879694190944,-0.047106215681507434,-0.10575662977759764,nan
1741084820.7550077,-0.000301583044833578,-0.045451666467133375,0.056903440036438074,-0.36235040390219886,nan
1741084820.7589061,0.19618221125363197,0.14418271940049726,0.2243507311439141,-0.28132738890702175,nan
1741084820.7628043,0.36806996571447187,0.2100643298616187,0.25305515606577783,0.15221312219508706,nan
1741084820.7667024,0.3701381815197382,0.008819336898691984,0.03180926469500383,0.6071062928021557,nan
1741084820.7706006,0.12484189914745035,-0.36308906582284184,-0.33087249190137563,0.6567525673811186,nan
1741084820.7744987,-0.28765225088860713,-0.6046314379179958,-0.562000920750604,0.15075099507903716,nan
1741084820.7783968,-0.6361164932328118,-0.43591244135650464,-0.4338619651872983,-0.6059880180864484,nan
1741084820.782295,-0.666479401824047,0.15121607453647729,0.035385184018247424,-1.043015540687798,nan
1741084820.7861931,-0.2831736038416796,0.8231979656276266,0.5586543104589571,-0.7611445977408807,nan
1741084820.7901816,0.34485282606442963,1.098838135467643,0.7691965270305938,0.12325346000019856,nan
1741084820.7940798,0.8511120381679772,0.6909151412713075,0.4887754442078114,1.0161355329732622,nan
1741084820.797978,0.8942184958389815,-0.24845981160863884,-0.1274727075727868,1.2644888872310236,nan
1741084820.801876,0.39696887567750844,-1.1741794878651162,-0.6844632605830774,0.6487202292615933,nan
1741084820.8057745,-0.37059343983658766,-1.4822114669356679,-0.8164568081205263,-0.43154413682203896,nan
1741084820.8096726,-0.9424740268268049,-0.9166071161743988,-0.43854208778435555,-1.2323919237247702,nan
