timestamps,TP9,AF7,AF8,TP10,Right AUX
1741085123.9675906,-0.4036881487451038,0.9162917865673668,0.5117908748153773,-0.5234058583062942,nan
1741085123.9714932,0.03285954122420332,1.9328903849325867,1.0367311116148452,-0.08220349648868175,nan
1741085123.975396,0.5054944909457564,1.908521467463566,1.0363496447760758,0.422951888630844,nan
1741085123.9792986,0.7138727714906039,0.8661613254436523,0.5179128393830035,0.7938089112122528,nan
1741085123.9832013,0.5101360822121965,-0.564316748347947,-0.24035607413333848,0.8542039599051143,nan
1741085123.987104,0.009758553940464033,-1.5487087224118108,-0.8368280016743453,0.53325049032055,nan
1741085123.9910066,-0.4792377212221896,-1.583539908205295,-0.9677320317659277,-0.06860221335684721,nan
1741085123.9949093,-0.6618637541749921,-0.7907990571255571,-0.5957737844499079,-0.6890663974430167,nan
1741085123.998812,-0.45124644525070445,0.22605492752641518,0.03748721904544585,-1.0168523357336592,nan
1741085124.0027146,-0.01563494396326728,0.8392945377766421,0.5658038593176016,-0.8626115898092365,nan
1741085124.0066173,0.35178688261249974,0.8172160101413376,0.721762314294909,-0.28353661075543946,nan
1741085124.01052,0.44074115022155086,0.4053536131126418,0.4854741181315455,0.430954029429659,nan
1741085124.0144627,0.25667413226151065,0.04428987702539348,0.06546124743084882,0.9178306608495509,nan
1741085124.0183654,-0.012786157998234246,-0.017569426671142672,-0.26451043463220775,0.9468910409813008,nan
1741085124.022268,-0.160913709453348,0.10477552269596624,-0.350264726104221,0.5416237492860577,nan
1741085124.0261707,-0.12122323699954056,0.09916565164665403,-0.23358594448288458,-0.058866083909063296,nan
1741085124.0300734,0.0010005046784758382,-0.20790967502782523,-0.0779817103852483,-0.5582201613283806,nan
1741085124.033976,0.04240308719815138,-0.6512861626373792,-0.01681550161858303,-0.7654778749217732,nan
1741085124.0378788,-0.06098319224839007,-0.8433700115917802,-0.04998122162105456,-0.6602401007369776,nan
1741085124.0417814,-0.209287748661476,-0.5105785828786449,-0.06731344442732572,-0.3453098874168941,nan
1741085124.045684,-0.2258918971794395,0.23872914253175648,0.03074970652601651,0.04527166713410837,nan
1741085124.0495868,-0.025023479816813528,0.9504337113455448,0.2239926568998831,0.40219117173189056,nan
1741085124.0534892,0.28546076773930806,1.1482195391920225,0.3710988159445764,0.638235260550767,nan
1741085124.057392,0.4652306737037845,0.689089668761992,0.3207852620943199,0.6711976870588755,nan
1741085124.061334,0.3312610696598183,-0.13117955341532597,0.04522269803166097,0.4466211371721006,nan
1741085124.0652366,-0.07376750917580917,-0.8005557811673808,-0.3150160633669199,0.00030647524670433823,nan
1741085124.0691392,-0.4811657445306813,-0.9574935531162451,-0.5359923731364239,-0.5021391724946532,nan
1741085124.073042,-0.5834848462051123,-0.6147352285528267,-0.46474838684805725,-0.8150559723044544,nan
1741085124.0769446,-0.2744990220833696,-0.08538348079211422,-0.12862034710713593,-0.7491271093741841,nan
1741085124.0808473,0.24818358313635694,0.2958792734762572,0.2797418150769803,-0.3070975197936716,nan
1741085124.08475,0.6117080141024395,0.41087912388086406,0.5278626269250346,0.289928312984106,nan
1741085124.0886526,0.54239235646557,0.3720702646713753,0.48817421561790963,0.723511030229759,nan
1741085124.0925553,0.07901544574877258,0.33919772129343817,0.2049675779010802,0.7723046212239313,nan
1741085124.096458,-0.44466047049330854,0.3333657234334899,-0.15046727671448035,0.44455463889806124,nan
1741085124.1003606,-0.6437996898219713,0.22700218159502455,-0.39247262988786263,-0.04394803610896809,nan
1741085124.1042633,-0.3712341092560296,-0.08860296782814901,-0.42173111119044127,-0.42389532256553675,nan
1741085124.1082048,0.17024837786671915,-0.5290843988321547,-0.2583974245741493,-0.5404747937890219,nan
1741085124.1121075,0.5802928608949767,-0.8189087990821656,-0.00642143426900363,-0.41725730590559473,nan
1741085124.1160102,0.5622020723726168,-0.6930774060008418,0.21222469615872744,-0.1888265202141017,nan
1741085124.1199129,0.14206266538002701,-0.1349848574896363,0.31200786630154376,0.021789217980783544,nan
1741085124.1238155,-0.3602005996080831,0.5603344555967058,0.2686108466028742,0.1743747339149453,nan
1741085124.1277182,-0.5800980796604428,0.9700306483255785,0.11737613076242756,0.2862678333848664,nan
1741085124.131621,-0.3812069791338666,0.8403701671513131,-0.06579098582101728,0.35813589168733856,nan
1741085124.1355236,0.05786472139393586,0.2653416843067576,-0.19620108891036864,0.3386112851590119,nan
1741085124.1394262,0.39981072214453955,-0.3900312957877737,-0.2185037489618641,0.17021569763669875,nan
1741085124.143329,0.41461420484936357,-0.7536919850040249,-0.1352634348774615,-0.12677813954486045,nan
1741085124.1472316,0.14278736459830355,-0.6876100146465481,-0.00577831375885381,-0.42089915200245986,nan
1741085124.1511343,-0.16435553437646755,-0.33077501152164124,0.09101043396704014,-0.5357073492349124,nan
1741085124.1550794,-0.26454442237167586,0.05792556025889727,0.10857288643770646,-0.37533358130205596,nan
1741085124.158982,-0.11788871235483504,0.30159441283716176,0.06201100226362286,-0.009123324128571197,nan
1741085124.1628847,0.10058551508751638,0.38552203283832265,0.009849314623659493,0.35956472998013456,nan
1741085124.1667874,0.16806408699538897,0.38034550423269087,0.0012809033482270755,0.5241276268080364,nan
1741085124.17069,0.012579828387719684,0.3181365301245334,0.0327785771171518,0.4085674949673631,nan
1741085124.1745927,-0.22436725790219775,0.15878832644416396,0.05292270828871778,0.10627157270312342,nan
1741085124.1784954,-0.31004375386636274,-0.12358186646481789,0.013488190511736102,-0.19768586296857116,nan
1741085124.182398,-0.12223414532239993,-0.4377549807223678,-0.07787744948586219,-0.3530540399533214,nan
1741085124.1863008,0.2374622431187131,-0.5867675800316878,-0.15340666831838312,-0.32386332016992214,nan
1741085124.1902034,0.5109537031753303,-0.4152702899240251,-0.13897615978057193,-0.17520369911581316,nan
1741085124.194106,0.4769530651096257,0.029049350613544585,-0.02242339101494821,-0.0006163261194960774,nan
1741085124.1980088,0.11871580407329362,0.4802008359140657,0.12492803514318966,0.1384589283436663,nan
1741085124.2019534,-0.3587997021430578,0.6302532253041626,0.1981850105245172,0.2192631987318416,nan
1741085124.205856,-0.6672415601972563,0.3697280952036188,0.14267604113562432,0.22938292835965174,nan
1741085124.2097588,-0.6207247473256056,-0.11020165097155532,0.0008690770406626277,0.15340516409543806,nan
1741085124.2136614,-0.24066979364399413,-0.4546361325514772,-0.12040815472604036,-0.0024195933287492455,nan
1741085124.217564,0.2746374880722353,-0.4222126345236298,-0.1374034328477132,-0.1777057587692502,nan
1741085124.2214668,0.6719034361357934,-0.07695596189951485,-0.05728044352619558,-0.26905299882429135,nan
1741085124.2253695,0.7675021466978188,0.26903009737953654,0.03322359254767285,-0.19845661123123653,nan
1741085124.2292721,0.5142453076455684,0.3195300390739648,0.0492722009906117,0.01060152180257091,nan
1741085124.2331748,0.005911695320135686,0.045032359746342315,-0.01294663998416552,0.22392950446074653,nan
1741085124.2370775,-0.5561050372356959,-0.2932947406297275,-0.07249245288389072,0.2823713679529108,nan
1741085124.2409801,-0.922065950882918,-0.37037163161317527,-0.0422390914840224,0.126694578691824,nan
1741085124.2448828,-0.8848389473400512,-0.0839434043046721,0.07969603526066826,-0.14062589179081816,nan
1741085124.2488267,-0.39175443779723584,0.34491203963989686,0.19242106754992366,-0.31903525466189625,nan
1741085124.2527294,0.3785259942867427,0.5489810202811729,0.1737861704356195,-0.2605961892918687,nan
1741085124.256632,1.0514959766067005,0.32525066250037943,-0.0040006783630784516,0.008617186511321673,nan
1741085124.2605348,1.233128958936392,-0.18293987428359734,-0.22833139720207463,0.2978735146094113,nan
1741085124.2644374,0.7513799170758297,-0.5894932972339267,-0.3214075049990143,0.39168451962531536,nan
1741085124.26834,-0.1926920046841276,-0.5739347601642159,-0.18481522041908774,0.21345313252121434,nan
1741085124.2722428,-1.0941075589127354,-0.14126208769086987,0.10552486484555064,-0.11587318327581422,nan
1741085124.2761455,-1.426298226879672,0.3807552486876492,0.3414944218141691,-0.3698057266618936,nan
1741085124.2800481,-0.9709896460876312,0.6032949004231363,0.33933469812086875,-0.3844609149358809,nan
1741085124.2839508,0.026142737020483222,0.3811402601025394,0.0889713170690018,-0.17045911512128675,nan
1741085124.2878535,0.9927974673586966,-0.08625934056123273,-0.2278529866265422,0.11295865465377813,nan
1741085124.2917562,1.3808002964828374,-0.4305598719404539,-0.372785218369047,0.2890323913652233,nan
1741085124.2956998,1.0002699012428047,-0.41249921721732147,-0.23631013202779205,0.2870529899222822,nan
1741085124.2996025,0.11772719173357495,-0.09578560488088969,0.07453021053954176,0.16408300575974077,nan
1741085124.3035052,-0.736078672124697,0.23418708602099195,0.31864470963566605,0.025432737612737864,nan
1741085124.3074079,-1.1051982473077702,0.3209107262661638,0.3096661797838693,-0.07074480945532526,nan
1741085124.3113105,-0.8642125414409237,0.13800624591509633,0.0608066436199606,-0.13783739168318754,nan
1741085124.3152132,-0.23939284052758675,-0.11952127348138682,-0.22915480003242994,-0.20438665882902562,nan
1741085124.3191159,0.3823737162836601,-0.22612059633542939,-0.33545424593133005,-0.24763695932623753,nan
1741085124.3230186,0.7000477932849773,-0.11952440798167771,-0.18290075772219677,-0.19555793255200687,nan
1741085124.3269212,0.637844372431128,0.06848480388942933,0.10197532109448353,-0.004454048376905166,nan
1741085124.330824,0.32094745855894485,0.15479345788006438,0.29874508670956074,0.2628413047112799,nan
1741085124.3347266,-0.049227040532139166,0.07789667609187627,0.26829658065929546,0.44568767140159904,nan
1741085124.3386292,-0.31290208807288217,-0.0584502999437624,0.053273246247363175,0.394783813819411,nan
1741085124.3425722,-0.4001981357351827,-0.10188104672160836,-0.17091097725879115,0.09929110818194595,nan
1741085124.346475,-0.3200370734583049,-0.008743022918881557,-0.24447233862112516,-0.2794278853858705,nan
1741085124.3503776,-0.1330585752772476,0.11179425259753414,-0.14413768757903672,-0.5085921092153037,nan
1741085124.3542802,0.06959432601327559,0.10972644528539015,0.01858087610795267,-0.4479049424466251,nan
1741085124.358183,0.1937868378179408,-0.046048940538562316,0.10829727186114686,-0.14814124413548274,nan
1741085124.3620856,0.18792894371410332,-0.2182401504787121,0.08215935980596933,0.19336432405538648,nan
1741085124.3659883,0.0834357204236076,-0.21965282675798975,0.01134907916014224,0.3812039845313452,nan
1741085124.369891,-0.015792460615497914,0.0024192379649470926,-0.0032746609295534737,0.3523435876203694,nan
1741085124.3737936,-0.011074281359832277,0.28940078892416765,0.06234603057817059,0.1887022585875742,nan
1741085124.3776963,0.09656986073116891,0.3878542610337696,0.12773007243622903,0.017933718485464347,nan
1741085124.381599,0.1836334941461298,0.17086751564084796,0.08606821471239937,-0.09698829385094442,nan
1741085124.3855016,0.09830452200215938,-0.2284820478412052,-0.08249207969739569,-0.17934507398185984,nan
1741085124.389444,-0.1869499382472649,-0.5008158660186035,-0.268744499433275,-0.26386131420214737,nan
1741085124.3933468,-0.4979753639080188,-0.40674256662188774,-0.31036576727700294,-0.31471581252088277,nan
1741085124.3972495,-0.5542675211340629,0.015303846957836527,-0.12912498052968954,-0.23418538684024431,nan
1741085124.4011521,-0.19573683973679917,0.45947015453440887,0.1858353576950357,0.031072802441316934,nan
1741085124.4050548,0.43348703477431855,0.5839328049300219,0.42537539884122344,0.3858591784902442,nan
1741085124.4089575,0.9207906537203463,0.2808292316547673,0.4099610866144058,0.6026077692103866,nan
1741085124.4128602,0.8603130511641492,-0.23409351860035374,0.1278098752590418,0.4781800454509332,nan
1741085124.4167628,0.18307988757966448,-0.5856306003427919,-0.24697267084489125,0.01729966057699915,nan
1741085124.4206655,-0.7234783927782447,-0.5249687007587912,-0.47302421806945805,-0.5194984639385415,nan
1741085124.4245682,-1.2401355400313654,-0.11021829275750286,-0.4091655327470633,-0.77202737009403,nan
1741085124.4284708,-0.9550819413427086,0.35375448761642414,-0.10751552162656791,-0.5417202025672238,nan
1741085124.4323735,0.0023470656598841683,0.5548283656994966,0.23152610400906898,0.0426206087571448,nan
1741085124.4363155,1.0057972860159023,0.3949353872498836,0.40220828169020284,0.5966788206965095,nan
1741085124.4402182,1.3550572226336097,0.02768105788754952,0.3266928857001442,0.7504791741286787,nan
1741085124.444121,0.7839826003794029,-0.29142647068727767,0.08793655489494895,0.4160685743759593,nan
1741085124.4480236,-0.3265317899021401,-0.39841316225031975,-0.14774638111062924,-0.15275248435269828,nan
1741085124.4519262,-1.204794488713668,-0.30208920315480736,-0.25001132611933297,-0.555062102219656,nan
1741085124.455829,-1.2382645074210534,-0.11600860775943543,-0.19831151484827103,-0.5398731152499693,nan
1741085124.4597316,-0.41473639762470854,0.06352437271752297,-0.06882838645437932,-0.1762578231514163,nan
1741085124.4636343,0.6725207807158563,0.21063844433252113,0.039225575808922226,0.2274032382576464,nan
1741085124.467537,1.2584305605694568,0.3226021117865619,0.07475893755675246,0.37813557658900826,nan
1741085124.4714396,0.9547480927165628,0.35205656676079217,0.05500869935194717,0.21764659116668617,nan
1741085124.4753423,0.010492027305466075,0.21838213561095582,0.0322242306449922,-0.0627984010935125,nan
1741085124.479245,-0.894445434121175,-0.0937296870575194,0.04221892151598442,-0.20690435245861702,nan
1741085124.4831867,-1.1505740432554687,-0.45013258775718046,0.07548988303071688,-0.11195944465961143,nan
1741085124.4870894,-0.6360366621192098,-0.6110235346345115,0.08816677631125061,0.10025349011553238,nan
1741085124.490992,0.24304150048428952,-0.4051749132934998,0.040253474692079946,0.20832737160079914,nan
1741085124.4948947,0.8844022074751351,0.09983999419852065,-0.06741740459909179,0.09410638834922616,nan
1741085124.4987974,0.9187275491260856,0.5946052559648171,-0.18278309187375075,-0.15302215453528129,nan
1741085124.5027,0.4197433689533758,0.7311000857420313,-0.22759507865585915,-0.31522306968147434,nan
1741085124.5066028,-0.22245382721043566,0.39060320850126246,-0.1466275418015987,-0.23521509992381526,nan
1741085124.5105054,-0.6198373035555159,-0.20259276758689596,0.046386385358928535,0.047618611628779985,nan
1741085124.514408,-0.6331237665019923,-0.6326156600536731,0.257968731234339,0.3261485770878498,nan
1741085124.5183108,-0.38333180877645534,-0.6044727543887196,0.35692778848056395,0.3904587866934948,nan
1741085124.5222135,-0.0766651819258425,-0.17094532584648034,0.25504342624034154,0.19029563941109567,nan
1741085124.5261161,0.17059977551595112,0.31393259340375257,-0.020990674130870756,-0.13325541298739083,nan
1741085124.5300615,0.36004459010583556,0.4819751928410427,-0.322032006079803,-0.3619320872238156,nan
1741085124.5339642,0.5058168980485385,0.24471006044423657,-0.4557553611258652,-0.3599038089021414,nan
1741085124.5378668,0.5376051984053793,-0.1487384385380438,-0.313844799929523,-0.1545918553001111,nan
1741085124.5417695,0.3341148480673261,-0.33626882957806203,0.03831496556192675,0.108429923529587,nan
1741085124.5456722,-0.13132991988602952,-0.1579214967218329,0.38402079556817914,0.2805380067376604,nan
1741085124.5495749,-0.678092583331834,0.2081156236664695,0.49144143157728387,0.2976646245200966,nan
1741085124.5534775,-0.9748899244140496,0.405783324741408,0.2774800202820746,0.1869388648731468,nan
1741085124.5573802,-0.7595943200690501,0.22000629150046358,-0.12074557886846422,0.016298212796133124,nan
1741085124.5612829,-0.062038496532386855,-0.22272541807637838,-0.43063107872051726,-0.15144724715540456,nan
1741085124.5651855,0.7580722410432937,-0.5504147437144388,-0.43518861958666794,-0.2666329214451517,nan
1741085124.5690882,1.2152011483627698,-0.46187848633796347,-0.1339109435524835,-0.28305014055472183,nan
1741085124.572991,1.013374577414635,0.006265352861614082,0.2507274457582627,-0.16984293036864964,nan
1741085124.5769355,0.24924768954351245,0.49503627402676925,0.43426873866736104,0.050041046793943715,nan
1741085124.5808382,-0.643607189997432,0.6153407435899894,0.2829749633066404,0.2772217761399833,nan
1741085124.5847409,-1.168725085883382,0.27302674177983616,-0.0831348884524403,0.3748586777059874,nan
1741085124.5886436,-1.066958086378884,-0.2499283775295939,-0.37947345845819563,0.2613653115094878,nan
1741085124.5925462,-0.44561442978746263,-0.5304432882742727,-0.3740724636901897,-0.013100146106852551,nan
1741085124.596449,0.32657900018682173,-0.3587604718869869,-0.06725643792835648,-0.28132891031937457,nan
1741085124.6003516,0.8595637868156407,0.08844141533427162,0.3059380932312396,-0.37109331597333395,nan
1741085124.6042542,0.9475327306367829,0.4046304175003648,0.45464634991721853,-0.233266612259696,nan
1741085124.608157,0.6275883640368062,0.3072204627296856,0.2556732091313079,0.020171480390252763,nan
1741085124.6120596,0.09912789644672851,-0.11411572532057493,-0.1503450366842961,0.20583054454521976,nan
1741085124.6159623,-0.4052452172101638,-0.4700979389265892,-0.4637638686722907,0.21532877950184975,nan
1741085124.619865,-0.7112706199426342,-0.40818051857894794,-0.4506257482274443,0.0946403721003061,nan
1741085124.623809,-0.7343089890178374,0.07198120530184175,-0.11579760742751681,-0.012448591340083817,nan
1741085124.6277118,-0.4796738092011961,0.5960944715422849,0.3040269449149174,-0.005968862555657265,nan
1741085124.6316144,-0.04021482367464962,0.7138780578780293,0.516611835732998,0.0733303749793968,nan
1741085124.6355171,0.4164206015591197,0.2755663284753651,0.3832212329097813,0.08527715499109056,nan
1741085124.6394198,0.6974255284063098,-0.42688610590390463,0.007051348343683095,-0.06200548923695673,nan
1741085124.6433225,0.6720211869872869,-0.8758497620456472,-0.3538837823010583,-0.29399091986176284,nan
1741085124.6472251,0.350102846461737,-0.7299930286639146,-0.4728688178523576,-0.4024422280005923,nan
1741085124.6511278,-0.10966968044506639,-0.08910515000306118,-0.2997469293230358,-0.22033438188865856,nan
1741085124.6550305,-0.48331811778873107,0.5875756393477947,0.02928623848428112,0.20466812779788215,nan
1741085124.6589332,-0.608180117529207,0.8370271725861961,0.3042168996315603,0.5994172281555181,nan
1741085124.6628358,-0.46678368256092534,0.5337302139309155,0.3805878684778119,0.6521144217009057,nan
1741085124.6667385,-0.17247170780683627,-0.04779098956182265,0.24998673218977555,0.2617209525722867,nan
1741085124.670682,0.12295936260704615,-0.4781809194166294,0.013420744755803668,-0.35300769267051574,nan
1741085124.6745846,0.3220603757747512,-0.5094052274479957,-0.19899411661339406,-0.7876658194442386,nan
1741085124.6784873,0.40708506982517456,-0.2295871335630963,-0.29709642109475903,-0.7394933462747476,nan
1741085124.68239,0.3960933558366677,0.06639516676610654,-0.25513808307240066,-0.23010278532426692,nan
1741085124.6862926,0.28996234904132795,0.15262328812502451,-0.1021002048364233,0.4085209865000764,nan
1741085124.6901953,0.07215833244201679,0.048258044945759346,0.09624031960547592,0.7726294147127696,nan
1741085124.694098,-0.2362044655321494,-0.0451228307511102,0.2543736165171263,0.6648227149163711,nan
1741085124.6980007,-0.527750213645392,0.03352678004321686,0.2934066691423112,0.20469109164046909,nan
1741085124.7019033,-0.6349820193000069,0.23593304403817905,0.1811109410407693,-0.29310982292781784,nan
1741085124.705806,-0.4367764594447253,0.34508426645938445,-0.0356177672544006,-0.5554941054463589,nan
1741085124.7097087,0.02874801884861929,0.1856982175431171,-0.24052178333667412,-0.5114668996030837,nan
1741085124.7136114,0.5432476328291994,-0.1899457744525553,-0.31142954230778813,-0.2735583260895239,nan
1741085124.7175548,0.8179398775386796,-0.5151126858560787,-0.20235092618449516,0.002262090002248036,nan
1741085124.7214575,0.6727562947354282,-0.5195832139347254,0.01794964927050494,0.23157122345191808,nan
1741085124.7253602,0.16250495999171383,-0.16160020497529945,0.20865118041263764,0.3982090185695368,nan
1741085124.7292628,-0.4425211262191766,0.31935576476139466,0.25557378598654057,0.47326547420221465,nan
1741085124.7331655,-0.8138426873924072,0.5801085296471632,0.1511142427361553,0.37712101181109414,nan
1741085124.7370682,-0.7573269882699568,0.43956824770077313,-0.008859033426471048,0.053323912529170694,nan
1741085124.7409708,-0.31825862054012244,0.017024979534723046,-0.10852530955508513,-0.40991063648318843,nan
1741085124.7448735,0.25881308841278344,-0.36679656883269507,-0.10525359696646279,-0.7539987911352191,nan
1741085124.7487762,0.6766784423209835,-0.4417010224194245,-0.05268110873018007,-0.6981702149571408,nan
1741085124.7526789,0.741734220769857,-0.1889342361063952,-0.03547537524102201,-0.1751298642120167,nan
1741085124.7565815,0.44571587145144725,0.16356327018143582,-0.07742317674149793,0.5461447496442768,nan
1741085124.7604842,-0.05193848758474675,0.33518357942085514,-0.11118592383442794,0.9935345056800757,nan
1741085124.764427,-0.5106221672940299,0.21166850597232745,-0.04407191257642396,0.8213675021096265,nan
1741085124.7683296,-0.7148592792532524,-0.08260151990937907,0.1359639869258075,0.09370192884047708,nan
1741085124.7722323,-0.5628928018261506,-0.30185581450705756,0.3154198834403342,-0.7183892751915779,nan
1741085124.776135,-0.11493442846048904,-0.2771760941296769,0.3276646599072055,-1.0561562374493085,nan
1741085124.7800376,0.4175675237110667,-0.03578836810204601,0.09601941013125001,-0.6833553865432984,nan
1741085124.7839403,0.7543364830587688,0.23939276571288456,-0.27181767109029153,0.12927020456204358,nan
1741085124.787843,0.6851011521124318,0.35847396063554104,-0.531340337587492,0.799317590830549,nan
1741085124.7917457,0.2039696419277465,0.25582707915376013,-0.47271370603671664,0.8663637490432657,nan
1741085124.7956483,-0.4482764600065012,0.012412372953095099,-0.09022063606390308,0.3304467505450385,nan
1741085124.799551,-0.8899474876604817,-0.22370219216213277,0.388041507941221,-0.36669126048410894,nan
1741085124.8034537,-0.8186889540169,-0.3383243806022209,0.6466838581396651,-0.6977051168576907,nan
1741085124.8073564,-0.22010702260558743,-0.29936717352781655,0.5048026777782291,-0.4569922898563563,nan
1741085124.8112981,0.5818676133717383,-0.1411393888225511,0.048543882153600455,0.10185658038693547,nan
1741085124.8152008,1.0943673233268447,0.07341318095960755,-0.42631174888638534,0.49669218098142714,nan
1741085124.8191035,0.9600663632419161,0.2725374146457165,-0.6199711315944071,0.41667148058775266,nan
1741085124.8230064,0.20531215191071492,0.37918491366339396,-0.4308086971420869,-0.03642149862648205,nan
1741085124.826909,-0.7425019020744843,0.3282760540563031,-0.0098328682449678,-0.45318014947480356,nan
1741085124.8308117,-1.300593163141521,0.10986745049165854,0.36161713964464026,-0.46802199012737233,nan
1741085124.8347144,-1.0951292088992122,-0.19362823107450053,0.47004251663233276,-0.06088264136932864,nan
1741085124.838617,-0.21089639122690818,-0.42595596230283417,0.29773467570038953,0.4347967275878777,nan
1741085124.8425198,0.8420464911948236,-0.44385382956892755,0.0011709535536090629,0.6127263310293606,nan
1741085124.8464224,1.4328479949825732,-0.2199703005036217,-0.22220242553317118,0.3236274508079601,nan
1741085124.850325,1.1971031053482617,0.1210347013226936,-0.26733725441171885,-0.21388677413450147,nan
1741085124.8542278,0.2631375270365968,0.3751766320146121,-0.16350878062983834,-0.5989351327203626,nan
1741085124.8581693,-0.8244687720307488,0.3967979881612751,-0.01717563846945421,-0.5651593618502759,nan
1741085124.862072,-1.4346065963994736,0.19881474137969052,0.07889119008560776,-0.16960158312826984,nan
1741085124.8659747,-1.2264653655368318,-0.0636080930123789,0.09720406784005133,0.2830451960784017,nan
1741085124.8698773,-0.3432266034413858,-0.21425256707256618,0.06486085932768558,0.4944568898154857,nan
1741085124.87378,0.688715840717541,-0.18585559512660002,0.021885474727216126,0.38559181562717676,nan
1741085124.8776827,1.2835444831202705,-0.0565107145959772,-0.007444098340305142,0.10799739951724228,nan
1741085124.8815854,1.1394541558129123,0.03190850012916124,-0.015403764987989252,-0.12277729051112425,nan
1741085124.885488,0.3956520538073799,0.0006042593228690534,-0.0015728797412965473,-0.205096562820246,nan
1741085124.8893907,-0.48065453198088676,-0.10138012060517092,0.026169149688167557,-0.189726413751666,nan
1741085124.8932934,-0.9930787567524432,-0.14632662686221148,0.04422687062893185,-0.17296321250173385,nan
1741085124.897196,-0.9080049002049044,-0.0458265231613048,0.020805662302228772,-0.17187643024866883,nan
1741085124.9010987,-0.36258927011813463,0.16367640685694693,-0.05401364142647807,-0.11134344013101091,nan
1741085124.9050436,0.26274265952033116,0.33926496128860656,-0.1404561281586119,0.06943115331859165,nan
1741085124.9089463,0.6067709712065871,0.33818132647295873,-0.16112281096703962,0.3079973986283813,nan
1741085124.912849,0.5449326922953527,0.12707977917650587,-0.06077739685942834,0.43178407739307895,nan
1741085124.9167516,0.22510690336336808,-0.18909232548671728,0.12925202224036259,0.30001982259603205,nan
1741085124.9206543,-0.08175724645838398,-0.4347605817535969,0.2863609872877775,-0.050354894323867076,nan
1741085124.924557,-0.19147524850396103,-0.4726791949806163,0.27626453099105946,-0.3984355978752058,nan
1741085124.9284596,-0.11973648777638048,-0.27871424744301054,0.06613111861075653,-0.49847109426450226,nan
1741085124.9323623,-0.025460021333396185,0.05568221533146368,-0.22392411489828326,-0.27854728961344943,nan
1741085124.936265,-0.04641176771647644,0.3775331916210538,-0.39020321438566885,0.09331688393149123,nan
1741085124.9401677,-0.17047402475362244,0.5416898379024245,-0.29736075966848097,0.34094050539503457,nan
1741085124.9440703,-0.2503997025550415,0.4660845356128788,0.004634721914005427,0.3040733892014499,nan
1741085124.947973,-0.14649602822937868,0.165274051731637,0.3023128811694884,0.06474472870756463,nan
1741085124.9519174,0.1287218504846029,-0.2415632584056913,0.37625879102932064,-0.13419769160767697,nan
1741085124.9558203,0.39479969651232083,-0.5627191585362508,0.17513473318737766,-0.10943442262326551,nan
1741085124.959723,0.43976227794014816,-0.6167885375890307,-0.13767715382427015,0.0956910524877898,nan
1741085124.9636257,0.19949854635670225,-0.34157720778376627,-0.31159539749063864,0.2471194418943781,nan
1741085124.9675283,-0.1734028638134611,0.13836500564863313,-0.21285108693531601,0.13408978143009512,nan
1741085124.971431,-0.4184609665423131,0.5540140116080772,0.06306351646496464,-0.22214073100006104,nan
1741085124.9753337,-0.37152152278151157,0.6473385217405271,0.2692408628081533,-0.5520423282195537,nan
1741085124.9792364,-0.09587202022680749,0.3497584859964191,0.21658806730798624,-0.5430424948231792,nan
1741085124.983139,0.1733078997604304,-0.14946041177877503,-0.05949181288462217,-0.10628217036918439,nan
1741085124.9870417,0.22877943108058021,-0.5167677742617891,-0.32006293195250196,0.5156029430044335,nan
1741085124.9909444,0.0665662516829354,-0.5069907785290265,-0.32152763401630524,0.8992491535608488,nan
1741085124.994847,-0.11690767343527261,-0.14711452424690566,-0.029250881383852893,0.7444323144266383,nan
1741085124.998791,-0.10862108235313514,0.2772780852188396,0.337297519636074,0.10236812609341851,nan
1741085125.0026937,0.11471871557061503,0.4366879716148165,0.4750196589605099,-0.6442065685042627,nan
1741085125.0065963,0.3455497889839126,0.21491077736059036,0.24843756732282335,-1.0344572376445922,nan
1741085125.010499,0.32034952355520585,-0.19531443236247198,-0.18732021988580244,-0.8319680387894949,nan
1741085125.0144017,-0.030953504007607685,-0.44282162968093813,-0.5003286656612936,-0.16682963850614702,nan
1741085125.0183043,-0.48274097423272255,-0.30240490792776326,-0.445634858016616,0.565395519250177,nan
1741085125.022207,-0.6684649806776856,0.13425015560736786,-0.0644775198761278,0.9590004550236104,nan
1741085125.0261097,-0.3827864244602377,0.5211365828647533,0.34638008728198494,0.8301896955981366,nan
1741085125.0300124,0.21973391378935228,0.5315989155035441,0.4725352363407952,0.2911645268487596,nan
1741085125.033915,0.712635898859344,0.12579318857105415,0.2330663409185719,-0.34789059667589173,nan
1741085125.0378177,0.7224461421424107,-0.4065040634267441,-0.1604096393736688,-0.761941393525189,nan
1741085125.0417204,0.23322149854914356,-0.6674244925540516,-0.3831695507834409,-0.7696859767489618,nan
1741085125.0456638,-0.386565957667931,-0.46171022241429227,-0.2649396131456993,-0.4010747196598869,nan
1741085125.0495665,-0.6715016327941441,0.052558275611994235,0.07561514269162471,0.13543469151203064,nan
1741085125.0534692,-0.4333808092248666,0.4929000016760329,0.33756658338209117,0.5594570488795652,nan
1741085125.0573719,0.08883005538025694,0.5537064651149506,0.29267042174567176,0.6564314923695541,nan
1741085125.0612745,0.4353348985817974,0.23522844596801634,-0.02500504777355206,0.3909016497865987,nan
1741085125.0651772,0.32067149022837305,-0.17954666974069927,-0.34998870901260676,-0.06579944063751857,nan
1741085125.0690799,-0.11772053610784133,-0.36956247039846296,-0.4067607811982682,-0.42757497469290556,nan
1741085125.0729825,-0.4381752410010571,-0.2323478067970005,-0.13570821811877584,-0.4707675026098692,nan
1741085125.0768852,-0.29012430820239826,0.05682367319997136,0.26049371915118824,-0.1892660347767029,nan
1741085125.080788,0.25155419698359766,0.21902142454677714,0.4817514506136227,0.19042684041806865,nan
1741085125.0846906,0.7155156969243162,0.11857179063978487,0.36623170623089024,0.36726055483058173,nan
1741085125.0885932,0.6266446637701624,-0.13026871278064178,0.006670885483701753,0.19651464175376834,nan
1741085125.0925364,-0.05799365265085659,-0.2797375220257514,-0.33596819459198285,-0.1829398237096503,nan
1741085125.0964391,-0.8523223119120206,-0.1757073682184859,-0.43803929169592093,-0.4414639182557957,nan
1741085125.1003418,-1.0994141787330023,0.10715713411167274,-0.2680527593994332,-0.31968409588576,nan
1741085125.1042445,-0.515330859584714,0.33612992944190323,0.021227485651141572,0.14195387660469627,nan
1741085125.1081471,0.5309502239453573,0.32645672158081546,0.2337494854793779,0.6014753480387929,nan
1741085125.1120498,1.2600030389648567,0.09645025526974943,0.27390170050820073,0.667257294145563,nan
1741085125.1159525,1.083265149747407,-0.16186889018355424,0.18188182432623162,0.21858423504423904,nan
1741085125.1198552,0.08980570935348206,-0.2607892827752335,0.057820778310403796,-0.4651097141244097,nan
1741085125.1237578,-0.9871147315285815,-0.17625634758323902,-0.03487700355383004,-0.8895806231306868,nan
1741085125.1276605,-1.3227271103537794,-0.04505853651974881,-0.0976739548630677,-0.7185214417256762,nan
1741085125.1315632,-0.6484202573744575,-0.011097754608470015,-0.14944813656246875,-0.04448907543705916,nan
1741085125.1354659,0.5222277165643651,-0.07405993030490987,-0.1731704040552902,0.6640670384583787,nan
1741085125.1394083,1.281260137195353,-0.09116455889065893,-0.1238437010026276,0.9093455031382449,nan
1741085125.143311,1.0325183004012692,0.06412631839163424,0.00911539395122555,0.537358826270056,nan
1741085125.1472137,-0.038366769152827496,0.33869043501232154,0.15829248166784257,-0.15467908615758894,nan
1741085125.1511164,-1.1030958157412165,0.5013960935600662,0.21489361633954931,-0.6581961548598607,nan
1741085125.1550193,-1.3319040701866247,0.3339473702149637,0.12507672085321705,-0.6448031633325182,nan
1741085125.158922,-0.5347098620960314,-0.14709696822266652,-0.0452476518182524,-0.19772310832785972,nan
1741085125.1628246,0.6959880432665733,-0.6454484975087972,-0.15209954745362564,0.2903914783121267,nan
1741085125.1667273,1.4432036855751735,-0.7865856942790848,-0.09943355989785989,0.45177431858993344,nan
1741085125.17063,1.1595540636712565,-0.41847272477073905,0.06188465361494233,0.22677946779848102,nan
1741085125.1745327,0.06191496428991692,0.2394524353234824,0.1641411348887004,-0.12822333081019274,nan
1741085125.1784353,-1.0583707821845267,0.740030173504678,0.07251800918460473,-0.2910631766998059,nan
1741085125.182338,-1.436387841600295,0.744949373686514,-0.1726141194975518,-0.15125136408387682,nan
1741085125.18628,-0.8728386133958644,0.2851586640794323,-0.35951841351193775,0.12213106704021268,nan
1741085125.1901827,0.1794850948553349,-0.27091603853582097,-0.27493572599450244,0.2619188887876067,nan
1741085125.1940854,1.0003615168549886,-0.5187222930194592,0.09312691320795426,0.15330031723110732,nan
1741085125.197988,1.124597352749555,-0.3397927408735051,0.5017957834127144,-0.07648378507425856,nan
1741085125.2018907,0.6076378604722723,0.02352613736612529,0.6196143506949326,-0.20020196924287945,nan
1741085125.2057934,-0.11481875657852575,0.20075377990001753,0.2955998649135454,-0.11856165115026616,nan
1741085125.209696,-0.5973786008661044,0.03081445089682031,-0.2896183609641458,0.04774110519365233,nan
1741085125.2135987,-0.6700990220778791,-0.2902365477954117,-0.7315240993215977,0.09018144466633608,nan
1741085125.2175014,-0.45177075970206126,-0.385100628295819,-0.7011805913915791,-0.06070318499641751,nan
1741085125.221404,-0.15719340488624842,-0.048056216932607136,-0.2037944629744521,-0.24083960485734673,nan
1741085125.2253067,0.08757976362395133,0.5327807471998778,0.41505926585709835,-0.1988543345301462,nan
1741085125.2292094,0.2713690389121014,0.8904944459381637,0.7280950736173862,0.1400946225503694,nan
1741085125.233151,0.39828998939064036,0.6552332011691052,0.5469609110098141,0.5454041173025068,nan
1741085125.2370536,0.41262194315511846,-0.114323903750805,0.05028830162171568,0.6366971785466568,nan
1741085125.2409563,0.2459950478035705,-0.9274058090717394,-0.3775824682870978,0.2178191775301204,nan
1741085125.244859,-0.06804642405056159,-1.2084410491788837,-0.45718734426047986,-0.499184391817554,nan
1741085125.2487617,-0.35639431101362856,-0.7310187031818351,-0.21639909172222202,-1.001982731283217,nan
1741085125.2526643,-0.4204113653248651,0.20235723137515127,0.07336813397104117,-0.8647217583511133,nan
1741085125.256567,-0.21480209072321585,0.9773669694147334,0.1562569108799792,-0.10853539643685509,nan
1741085125.2604697,0.08473180819575547,1.1125374726151491,0.013383122932597887,0.7728107764434571,nan
1741085125.2643723,0.21665281232409694,0.5889554858732514,-0.14399819016707377,1.1670321028531245,nan
1741085125.268275,0.0716732919118024,-0.1765188889322792,-0.09354252354468608,0.8058260790032415,nan
1741085125.2721777,-0.18443587335278913,-0.6703220028578962,0.17149937213799907,-0.034804592709108656,nan
1741085125.2760804,-0.24053497976393684,-0.6535227100427681,0.41780730177463865,-0.7577964120522258,nan
1741085125.2800257,0.06581193186876065,-0.2836861107092621,0.3775778764182146,-0.9069721898639135,nan
1741085125.2839284,0.5484244529201276,0.07566831048013402,0.003518060343008408,-0.49103898785890127,nan
1741085125.287831,0.7731037170473106,0.17152349974562475,-0.45766326394408846,0.08229979795030196,nan
1741085125.2917337,0.41385977847392796,0.038856179865305936,-0.6496960418286163,0.3813306770730064,nan
1741085125.2956364,-0.4208672040047173,-0.08463281191615578,-0.39979615574809796,0.2994411226029532,nan
1741085125.299539,-1.1885485331115857,-0.0034665773720737553,0.12862576181966076,0.08428112680331,nan
1741085125.3034418,-1.285210126043631,0.2540446955250881,0.5573012983561774,0.047204361028348386,nan
1741085125.3073444,-0.5210685240309403,0.46536842653137866,0.5902858839143093,0.2380812443453876,nan
1741085125.311247,0.6817968873883218,0.4121111147124144,0.24022881099982404,0.39350183138346445,nan
1741085125.3151498,1.550597817409184,0.06832227126254607,-0.20053735803737158,0.20864295550488016,nan
1741085125.3190525,1.502854336161643,-0.3751831705282343,-0.4103613038689619,-0.32260603296733886,nan
1741085125.3229551,0.5610476744936104,-0.6554525420136439,-0.292254542226138,-0.8299739383079299,nan
1741085125.3268998,-0.6712019717291987,-0.6203180068620255,-0.020770323468483884,-0.8525938826956889,nan
1741085125.3308024,-1.4429885065097612,-0.307604819898054,0.14186871896650977,-0.2546238634677557,nan
1741085125.334705,-1.3616495781531899,0.11580644841310515,0.08452208731212257,0.6011607629696049,nan
1741085125.3386078,-0.5993571197830698,0.47525606903023104,-0.07265005076870011,1.1013192225773105,nan
1741085125.3425105,0.31210188339635725,0.6643713643643877,-0.11765386565715982,0.8661499200940611,nan
1741085125.3464131,0.8887181425650628,0.6418657611886763,0.034241088731703985,0.06686729560630461,nan
1741085125.3503158,0.9719773582633767,0.4004796998359128,0.2503525915623982,-0.7012140109136592,nan
1741085125.3542185,0.7033507282055425,-0.02734690546214268,0.3043243731015021,-0.8937302422130701,nan
1741085125.3581212,0.29875515960946303,-0.5275198213967581,0.09784270604868692,-0.4457095965950092,nan
1741085125.3620238,-0.12853682122844465,-0.8940044910954115,-0.22914657607601596,0.2048943380961641,nan
1741085125.3659265,-0.5476516320894479,-0.9093602846586339,-0.4089457927205484,0.511204306259926,nan
1741085125.3698292,-0.8714315334829316,-0.4892599500316301,-0.28300158331242264,0.28402629540673896,nan
1741085125.373773,-0.9049220825446683,0.21767192634152632,0.049758925932431884,-0.1720800751548226,nan
1741085125.3776758,-0.48829155417361336,0.8747010966632819,0.31294867564156403,-0.3632119337401624,nan
1741085125.3815784,0.2835879504576782,1.1414994227988984,0.2949040197772341,-0.07233464774340452,nan
1741085125.385481,1.0061222177187987,0.8780632196730265,0.03633628520733234,0.4334537531373968,nan
1741085125.3893838,1.1977429047278074,0.22431555592534352,-0.20869873705229353,0.6437990881398675,nan
1741085125.3932865,0.6744280180518121,-0.4958052697261743,-0.2070519870230784,0.28087116106220933,nan
1741085125.3971891,-0.2512448431773014,-0.9662987607655983,0.03551575757366991,-0.4195359844727875,nan
1741085125.4010918,-0.9565589408530025,-1.028997731702732,0.2746335865715246,-0.8852005922146663,nan
1741085125.4049945,-0.9715134866704508,-0.7097679413282378,0.2523806801461498,-0.6999294683567026,nan
1741085125.4088972,-0.3504789813404272,-0.1499683174873328,-0.05421353098281024,0.019954079568921656,nan
1741085125.4127998,0.36991619239287826,0.46772374064524197,-0.3920307189639693,0.7054696505256479,nan
1741085125.4167025,0.6138112125476785,0.9481257888669844,-0.4469036673105737,0.8140331972670191,nan
1741085125.4206462,0.248315510928532,1.0991626639234715,-0.1296318453665477,0.29408782723366067,nan
1741085125.4245489,-0.30981699851029776,0.7961050222200313,0.32577667125742815,-0.3747137183455362,nan
1741085125.4284515,-0.46895605402546425,0.09153981824675476,0.5502739625842664,-0.6070706665977097,nan
1741085125.4323542,-0.006071362018205539,-0.7256596991050238,0.35684360002158466,-0.2312920398886361,nan
1741085125.436257,0.698289001616222,-1.2298899325202588,-0.09326810482870593,0.35993821177472923,nan
1741085125.4401596,0.9619464508244551,-1.1092868567516494,-0.4275724396590861,0.5683888696485182,nan
1741085125.4440622,0.40416581152281916,-0.404820416808443,-0.38598638384842227,0.14473010156570687,nan
1741085125.447965,-0.6674694364066283,0.4677747229890721,-0.04408432087259773,-0.5601978541642124,nan
1741085125.4518676,-1.4452549755089716,0.9781846022722263,0.26503436860592666,-0.8873453380156608,nan
1741085125.4557703,-1.2617531389996561,0.8564301751038238,0.2603832399640105,-0.4613434013029777,nan
1741085125.459673,-0.15967282249695114,0.29003777570368067,-0.02833535310309941,0.4419985732078502,nan
1741085125.4635756,1.097723024258206,-0.23410716718102098,-0.2931274260650394,1.0962760395710498,nan
1741085125.4675188,1.6085787604762773,-0.3343109320137233,-0.2448198469107676,0.9401480205160375,nan
1741085125.4714215,1.0392875075282069,-0.05302658129427917,0.10096141286438166,0.07607125315009437,nan
1741085125.4753242,-0.12694169994926108,0.19383241578913202,0.423656544971247,-0.797142813238249,nan
1741085125.4792268,-1.0046207177723403,0.01514078531311816,0.39649901347626243,-0.9790115875129943,nan
1741085125.4831295,-1.0306653238474228,-0.548219410607685,0.009741187403384406,-0.3777413709078452,nan
1741085125.4870322,-0.38568085236799143,-0.9880230113833216,-0.3966657393139446,0.40877951877156726,nan
1741085125.4909348,0.23621692585762083,-0.7461954761955967,-0.44470283983527137,0.632480531989657,nan
1741085125.4948375,0.28936753671431525,0.24220978879905064,-0.09380368989204742,0.0902393942740407,nan
1741085125.4987402,-0.12766417259261822,1.3672606016109696,0.2899290288898132,-0.6545857249535354,nan
1741085125.5026429,-0.39344652335099317,1.7480011173124645,0.275652572930586,-0.7590462783488151,nan
1741085125.5065455,0.0005876324303000781,0.9487190349740525,-0.17411701870424995,0.0994068035096263,nan
1741085125.5104482,0.8811337889660931,-0.5810397083599479,-0.5838392859984499,1.3211339406401723,nan
1741085125.514391,1.442985912243186,-1.7634753014932543,-0.3700562834069281,1.79252706209379,nan
1741085125.5182936,0.9359270589840184,-1.7098315998620637,0.5382962377920396,0.8265492602330119,nan
1741085125.5221963,-0.5817630820583628,-0.4607602219294058,1.4509637860431848,-1.1405373240206014,nan
1741085125.526099,-2.112651623222766,0.9881718950708617,1.3805757122981166,-2.732288513545954,nan
1741085125.5300016,-2.41414000588933,1.4629825118459485,-0.05992884582623955,-2.632835272218793,nan
1741085125.5339043,-1.0115892258053545,0.5967674239780207,-2.0836872457177362,-0.64971694250997,nan
1741085125.537807,1.3007284700034203,-0.803840749741227,-3.099655474589928,2.020462860710371,nan
1741085125.5417097,2.941013116864709,-1.3842333912339115,-1.911513727623147,3.5847190758011314,nan
1741085125.5456123,2.691835829437637,-0.41271771072516017,1.1378067773313814,2.9343719791894283,nan
1741085125.549515,0.6429972071102853,1.4663737877800074,4.0857099642049555,0.44918536385507063,nan
1741085125.5534177,-1.8269453475069681,2.603276961525098,4.612439226530497,-2.276018405792026,nan
1741085125.5573204,-3.0422984800313007,1.656430267324382,1.8367048121098604,-3.555849348853624,nan
1741085125.5612624,-2.2427016266018507,-1.1578235237119705,-2.738082636570214,-2.735458276728953,nan
1741085125.565165,-0.09348689349544728,-3.951535776538219,-6.0171883854267465,-0.5100933393521193,nan
1741085125.5690677,1.8700496104941506,-4.4363186056035255,-5.454784034817296,1.6962370124656438,nan
1741085125.5729704,2.3963266067358893,-1.7148696450294418,-1.031380181216858,2.729462389807013,nan
1741085125.576873,1.3659374748524549,2.7894678473645764,4.474142243668778,2.325350842293942,nan
1741085125.5807757,-0.2741626708207559,6.099877264052638,7.282502713594003,1.0077269972386547,nan
1741085125.5846784,-1.3461162997488663,5.727131838111968,5.288014328032693,-0.4673518037292647,nan
1741085125.588581,-1.3192357334411904,1.539826122423193,-0.3327234791483863,-1.5749017463323047,nan
1741085125.5924838,-0.5510720179925562,-3.952206664634919,-5.825433952324991,-2.0834571235983175,nan
1741085125.5963864,0.1970494098476851,-7.204584086534478,-7.450023357447475,-1.8711446134705196,nan
1741085125.600289,0.45646640823355167,-6.048169482677345,-4.1180318405023435,-0.8670596097048061,nan
1741085125.6041918,0.3400093478068402,-1.193243181253323,1.839963912739656,0.7367398198777463,nan
1741085125.6081333,0.24322446944676682,4.249992288390417,6.340399634604976,2.269447132101068,nan
1741085125.612036,0.3342538904237335,6.887736889518036,6.430632820392168,2.7673707756628834,nan
1741085125.6159387,0.3718696599707195,5.286637187088107,2.2998863897593695,1.628483532620543,nan
1741085125.6198413,0.029254295500769644,0.7889032244788368,-2.9980418432369276,-0.7305995544282473,nan
1741085125.623744,-0.6287142191412597,-3.584240670050653,-5.825339481891632,-2.8740849137053557,nan
1741085125.6276467,-1.0506677634007517,-5.253546946131805,-4.520351099621758,-3.2299664359455726,nan
1741085125.6315494,-0.667044754507534,-3.6862880911868716,-0.3941847862123258,-1.3138347434921815,nan
1741085125.635452,0.47414815974590363,-0.4393249458464231,3.444225256597669,1.6898081568297625,nan
1741085125.6393547,1.5450205054306925,2.2012335497747464,4.431568683327134,3.610055522534663,nan
1741085125.6432574,1.5267195333810497,2.8517016840376774,2.285530629914556,2.8793592766642093,nan
1741085125.64716,0.13466605204341112,1.751443506531116,-1.0597793015706245,-0.15118304481575626,nan
1741085125.6510627,-1.7365152828028063,0.20974063894518624,-3.094938089462261,-3.286134116078507,nan
1741085125.6550078,-2.5587585944238325,-0.5973770928329284,-2.5984788319902545,-4.0499558614513615,nan
1741085125.6589105,-1.393094878942468,-0.46577293373213613,-0.34087897618154134,-1.6285194625796438,nan
1741085125.6628132,1.1840295540303956,-0.05798676499739095,1.7514366852773282,2.341415958265313,nan
1741085125.6667159,3.306816204423155,-0.10364784488346038,2.169945386646236,4.865646437087728,nan
1741085125.6706185,3.173280127651132,-0.6803024013255367,0.8768962359217032,3.8424298521827636,nan
1741085125.6745212,0.5350187448218365,-1.1841678118451464,-0.8810898028045356,-0.23347897717314486,nan
1741085125.678424,-2.897397459860453,-0.9490513107042053,-1.6956740227361928,-4.487696356606098,nan
1741085125.6823266,-4.5849319529987,0.08440514581281361,-1.0826655000654692,-5.73786433712987,nan
1741085125.6862292,-3.0645411079830907,1.252844237101313,0.2873435582625363,-2.896772224708677,nan
1741085125.690132,0.8239412163847628,1.701547827226515,1.2690940690540968,2.132356565667265,nan
1741085125.6940346,4.405346340341042,1.093094719038735,1.1822838606345643,5.79510588673342,nan
1741085125.6979373,5.072625820698288,-0.11540949220557377,0.25172200235855646,5.483340139052439,nan
1741085125.7018816,2.2312205846228763,-1.0521001208505478,-0.7127535367709956,1.442166545302127,nan
1741085125.7057843,-2.1984157469708414,-1.1329268297826336,-1.0261216492180334,-3.4411964868931553,nan
1741085125.709687,-5.137750942848766,-0.4941162678876492,-0.6117156882476746,-5.78170219049907,nan
1741085125.7135897,-4.573164413203048,0.19076105531346865,0.07581744563854123,-4.137155772159452,nan
1741085125.7174923,-0.9885660003386676,0.3267332306643759,0.5172570008940164,0.06848254808023417,nan
1741085125.721395,3.045982282711613,-0.09221883490966984,0.5316107717795155,3.749574053077164,nan
1741085125.7252977,4.783825885329487,-0.5097345882268746,0.30178116016221596,4.483127832478676,nan
1741085125.7292004,3.2526593790456038,-0.3353414550228817,0.09120547351856088,2.166417593468006,nan
1741085125.7331033,-0.1871999837678265,0.4871024541836413,-0.0225153942435977,-1.1617432032710462,nan
1741085125.737006,-3.005576451550106,1.3642059095809602,-0.14716140062760477,-3.042159443540827,nan
1741085125.7409086,-3.4120016290945308,1.5039017286440297,-0.35768837725527997,-2.4299240427269386,nan
1741085125.7448113,-1.543758440695784,0.5736434853978004,-0.5282442385573638,-0.25800953688266665,nan
1741085125.7487552,0.884732546911639,-0.9682009159543545,-0.4176337081521701,1.552882537535522,nan
1741085125.752658,2.0587835416243183,-2.1451087808660545,0.0606233849055044,1.7005729003368943,nan
1741085125.7565606,1.4318298998310368,-2.1426710663859003,0.6602989134752647,0.4099881471823096,nan
1741085125.7604632,-0.05376496743798561,-0.8881073024699254,0.9301212989515784,-0.9797588265212334,nan
1741085125.764366,-0.9428253275072844,0.8928424440471814,0.5781455742975935,-1.2597008520218484,nan
1741085125.7682686,-0.5404477680672632,2.164586039715938,-0.23689234913825152,-0.3265437521354112,nan
1741085125.7721713,0.5778730523717824,2.2472694412183194,-0.9656080981029487,0.8725506954767881,nan
1741085125.776074,1.1769025704028837,1.1968952854084836,-1.0675524607149491,1.2630076972179787,nan
1741085125.7799766,0.5077932782559904,-0.31731417408091894,-0.43896604160675723,0.5701893852286481,nan
1741085125.7838793,-1.0035230777217867,-1.4874572463353208,0.48579487135879607,-0.5296728271939457,nan
1741085125.787782,-2.092576842110363,-1.8328323258607964,1.05427569271438,-1.08593824242516,nan
1741085125.7916846,-1.7150608201204658,-1.3717294237375393,0.8870553170294696,-0.7189909170572795,nan
1741085125.795628,0.05883321593424264,-0.47045943112301825,0.15016169022972783,0.11244871480129626,nan
1741085125.7995307,2.0430966528343437,0.4411577280297335,-0.5986794875205239,0.6069707517692097,nan
1741085125.8034334,2.8189282054950042,1.0698924196426896,-0.8502971725057423,0.38021585597377383,nan
1741085125.807336,1.7950371215998766,1.2932478614943859,-0.5108128875276982,-0.21286244251240613,nan
1741085125.8112388,-0.37050658511473633,1.0998686562767466,0.0828666828222737,-0.46459262904871845,nan
1741085125.8151414,-2.2723707424191013,0.55016044442147,0.475320223918989,-0.02704003354853769,nan
1741085125.819044,-2.7569626497342514,-0.20637260960846432,0.45050528473614004,0.7216923747709947,nan
1741085125.8229468,-1.660057464848203,-0.9174113630105667,0.14713322230222875,1.0049197961590413,nan
1741085125.8268495,0.20684446735306508,-1.2928562388586584,-0.12558843154931718,0.37935336208069675,nan
1741085125.8307521,1.7102845617944396,-1.1459216039425952,-0.17494570447918478,-0.794283864980618,nan
1741085125.8346548,2.138476382327244,-0.5180349140569923,-0.05739519577922027,-1.5884667693724424,nan
1741085125.8385575,1.5170546325997114,0.3160025034601198,0.03316923174103082,-1.2776646505767033,nan
1741085125.8425004,0.38671074960486335,0.9839941988379091,-0.015906161726248674,0.01597976556239127,nan
1741085125.8464031,-0.6595308455086262,1.2095706132476503,-0.1292463552162235,1.3675637229575293,nan
1741085125.8503058,-1.2889680491904416,0.939322628339776,-0.1410948024061021,1.7703678651977992,nan
1741085125.8542085,-1.4343407879088135,0.3356897127011385,0.013715261547911651,0.9410769321116825,nan
1741085125.8581111,-1.1338555189837636,-0.33483380186160266,0.21356398659837508,-0.45952132262067114,nan
1741085125.8620138,-0.4446052256246704,-0.8296995586630972,0.2594860408196624,-1.3704905912958703,nan
1741085125.8659165,0.48762789127703227,-1.0042617425324274,0.07627254049090272,-1.1819671097633428,nan
1741085125.8698192,1.3370910837060805,-0.8246523524893193,-0.19373699154986437,-0.1891757969859463,nan
1741085125.8737218,1.6723570624405069,-0.35597273852536865,-0.30614576810978394,0.7096097858432346,nan
1741085125.8776245,1.2184904986341065,0.2483622847964314,-0.141536096198455,0.7925682698139933,nan
1741085125.8815272,0.11264233779143902,0.770034425348452,0.1680058110023265,0.10432157667724241,nan
1741085125.8854299,-1.0914208102381988,0.9913047147246179,0.34189532473243117,-0.6300367714219949,nan
1741085125.8893723,-1.7325832231185363,0.7977663762248365,0.20268933826099675,-0.6698535650431298,nan
1741085125.893275,-1.4653836233715396,0.26060432938250166,-0.1495434128432489,0.08007460048062984,nan
1741085125.8971777,-0.48431202951891994,-0.37328387226180765,-0.4077516414260101,0.97756225604836,nan
1741085125.9010804,0.6203124225155464,-0.8024033577101606,-0.3241485530545037,1.1918555166858216,nan
1741085125.904983,1.2620636158774,-0.8379575415769474,0.05966776060265364,0.42199459834220315,nan
1741085125.9088857,1.2128132226088224,-0.5072167904907295,0.4301416885446677,-0.8225080816155595,nan
1741085125.9127884,0.6676677102539644,-0.021119528776956567,0.46449741870571554,-1.6117790703961088,nan
1741085125.916691,0.01922978994990505,0.3687923467888248,0.1153754291413343,-1.3306739468300093,nan
1741085125.920594,-0.44069392166617005,0.5196097108964228,-0.3354436097107046,-0.15792187927362591,nan
1741085125.9244967,-0.6544314105691528,0.4502325262836049,-0.5111102621096534,1.0859241634238954,nan
1741085125.9283993,-0.7057601773581241,0.27712578648449476,-0.26469464538463866,1.5755097422867776,nan
1741085125.932302,-0.6431190438204882,0.10268692088954033,0.18883857633059192,1.0786305618235816,nan
1741085125.936244,-0.4121399186685258,-0.04691106568897765,0.4552859955208976,0.05671804634821486,nan
1741085125.9401467,0.040874379545173395,-0.19349984053798375,0.30524983361411473,-0.7617353541036176,nan
1741085125.9440494,0.6146003446450327,-0.33324526930531606,-0.12053455351815166,-0.9457253690438133,nan
1741085125.947952,1.0275560082704163,-0.4013676288560278,-0.4299940354851008,-0.6070263646244779,nan
1741085125.9518547,0.9858145592799512,-0.3179122002415564,-0.32615620047391664,-0.17890761448021947,nan
1741085125.9557574,0.42191451032589034,-0.07500436796212213,0.11978692041931564,0.01895586585528356,nan
1741085125.95966,-0.40085141360683557,0.22098961086210844,0.5143971225131061,0.028097858775078487,nan
1741085125.9635627,-1.0278806607498816,0.4053502006190727,0.4787341980215654,0.11785080737811264,nan
1741085125.9674654,-1.1080603704428296,0.37448322387898214,-0.00983409800279568,0.43572255090367135,nan
1741085125.971368,-0.6253448964776175,0.1705550107352667,-0.5716814852722683,0.7937916958717266,nan
1741085125.9752707,0.10473460235143253,-0.04726849304082455,-0.728481845291806,0.8045717220137655,nan
1741085125.9791734,0.6626285152156505,-0.13082720152927507,-0.30834395103713536,0.2510482452723259,nan
1741085125.983115,0.7984239653330227,-0.06715666945909236,0.39136511392419554,-0.6463248218425811,nan
1741085125.9870176,0.5543670265749179,0.010474444462870935,0.8302507909890791,-1.3235978956946828,nan
1741085125.9909203,0.17173607239856667,-0.05499886667865805,0.6600572185765307,-1.2778670552457094,nan
1741085125.994823,-0.11554320295428232,-0.2837977828406958,0.00920659195039335,-0.46270084622203134,nan
1741085125.9987257,-0.23080069973767203,-0.5009305606294284,-0.6204836320458351,0.6465571903620141,nan
1741085126.0026283,-0.2502466784959884,-0.45000748932497703,-0.7593986777393676,1.374892876914083,nan
1741085126.006531,-0.2818047277332795,-0.010516274896312626,-0.34159494472858076,1.3093165629097567,nan
1741085126.0104337,-0.347574799936947,0.6487763207937678,0.2620957522200595,0.554572799378258,nan
1741085126.0143363,-0.3648052806407155,1.1212793779631869,0.5671835071312881,-0.38603125577126884,nan
1741085126.018239,-0.22602746105537064,1.0165195347148035,0.3759416159706356,-0.9810520193193661,nan
1741085126.0221417,0.09705002142354167,0.25483956605846253,-0.08074888030881316,-0.9997461464585681,nan
1741085126.0260444,0.5052486268684592,-0.812574657838326,-0.36896712512258784,-0.5794775449856103,nan
1741085126.0299892,0.8064811241217151,-1.5713065883982469,-0.23965338979809112,-0.04036210497661836,nan
1741085126.033892,0.8071111432819073,-1.5162119911427063,0.15902521796527713,0.3608892400478716,nan
1741085126.0377948,0.4149016136005448,-0.5927830839072911,0.4244681632669591,0.5457720817474317,nan
1741085126.0416975,-0.28581183506005214,0.7267533338147317,0.2676711657962774,0.5571685758473595,nan
1741085126.0456002,-1.0213407671952723,1.7021020654516694,-0.21730641051702176,0.4419889309882516,nan
1741085126.0495028,-1.410375223537857,1.767246944987605,-0.6196189650152912,0.20608583104261075,nan
1741085126.0534055,-1.1441787658974254,0.8781685098637552,-0.5604694382269672,-0.1305989147162251,nan
1741085126.0573082,-0.20054388742962284,-0.4574172498500898,-0.027174511563844976,-0.46574546721591353,nan
1741085126.0612109,1.0431979603651331,-1.488420898461749,0.5946007274563033,-0.6333646335217292,nan
1741085126.0651135,1.9268115604065525,-1.6700879075200008,0.823085930780938,-0.515491382215273,nan
1741085126.0690162,1.857936628726376,-0.9716612262678401,0.46841724526316353,-0.14985558232303303,nan
1741085126.072919,0.7175291417885028,0.14233912430990728,-0.21329544474678813,0.27238536725147966,nan
1741085126.0768635,-0.9618155841712644,1.026484423731095,-0.7235268389308175,0.5298848125756154,nan
1741085126.0807662,-2.230523467353084,1.2482363119547495,-0.7113837084452338,0.5175029986273142,nan
1741085126.0846689,-2.2857470335554075,0.8101970692430395,-0.2323601870253159,0.2974664460472357,nan
1741085126.0885715,-1.0165880996105063,0.08082011489330453,0.3236451413839757,0.0229068516358452,nan
1741085126.0924742,0.8602139302406371,-0.48725199046074374,0.5582950096913887,-0.18719443864359953,nan
1741085126.096377,2.216503809387031,-0.6432167904897083,0.3680028911229929,-0.30889356269081697,nan
1741085126.1002798,2.235375894777812,-0.4435966625975512,-0.015270390243441718,-0.3693793120712844,nan
1741085126.1041825,0.9517827170104707,-0.13805766417110354,-0.25435029485154154,-0.3636710900062026,nan
1741085126.1080852,-0.7754422708787803,0.04804578229739993,-0.19469744966884373,-0.234004607073957,nan
1741085126.1119878,-1.8519224716805027,0.06353551610011578,0.03349181441673708,0.05481570202075972,nan
1741085126.1158905,-1.6839050296740936,0.017945480694607427,0.1666825167595807,0.41885465289280305,nan
1741085126.1197932,-0.5411866434771393,0.0448344459879474,0.06073395462028971,0.651835559365284,nan
1741085126.1237369,0.6982612574795152,0.1704737589070725,-0.18258440396032619,0.5546650201638795,nan
1741085126.1276395,1.2111835579201224,0.2949804194804522,-0.3184319908179521,0.10889266551079599,nan
1741085126.1315422,0.798051201371745,0.28910689082916435,-0.18835166022972172,-0.4574853746414846,nan
1741085126.1354449,-0.05054080843907857,0.11388495219265148,0.13201593097380326,-0.7934906431906517,nan
1741085126.1393476,-0.6020189362189564,-0.14087348627732268,0.3947151253435703,-0.6661269536033823,nan
1741085126.1432502,-0.4680536001631962,-0.32701841742407844,0.39071927787609056,-0.13896470615303858,nan
1741085126.1471531,0.12931925286779833,-0.351321134609671,0.12341441359502253,0.4568581817856547,nan
1741085126.1510558,0.5941906677970551,-0.23414350530159028,-0.20221032280155732,0.7476884799241718,nan
1741085126.1549585,0.47553395069299015,-0.07049028937916224,-0.3559844207290908,0.5734750330100599,nan
1741085126.1588612,-0.16117358815684887,0.061233896267075205,-0.2654885085266279,0.08534164128887457,nan
1741085126.1627638,-0.7989695602653336,0.1545503764223535,-0.051260463955138454,-0.3807150353782397,nan
1741085126.1666665,-0.8990351730470854,0.24572460604856458,0.10188699203272547,-0.5479834980488922,nan
1741085126.17061,-0.3366922096766334,0.33596513444659215,0.11031722336969552,-0.3741150765727933,nan
1741085126.1745126,0.5023853484956363,0.35152682360750515,0.04449446233166775,-0.038747108127999114,nan
1741085126.1784153,1.0266943947138498,0.19587655159661263,0.032272186440916874,0.2211517232705981,nan
1741085126.182318,0.8876767011029425,-0.14128930601926729,0.11498636334238874,0.28304892133637816,nan
1741085126.1862206,0.21950759746497925,-0.5191592516136057,0.19828866855027444,0.18919313923142284,nan
1741085126.1901233,-0.4971079264524079,-0.703568494637777,0.14611831669773048,0.06283649117941244,nan
1741085126.194026,-0.8114653971772945,-0.5261952954836634,-0.07162237626669658,-0.013390713746856596,nan
1741085126.1979287,-0.6122956154342502,-0.028884100802181463,-0.3214278383486687,-0.04772076609219739,nan
1741085126.2018313,-0.1463586385805152,0.5287901466457456,-0.4025451632491961,-0.09049006723379076,nan
1741085126.205734,0.22762185912247287,0.8231684540658848,-0.21945149649983386,-0.15266262486809504,nan
1741085126.2096367,0.32174944979707704,0.6793923083829794,0.1222167159349683,-0.17969893805794715,nan
1741085126.2135394,0.21311649310245118,0.18904233740387658,0.3871499629335881,-0.10624560507602006,nan
1741085126.2174826,0.10696817919436385,-0.35451426858363605,0.39467761771682014,0.06507080740862507,nan
1741085126.2213852,0.12123721551268014,-0.6539136217137717,0.16085947383820448,0.24148915264075796,nan
1741085126.225288,0.18956216752472457,-0.5924803308453566,-0.12228764852743122,0.301753032653611,nan
1741085126.2291906,0.1532701864390788,-0.27757784247312667,-0.2509217239271521,0.19048153963870268,nan
1741085126.2330933,-0.06079837597399456,0.07068970522602597,-0.17417796777189637,-0.03570277165265228,nan
1741085126.236996,-0.34749099245718823,0.28272542508523313,-0.018786385541132978,-0.24773840192861904,nan
1741085126.2408988,-0.4990657134457201,0.3271442244657965,0.04246767983007602,-0.3329165093584797,nan
1741085126.2448015,-0.3784364749300713,0.2743074223842607,-0.04330993681394382,-0.2600594003335268,nan
1741085126.2487042,-0.036404093761201926,0.1952896564096343,-0.1597170877118811,-0.07831513456697427,nan
1741085126.2526069,0.32476275978526803,0.0995493078731936,-0.13409283202619082,0.1310146153526664,nan
1741085126.2565095,0.5029862514205061,-0.038152294456673626,0.08784676683483865,0.2969950980754971,nan
1741085126.2604122,0.43214179535396796,-0.20492792660966186,0.365422569670072,0.366782012564821,nan
1741085126.2643547,0.19780122830194663,-0.3197215085783516,0.46186456815830235,0.298445695228585,nan
1741085126.2682574,-0.058502795829519956,-0.2896513653381837,0.24290546719623216,0.07706431100238538,nan
1741085126.2721603,-0.24622238395970492,-0.10486299663516727,-0.19204815185583485,-0.24273463580288812,nan
1741085126.276063,-0.3521059102331775,0.12470987142884615,-0.5627616094829891,-0.515796064908134,nan
1741085126.2799656,-0.3850888603591564,0.24201303132054236,-0.6105958082457161,-0.5610388850403318,nan
1741085126.2838683,-0.32025118187570445,0.17378397375465435,-0.2918456738133242,-0.28486552403357984,nan
1741085126.287771,-0.11579065142387346,0.003331772905400751,0.19005541227440995,0.21277249682546132,nan
1741085126.2916737,0.20819572698387123,-0.09220143188836863,0.5351327022335097,0.6538726772582669,nan
1741085126.2955763,0.5179011489174157,2.1586438300196697e-05,0.5578815088153212,0.7448240766102615,nan
1741085126.299479,0.6190980424401371,0.2095763321124438,0.29663023505358965,0.3877133426686096,nan
1741085126.3033817,0.39768022824146965,0.31907221044327516,-0.04909578002847753,-0.2206809614949189,nan
1741085126.3072844,-0.06460200737028596,0.1451018339164428,-0.28328309272134533,-0.698466475797051,nan
1741085126.3112261,-0.5111321513915946,-0.27865359400531403,-0.3395086408708157,-0.7370060447589609,nan
1741085126.3151288,-0.6746367079404277,-0.6789936244311554,-0.27873729693012456,-0.3226798156908526,nan
1741085126.3190315,-0.46667848125184014,-0.724613612320359,-0.18837514673444872,0.24983515791981353,nan
1741085126.3229342,-0.04157393571758263,-0.28591858777607954,-0.09188453676851982,0.591326590498727,nan
1741085126.3268368,0.32143369909642855,0.4302836179437079,0.04711717951120137,0.5007311024842257,nan
1741085126.3307395,0.4262998177305209,0.9907336695913049,0.2421240132617923,0.10128715893912106,nan
1741085126.3346422,0.2914353713916797,1.0239341060196403,0.4171156798099905,-0.27252427782965405,nan
1741085126.3385448,0.10062250745046501,0.47901462371472125,0.43636029959223954,-0.3441720450516103,nan
1741085126.3424478,0.02241178847253476,-0.3348348493450943,0.21769075267356036,-0.10549549676577336,nan
1741085126.3463504,0.05881731608364373,-0.9546681867262915,-0.16932981308998374,0.19581383320435286,nan
1741085126.350253,0.0581897466121649,-1.0614183442913259,-0.5170559937595475,0.27408677473983056,nan
1741085126.3541558,-0.11765039829814812,-0.6572364389282406,-0.6109310423494461,0.04677640472157177,nan
1741085126.358097,-0.42285271600595303,-0.015310818350069137,-0.38196719481176417,-0.29765815437986193,nan
1741085126.3619998,-0.6177437544136972,0.5302415467982806,0.039472337520071635,-0.45668148404466513,nan
1741085126.3659024,-0.4517259111050005,0.78254806596035,0.4122765913057169,-0.2638656927461991,nan
1741085126.369805,0.10019986975002164,0.7364169597532307,0.546732404286452,0.17138093744962973,nan
1741085126.3737078,0.7506305580496813,0.4927078979425389,0.41668940067876925,0.5443035180420744,nan
1741085126.3776104,1.0613396611341073,0.1451170681851156,0.1448636769410649,0.586627698715754,nan
1741085126.381513,0.7548624710070971,-0.2533547244300381,-0.11038799482427329,0.2643847235091537,nan
1741085126.3854158,-0.0545913714813498,-0.6372701050123638,-0.2647243545860234,-0.20766754829844417,nan
1741085126.3893185,-0.8978257015675449,-0.8763660919318264,-0.32870950994292786,-0.5332643696131425,nan
1741085126.3932211,-1.2482943412894074,-0.811270082127372,-0.34168074733516984,-0.5429894681302586,nan
1741085126.3971238,-0.8767010570062767,-0.37299064620072847,-0.29785708574694836,-0.2860231875956549,nan
1741085126.4010265,-0.009715101216472054,0.3131615863218145,-0.14448264156833254,0.045119620962900196,nan
1741085126.4049716,0.821179005788225,0.9455266661883811,0.14227441662272156,0.27302112178231297,nan
1741085126.4088743,1.132133711029931,1.2000765648843081,0.47836817896959666,0.34247577216093716,nan
1741085126.412777,0.7920902716066284,0.9221437663430558,0.6780001440983323,0.30605860046355676,nan
1741085126.4166796,0.07534380881941644,0.22227787550488415,0.5647734657905191,0.23021505117875943,nan
1741085126.4205823,-0.5557395397156383,-0.5862703112668727,0.11440900257354222,0.12413397381083363,nan
1741085126.424485,-0.7662402759258055,-1.1559649895671573,-0.48386915930684216,-0.04390621953530223,nan
1741085126.4283876,-0.5379387139334494,-1.2639851551279973,-0.909900801874204,-0.27016309241049646,nan
1741085126.4322903,-0.11935663501605208,-0.8792234792101487,-0.8984580913598661,-0.4657600794515595,nan
1741085126.436193,0.19469603422345827,-0.13949955466121552,-0.409889149442021,-0.49494024063094394,nan
1741085126.4400957,0.27228225616410184,0.7054512347223115,0.3277628847031113,-0.2789582885657425,nan
1741085126.4439983,0.1926473651495056,1.3492606257375133,0.935722893287199,0.12093739912975587,nan
1741085126.447901,0.12384710209224355,1.5004151030918538,1.0909643654495105,0.5160563872768493,nan
1741085126.4518452,0.15193866899162894,1.0000961702012188,0.7016884038351413,0.6968984568142097,nan
1741085126.455748,0.20848064313418432,-0.04320104963450655,-0.04401621871786286,0.5587564066502222,nan
1741085126.4596508,0.14983486003932278,-1.2074649921615936,-0.7763017065523901,0.16024585895753032,nan
1741085126.4635534,-0.08814312225239523,-1.9011141855410614,-1.1312652206626874,-0.3163063619170632,nan
1741085126.467456,-0.39835363991046324,-1.6795010247135158,-0.9318992937264244,-0.6639900945149453,nan
1741085126.4713588,-0.559312682878211,-0.5575049262770205,-0.27568116622552136,-0.7429884106913865,nan
