timestamps,TP9,AF7,AF8,TP10,Right AUX
1741051000.7574332,-0.44807343767852054,0.1449163449952092,0.3781329616476863,-0.012912754316147244,nan
1741051000.7613387,0.564373827117591,1.0950292861652673,1.9730295079686622,0.6292645174151882,nan
1741051000.7652442,1.1843911296709215,1.320802139513582,2.4154298609530636,0.9145007941710391,nan
1741051000.7691495,0.9919508372059019,0.7479509673048172,1.4679101637095475,0.6585991677332097,nan
1741051000.773055,0.13395164441434376,-0.19277114573120382,-0.2651656805562928,0.0038921937658855546,nan
1741051000.7769606,-0.7770915345630817,-0.8878400167330209,-1.7384433223363909,-0.6545810399672526,nan
1741051000.7808661,-1.102932853129583,-0.9527638983884154,-2.127105812920985,-0.9107127337971765,nan
1741051000.7847717,-0.6364956587942349,-0.45060961688397294,-1.3121514104083871,-0.6079990883872816,nan
1741051000.788677,0.26030824126383517,0.20910942025192042,0.11119764124098755,0.054895771197063695,nan
1741051000.7925825,0.9341500549942442,0.5875947950547109,1.2698145417559292,0.6522338921434936,nan
1741051000.796488,0.9190694910939178,0.5095897032569545,1.5709566992984632,0.8125318765237519,nan
1741051000.8003936,0.2591024380297934,0.13530472052258596,1.010422915489948,0.4620313536499995,nan
1741051000.8043077,-0.552946592070737,-0.2085375825209742,0.06738581816405989,-0.13819497650692966,nan
1741051000.8082132,-0.9532721146462882,-0.2871318952705814,-0.6793870485636144,-0.5844588492524334,nan
1741051000.8121188,-0.7051988474527409,-0.10946912343206701,-0.9127776765203467,-0.6108427236804884,nan
1741051000.8160243,-0.02919096132871541,0.12118352516052848,-0.6842856555172845,-0.2563633618073469,nan
1741051000.8199296,0.6008758401796872,0.1944205495737849,-0.2587544118144299,0.19319774011542187,nan
1741051000.8238351,0.8092396598522916,0.059496514506938374,0.12215925900156223,0.43094724173416854,nan
1741051000.8277407,0.5463642666599694,-0.15278522200941808,0.36229711644199003,0.34448612641699744,nan
1741051000.8316462,0.05218748482790356,-0.2540013919957279,0.4671277483833239,0.06460543692278925,nan
1741051000.8355515,-0.36724549660715294,-0.15641159697364754,0.43897677660808687,-0.17065692794105664,nan
1741051000.839457,-0.5458499428976155,0.062326605441312986,0.24836408931982182,-0.21136080907637497,nan
1741051000.8433626,-0.498761641932902,0.23183269574258575,-0.08938646748891568,-0.09159096318732257,nan
1741051000.847268,-0.31792287941344577,0.23088170066378688,-0.43456273664861056,0.036926520769190514,nan
1741051000.8511817,-0.06121149001647866,0.07993933774881418,-0.5635682910021511,0.05737780988971349,nan
1741051000.8550873,0.25197573238846604,-0.08708083280147962,-0.3364282922571125,-0.013912876001243545,nan
1741051000.8589928,0.5580604428101952,-0.14149081066962638,0.14601983965170362,-0.06416433524663598,nan
1741051000.8628983,0.7015643148801691,-0.06622550440998068,0.5596926650176587,-0.010340460790733043,nan
1741051000.8668036,0.5150490381707954,0.03845491664920263,0.57971091795638,0.10958424316517562,nan
1741051000.8707092,-0.015919884540540066,0.0517108961689878,0.14930774347988257,0.1684147651628932,nan
1741051000.8746147,-0.6562629872412487,-0.05349924538638775,-0.43458783804883894,0.07594061123680979,nan
1741051000.8785203,-1.0184079854111605,-0.17840688029749324,-0.7210025642234772,-0.11978689408885262,nan
1741051000.8824255,-0.8201549773841302,-0.1800476739998952,-0.4560037277206517,-0.2569485394635137,nan
1741051000.886331,-0.11631705668906543,-0.0013076408339905414,0.19406168211762892,-0.19795154816519123,nan
1741051000.8902366,0.692055369873809,0.26049525420568526,0.744961866123203,0.038545872218136525,nan
1741051000.8941422,1.1072795082933613,0.4109559969095528,0.762708489192642,0.2743073625982948,nan
1741051000.8980606,0.8740200318877029,0.3052461817544211,0.21147089380278933,0.3113060955104817,nan
1741051000.9019659,0.15643973868843608,-0.02850148432856055,-0.5042745647513399,0.10140716830841225,nan
1741051000.9058714,-0.5815901803842837,-0.38999216672774667,-0.849433656657432,-0.20112938262043478,nan
1741051000.909777,-0.9027569175868586,-0.539613799991294,-0.577679201574495,-0.3571477015135913,nan
1741051000.9136825,-0.6835855532894596,-0.36841693249231683,0.07826038707329812,-0.2379496628008605,nan
1741051000.917588,-0.15617321476312054,0.02127949795323531,0.6017643090078526,0.06467482043640338,nan
1741051000.9214933,0.3043851474178231,0.3855985602897966,0.6131320627368051,0.3097185197906443,nan
1741051000.9253988,0.4617839748061953,0.5074621233369081,0.16867934441936772,0.30387697109336176,nan
1741051000.9293044,0.3489197830089432,0.33935555995497674,-0.30828926571792364,0.060624680888000486,nan
1741051000.93321,0.16867155436424985,0.01917056560114583,-0.40228331704528264,-0.21267300371740042,nan
1741051000.9371152,0.0800964822511746,-0.24348157775401277,-0.06547486431902157,-0.2897793855739605,nan
1741051000.9410207,0.06697519802486113,-0.31692885400729676,0.3463791972178129,-0.11558678961252734,nan
1741051000.9449384,-0.005051239213437522,-0.22010731191972865,0.39532746962219034,0.14956519843743543,nan
1741051000.948844,-0.21259641300474705,-0.07402346532951075,-0.03496715321567361,0.2689623275466073,nan
1741051000.9527495,-0.4552952782082478,0.014087101249172559,-0.6058525902598139,0.1339656099861091,nan
1741051000.956655,-0.5141572773286616,0.03226236324497225,-0.7899008574524695,-0.1403264277814753,nan
1741051000.9605606,-0.24534878647354766,0.04765541536620981,-0.32501144001199467,-0.31073739185925175,nan
1741051000.9644659,0.26001953745767964,0.11770420097714407,0.5254621081898561,-0.21342213879781513,nan
1741051000.9683714,0.6994964229169889,0.21585880456825582,1.1393694059395179,0.09186132163601855,nan
1741051000.972277,0.7647368087063837,0.24334236831075962,1.0123441662604775,0.36338984257851215,nan
1741051000.9761825,0.3734551210920107,0.11984548858466613,0.16639716928478787,0.37241624868379125,nan
1741051000.9800878,-0.2548208657764573,-0.12683258409514958,-0.8412926913003884,0.0910713661242958,nan
1741051000.9839933,-0.7410175780021937,-0.35598348131661417,-1.3233694929901516,-0.2807237311812744,nan
1741051000.9878988,-0.8003157225541367,-0.4080852470611758,-0.9656438315366465,-0.4699484007375731,nan
1741051000.9918156,-0.4211399004162065,-0.22700480735290288,-0.04042312767940705,-0.3399509049602602,nan
1741051000.995721,0.15031583193646883,0.0883836953082134,0.8207597549748128,0.011954024947905723,nan
1741051000.9996264,0.5888883898343888,0.3480125880543522,1.0976250739272446,0.3389194358105018,nan
1741051001.003532,0.6904154352450389,0.4027809717709214,0.7231005662235757,0.4334616435239456,nan
1741051001.0074375,0.45950711254010174,0.2436851967825726,0.0552182771176813,0.26754540575782915,nan
1741051001.011343,0.056189107051636086,-0.005642720334098804,-0.4518373309470163,-0.016293243297920264,nan
1741051001.0152485,-0.32420475097568074,-0.19042156702195995,-0.5817934400941653,-0.2346296710657841,nan
1741051001.0191538,-0.5417403176652511,-0.23486235301114797,-0.4356669627727742,-0.2943212407885291,nan
1741051001.0230594,-0.5356101655116263,-0.17527211760135855,-0.24224075419218913,-0.22392742859622605,nan
1741051001.026965,-0.3122170954511168,-0.1000394931976728,-0.11458118873570415,-0.10440476009850833,nan
1741051001.0308704,0.05812103612878242,-0.05903975597041356,0.015818382639067072,0.015311263503260009,nan
1741051001.034776,0.435633721577546,-0.025863759441952187,0.24935711028337348,0.13498648801153337,nan
1741051001.0386972,0.6384634575931251,0.05641678987359598,0.5301004360394158,0.2502342946870496,nan
1741051001.0426028,0.5291064963002718,0.19364756990037937,0.6318295222896886,0.30441170677565915,nan
1741051001.046508,0.12036186596821244,0.3053946685168772,0.3573046713090985,0.21523778468180688,nan
1741051001.0504136,-0.3881063868725379,0.2780605074267634,-0.22949344011970516,-0.03492241778224968,nan
1741051001.0543191,-0.7028316879888075,0.06758352243682575,-0.7742901859254526,-0.33423147806186515,nan
1741051001.0582247,-0.620981457400527,-0.2373439053165855,-0.8738552849969257,-0.48536589359614685,nan
1741051001.06213,-0.17946501446805785,-0.45481826846332096,-0.40644437352848667,-0.34804291759778544,nan
1741051001.0660355,0.3522878435698718,-0.43238346861368915,0.33290802477039244,0.03018460596337962,nan
1741051001.069941,0.6472230901921969,-0.1617328225986916,0.830317269022339,0.41579329007944027,nan
1741051001.0738466,0.5428739149679549,0.20494010011962752,0.742932598313216,0.5448472831422796,nan
1741051001.077752,0.14608890419145698,0.45326015914381057,0.16681276436235556,0.32164011004697296,nan
1741051001.0816574,-0.258552284936405,0.4479681310240138,-0.4417212088960002,-0.09896611336646574,nan
1741051001.085573,-0.423604783519791,0.21430100016232664,-0.6321032749321105,-0.42080596224947636,nan
1741051001.0894785,-0.30859579030103806,-0.09429672453863827,-0.31375739558705595,-0.4287545557917027,nan
1741051001.093384,-0.07668536960663523,-0.3083547112771351,0.19169585563038638,-0.14938639849820076,nan
1741051001.0972896,0.06677054055557682,-0.3458130731155023,0.4375902957378547,0.17930493972151285,nan
1741051001.1011949,0.050799681614325395,-0.2365999878690719,0.23227249181300022,0.3044030791621434,nan
1741051001.1051004,-0.018951816874374514,-0.06860776951144902,-0.20876899267946128,0.15986421785393365,nan
1741051001.109006,0.01741676593101762,0.08477671097039415,-0.46241686947213606,-0.09141659354513162,nan
1741051001.1129115,0.200518558617946,0.19426954877516237,-0.2730754677373375,-0.20719870332704846,nan
1741051001.1168168,0.3863848757399137,0.2516936412142341,0.21974104435771194,-0.0790109223459198,nan
1741051001.1207223,0.3571190627743987,0.23729523784065068,0.5957622002041459,0.17235407839943073,nan
1741051001.1246278,0.021884473636327038,0.12470659242008694,0.5119732377914202,0.3009708506387392,nan
1741051001.1285334,-0.4631488147489568,-0.07507865701649624,-0.0004909292579360932,0.1527309182836115,nan
1741051001.1324487,-0.7709709083598932,-0.27955044514230065,-0.5518927900404588,-0.1887906838349263,nan
1741051001.1363542,-0.635163207441757,-0.36199222101164147,-0.7085686102954722,-0.4548791552146861,nan
1741051001.1402595,-0.06535667401283896,-0.23893896691697158,-0.343832206503837,-0.4058535264287521,nan
1741051001.144165,0.6232741227077807,0.046959904486653076,0.26339234958404967,-0.03422134421496672,nan
1741051001.1480706,1.0019311276574385,0.3268392125139114,0.6564690173908942,0.4109503409568615,nan
1741051001.151976,0.8122893521893793,0.409066210297355,0.5610208985416308,0.6041121878831891,nan
1741051001.1558816,0.14402653178929473,0.22046141423432825,0.08383575843913497,0.3897524631206073,nan
1741051001.159787,-0.6170681035456115,-0.12356335644743469,-0.3970863279964176,-0.09597839231457966,nan
1741051001.1636925,-1.0319780840840096,-0.3856991007043812,-0.5420000002850885,-0.521870493443218,nan
1741051001.167598,-0.8766363914366109,-0.3734325933237961,-0.2981566956729424,-0.6010405034163993,nan
1741051001.1715035,-0.2632516599819052,-0.08580760555714861,0.10037845339840815,-0.29195121544446556,nan
1741051001.1754088,0.4488630154634644,0.2741953303681676,0.3516080861968799,0.18382841872694497,nan
1741051001.1793232,0.878076659296025,0.44012897015084906,0.32112450873365966,0.5091261360018241,nan
1741051001.1832287,0.8321900225820665,0.27769607875318847,0.10531354854581074,0.4914882909957684,nan
1741051001.187134,0.3874039288283815,-0.1090181821971273,-0.0984859542869615,0.17779708828325708,nan
1741051001.1910396,-0.18900116451935703,-0.4438802441434305,-0.17159926818896973,-0.2039862705124597,nan
1741051001.194945,-0.6036882828569103,-0.47467858482978564,-0.14118556452994413,-0.4143629061797032,nan
1741051001.1988506,-0.6869913508903482,-0.1585629378060695,-0.09930386268471358,-0.35380229548172304,nan
1741051001.2027562,-0.45372712496987516,0.29856944554849013,-0.08091057920614629,-0.10013914373397263,nan
1741051001.2066615,-0.06250151620368677,0.5803447578865667,-0.03330864268127094,0.1704843274123074,nan
1741051001.210567,0.28632191180955213,0.4800390563996139,0.09710726148650578,0.30500418296444315,nan
1741051001.2144725,0.45259563313285367,0.04800692533689154,0.26262956561009415,0.2537126052912097,nan
1741051001.218378,0.40871415166281727,-0.4370894298986409,0.31936970200436476,0.0738754856485237,nan
1741051001.2222834,0.22542389174172103,-0.6538310264945182,0.1550419092237242,-0.12271913865506015,nan
1741051001.2261972,0.010859152595130449,-0.4534635170619578,-0.1768801506480089,-0.23405256503648145,nan
1741051001.2301028,-0.154263303978965,0.04025811700665216,-0.45720775485470505,-0.2118804861801149,nan
1741051001.234008,-0.24523557950017202,0.5121465706599744,-0.4609353466346683,-0.07622922443772884,nan
1741051001.2379136,-0.2744744778107776,0.6614998877929481,-0.15026864508077103,0.09703758378423952,nan
1741051001.2418191,-0.2506888542255488,0.39608686416934713,0.2719439920495419,0.21171327527320682,nan
1741051001.2457247,-0.15873623855561023,-0.11136773128251402,0.5093337843451744,0.20099479527634176,nan
1741051001.24963,0.016442738805435748,-0.537701158631641,0.4048197631149769,0.069388427679196,nan
1741051001.2535355,0.24196119373768393,-0.6177051358053324,0.0624208381168747,-0.10270589354631696,nan
1741051001.257441,0.41659039275923565,-0.3111914841465453,-0.2475384548854687,-0.20511931164790528,nan
1741051001.2613466,0.41576926578987355,0.17695244147552197,-0.31745037296617956,-0.1715960535950852,nan
1741051001.265252,0.1849596482403593,0.5333931689742504,-0.16515437799088298,-0.029327386446382404,nan
1741051001.2691574,-0.18905110892562568,0.5389988515089121,0.010222435272711947,0.11773579750646222,nan
1741051001.2730756,-0.5002161110334415,0.2059555910008678,0.0327080843018323,0.16551051529563313,nan
1741051001.276981,-0.5459466849403831,-0.23793498395395302,-0.07885858739420468,0.08942828726441868,nan
1741051001.2808864,-0.27312208306159785,-0.504379532147887,-0.13559581219004366,-0.03769642460687384,nan
1741051001.284792,0.16438152661526548,-0.4342601643135413,0.019489214421472997,-0.10707611961177112,nan
1741051001.2886975,0.4944330988619905,-0.09541618165360023,0.32333441072965996,-0.06574893895970899,nan
1741051001.292603,0.5100734979988311,0.2742761268140806,0.508920163863435,0.03867896804483178,nan
1741051001.2965086,0.21599302234615322,0.4350517553533348,0.3346550653466013,0.10048803504612532,nan
1741051001.3004138,-0.17491617829374623,0.30548162800626455,-0.1682269608280871,0.051103648704282474,nan
1741051001.3043194,-0.3973573125883386,0.004201468965899331,-0.6641446679882141,-0.07527497285330192,nan
1741051001.308225,-0.32566816031188495,-0.2501273806525945,-0.7563390096643932,-0.16566910775259783,nan
1741051001.3121305,-0.055518678347098234,-0.3010613413994897,-0.3188432757942476,-0.1252872251827699,nan
1741051001.3160357,0.18542979870828352,-0.1569224320073521,0.36653189087455895,0.03476263924141107,nan
1741051001.3199534,0.22298083065333213,0.03830003498396017,0.8049169186917616,0.19719850667945754,nan
1741051001.323859,0.06753840212737837,0.13385259072641226,0.6737474736330825,0.2307969231507339,nan
1741051001.3277645,-0.11230485188496044,0.09243632849549104,0.08537108335141157,0.09965023248391719,nan
1741051001.33167,-0.14536401069443786,0.004552766888956742,-0.4978029180085538,-0.1035528307624499,nan
1741051001.3355753,-0.007578953492722813,-0.009769907961435195,-0.6353645446008582,-0.23040450663084094,nan
1741051001.3394809,0.1616475937722041,0.07734612130589354,-0.26416447716038394,-0.19560118679662156,nan
1741051001.3433864,0.18849914750944718,0.16699948629617062,0.2597200101328348,-0.04176959017982411,nan
1741051001.347292,0.025649112325533456,0.12248733396164421,0.46958781546728723,0.10331862391519178,nan
1741051001.3511975,-0.19688963946355334,-0.0912274387111,0.18883183043183385,0.13787883242297727,nan
1741051001.3551028,-0.27889894954495725,-0.34308589027908865,-0.3158715168794009,0.0678379259036175,nan
1741051001.3590083,-0.1260045741224506,-0.4176114527865121,-0.5625525404496455,-0.011110100931246413,nan
1741051001.3629138,0.15719656206901214,-0.1913214471896266,-0.27433772155982916,-0.011764470904554491,nan
1741051001.3668306,0.34201431572656477,0.23777635851768278,0.3634570536482218,0.05777482806883661,nan
1741051001.3707361,0.2620762039283935,0.5868108722010361,0.8334897736353362,0.1005960855882493,nan
1741051001.3746414,-0.0422204489699323,0.58364474918824,0.7054264894117479,0.027753353871668447,nan
1741051001.378547,-0.3441190733530183,0.18111315058904096,0.001693200763850415,-0.14253328260662554,nan
1741051001.3824525,-0.4044258093124579,-0.3801710754243058,-0.793411825234586,-0.2789119756968345,nan
1741051001.386358,-0.1609377971477849,-0.7243020788867222,-1.0953383698931318,-0.24023128948368974,nan
1741051001.3902633,0.21855029454305658,-0.6063578246704542,-0.6657121391806126,-0.0049764266853099875,nan
1741051001.3941689,0.4617398285236183,-0.095865115891993,0.20761486245919003,0.28728536410132993,nan
1741051001.3980744,0.39556787312733926,0.4647031148941782,0.9305312580968172,0.42813107278749307,nan
1741051001.40198,0.06930739869295856,0.7014842105406552,1.03992912026249,0.2994007969056424,nan
1741051001.4058855,-0.29231321066799953,0.4737634842856027,0.5177089611231104,-0.02835957516397428,nan
1741051001.4097908,-0.4591399955774846,-0.034058640219099726,-0.24123394259766648,-0.34084930536254976,nan
1741051001.413707,-0.35176898394590533,-0.4578778966763257,-0.7481446558456443,-0.43591354614470096,nan
1741051001.4176126,-0.07130105069996472,-0.5225359298235159,-0.7581654118400654,-0.26818999385306747,nan
1741051001.421518,0.20014415128513832,-0.23065597507859537,-0.3796340001684259,0.029161971729087764,nan
1741051001.4254234,0.3324002348765665,0.1636623746518009,0.08190945812740602,0.2561175756184242,nan
1741051001.429329,0.30907442986741995,0.3636006944410966,0.37407684033305916,0.29500802847653584,nan
1741051001.4332345,0.19058905959487982,0.25250058566191536,0.4338522041771386,0.17819136578793052,nan
1741051001.43714,0.037779330809195995,-0.03772491168895166,0.3395939143312195,0.03067677097892072,nan
1741051001.4410455,-0.1242248177533682,-0.25245865469559176,0.17887683771888904,-0.049304886244959545,nan
1741051001.4449508,-0.2782534463132839,-0.22297508487047704,-0.019418801670911482,-0.06308306447057031,nan
1741051001.4488564,-0.3720849481098786,0.009166826660666344,-0.23968962351823592,-0.0799753243273625,nan
1741051001.452762,-0.32554625490811256,0.24131746063570236,-0.40526584166534724,-0.1421715284407308,nan
1741051001.4566674,-0.09897215881412545,0.2806852287897257,-0.39059976017061354,-0.20381030424359217,nan
1741051001.460583,0.23716488962328283,0.09491793167752333,-0.13576853292277055,-0.16736518965292407,nan
1741051001.4644885,0.5087964479121331,-0.17252263110505195,0.24721413109335905,0.013096574154271927,nan
1741051001.4683938,0.5392707623994761,-0.3228045921736438,0.506181704653046,0.25939285296793335,nan
1741051001.4722993,0.27759894924659123,-0.25394588963138054,0.4297189500026187,0.40391015021758486,nan
1741051001.4762049,-0.14793725996906412,-0.026504209248635575,0.03707078028762532,0.3150420005601525,nan
1741051001.4801104,-0.5013531797510329,0.19705327449812465,-0.39906047189195926,0.013106042997025218,nan
1741051001.484016,-0.589017574196366,0.27867557828513095,-0.5449296162005546,-0.3237562476362501,nan
1741051001.4879212,-0.3795368750984832,0.1945475723418046,-0.272545762639413,-0.47782369971701777,nan
1741051001.4918268,-0.009674538538162199,0.028684108149221666,0.2211113100369423,-0.3469108976586784,nan
1741051001.4957323,0.31805075003016553,-0.10727577865985907,0.5552389192509976,-0.017468687473196277,nan
1741051001.4996378,0.46186652997145017,-0.15407654754018654,0.46398120491046757,0.2990395309594969,nan
1741051001.5035431,0.4017394144932717,-0.12576159578675217,0.01153484475653447,0.4149699744391596,nan
1741051001.5074584,0.20991030416481496,-0.07133838919024586,-0.4556252358998476,0.2873664469094288,nan
1741051001.511364,-0.020883497184023908,-0.02414963279668575,-0.5831575889926003,0.027187902494549384,nan
1741051001.5152695,-0.2241500321292269,0.015544219661978732,-0.28594096127686597,-0.19589084793424508,nan
1741051001.519175,-0.35687254314504674,0.05927022153301878,0.19641152043183355,-0.2704650021604324,nan
1741051001.5230806,-0.3789360260827501,0.1016750269429653,0.503000611546416,-0.1969175247237523,nan
1741051001.526986,-0.25962509624325564,0.11698515308423399,0.43769961418540954,-0.05488038821517422,nan
1741051001.5308914,-0.016270180452998134,0.08301161363266919,0.10195985556605375,0.06957711600866172,nan
1741051001.534797,0.25833695373318655,0.00643796818432933,-0.22120664029747666,0.13316713368024444,nan
1741051001.5387025,0.4264745162822402,-0.07676644595318982,-0.3143770582267254,0.1347568077031218,nan
1741051001.5426078,0.38982765708276923,-0.12613862133076015,-0.18556742046464186,0.08857499636459648,nan
1741051001.5465133,0.16531737296551224,-0.12309985829832731,-0.015427018494461268,0.009806620278050831,nan
1741051001.5504189,-0.11616181963054233,-0.07652771675720114,0.03763274569090128,-0.07652779691964964,nan
1741051001.554333,-0.29756483314552795,-0.007973016872471364,-0.01698128605267736,-0.12747955654321774,nan
1741051001.5582385,-0.3042427939276914,0.06368586876208208,-0.03803530811848354,-0.1014993546081564,nan
1741051001.562144,-0.18511943343862194,0.12250574002960155,0.07607964392381025,0.0015682029737194253,nan
1741051001.5660496,-0.053887439699412294,0.14680096923920535,0.2565506783719473,0.1197122025424923,nan
1741051001.5699549,0.015368267515063545,0.11170333122807707,0.31093758947393435,0.1608303840992781,nan
1741051001.5738604,0.043375271977469446,0.011564599088734048,0.11261953192747691,0.07467497552130423,nan
1741051001.577766,0.10239270698155828,-0.11630510286168234,-0.24613163003006197,-0.0932582134052158,nan
1741051001.5816715,0.2178151306954666,-0.1978363122769611,-0.4952588712148468,-0.2204561067494439,nan
1741051001.585577,0.3135605662520088,-0.16868702201613664,-0.40651754826547293,-0.1964653783457636,nan
1741051001.5894823,0.2642355153626218,-0.03097099064051137,-0.0052882755869590806,-0.015908736893690847,nan
1741051001.5933878,0.017671058102319365,0.13105836055091674,0.42069301015468413,0.2037521477691993,nan
1741051001.5972934,-0.32250581417935875,0.2026518520245374,0.5415724694932889,0.3028927038178894,nan
1741051001.601207,-0.5417417111425032,0.12686874969681944,0.2575558364144342,0.2006263187613685,nan
1741051001.6051126,-0.4677369350525091,-0.04131556314623005,-0.20957172627873746,-0.03975823397664423,nan
1741051001.6090178,-0.11299408088702138,-0.1680945728447491,-0.4911428802255584,-0.255214888133676,nan
1741051001.6129234,0.3149151356044134,-0.1450169642279303,-0.37152593805170947,-0.3035986937711695,nan
1741051001.616829,0.5538792548192151,0.01669361769170174,0.03751505806383361,-0.16548503119354394,nan
1741051001.6207345,0.4726211642805772,0.18421538881523475,0.394326864601698,0.051100950583219916,nan
1741051001.62464,0.1557747000287349,0.20523891196498126,0.41273240861932625,0.20089381243059748,nan
1741051001.6285453,-0.17489571508694118,0.03704418658515825,0.09349529044271021,0.2089340496552283,nan
1741051001.6324508,-0.3327542054234302,-0.20508094884447814,-0.289669127507007,0.11016086031089634,nan
1741051001.6363564,-0.2894665203090671,-0.3283063832866483,-0.4285915242291703,-0.0010651752671708924,nan
1741051001.640262,-0.15650831651462974,-0.21449021789710893,-0.23371362278970714,-0.057251389885717575,nan
1741051001.6441672,-0.058369273904250805,0.07722415123099756,0.11137033178851984,-0.06228052887635188,nan
1741051001.6480854,-0.02088193798440891,0.34478562630868953,0.3269280727380378,-0.06270078199191001,nan
1741051001.651991,0.025801724703869544,0.39317207194796494,0.27793627274063976,-0.08413667256365029,nan
1741051001.6558962,0.14298964885017534,0.18325532766382752,0.06597619688366023,-0.0998856274589227,nan
1741051001.6598017,0.28833372813069585,-0.13866024141240219,-0.09586754673971881,-0.06226391286045737,nan
1741051001.6637073,0.3313863907651162,-0.35353078650472075,-0.0943021783156961,0.03725670492756906,nan
1741051001.6676128,0.17446225445131872,-0.3331509176335223,-0.010568174268467952,0.1430235387681995,nan
1741051001.671518,-0.1326364084391374,-0.12480461597323154,-0.013431788585551033,0.17566029395429758,nan
1741051001.6754236,-0.400008486759929,0.10433781909854661,-0.16086590017283606,0.10341158338420796,nan
1741051001.6793292,-0.4369911232112711,0.20797349579506488,-0.31156472761476633,-0.02377011731715125,nan
1741051001.6832347,-0.21017593509011903,0.16577336618942223,-0.24642043410066009,-0.113636904495966,nan
1741051001.6871402,0.11963539418963447,0.07079785976022156,0.10218781648548929,-0.11160946754622986,nan
1741051001.6910455,0.3215732044132819,0.02348033960789415,0.5314802870318113,-0.04725059139388875,nan
1741051001.6949635,0.2789460707983924,0.03589379327886957,0.6938056183576918,-0.0015263820220289721,nan
1741051001.698869,0.07621667895538113,0.033827776336872985,0.38325038113915044,-0.0234261623114353,nan
1741051001.7027743,-0.08652466859177566,-0.050597926997710665,-0.2580809063904476,-0.07579187658778674,nan
1741051001.7066798,-0.07570263007241727,-0.18934601854293723,-0.8064904279724863,-0.06741193475042306,nan
1741051001.7105854,0.059141214304766966,-0.2641065718379019,-0.8644242768676599,0.05182910149394462,nan
1741051001.714491,0.13891991359104616,-0.17057292662663393,-0.3690915251188851,0.22098016858540698,nan
1741051001.7183964,0.030789729451953275,0.07118507694026904,0.34990311829587295,0.2976507364295127,nan
1741051001.7223017,-0.21384648143280438,0.30683562430942096,0.8145489613902719,0.17506026046214906,nan
1741051001.7262073,-0.38855453797074335,0.3602140035884981,0.7493183507677152,-0.11015929828050595,nan
1741051001.7301128,-0.30903381686319353,0.1791009880044429,0.2619083832542581,-0.37970620344057665,nan
1741051001.7340183,0.016128787314460803,-0.11183921601482066,-0.27580425112446527,-0.4377311997826403,nan
1741051001.7379239,0.3747209700074443,-0.3033594193795253,-0.5289428156097924,-0.22363769290529775,nan
1741051001.7418406,0.5151458198866106,-0.267409826076079,-0.42914641426084876,0.1320195532819727,nan
1741051001.745746,0.3463562205720707,-0.05809900791209369,-0.1619291140092707,0.399112635970198,nan
1741051001.7496514,0.0024987715075280355,0.1386545455367795,0.04041871283321225,0.4164894633151431,nan
1741051001.753557,-0.2786771087995632,0.1649304185057266,0.09597846430719104,0.20307605704718285,nan
1741051001.7574625,-0.3505371312754911,0.023598158628198244,0.09210389543452935,-0.07395326767066744,nan
1741051001.761368,-0.2524999002347454,-0.13009276070006198,0.13973286639852847,-0.2395034175349528,nan
1741051001.7652733,-0.13044916937653822,-0.13064594170936156,0.22923749154935044,-0.23770900727845318,nan
1741051001.7691789,-0.07253485270254866,0.04565679206196845,0.23758000019501957,-0.14409863729627226,nan
1741051001.7730844,-0.027325623141975126,0.252310905010188,0.07502669031053838,-0.06738401277769682,nan
1741051001.77699,0.1132708285009741,0.2948171915602849,-0.18644743140689393,-0.041730996193060844,nan
1741051001.7808955,0.35194180365557315,0.10002760683591162,-0.347808455868861,-0.010712961479591497,nan
1741051001.7848008,0.5203928239525505,-0.2125756738152972,-0.2633752605630486,0.0888077121906982,nan
1741051001.788717,0.403613772021334,-0.41948164493909984,0.004597384218010195,0.23274615440298008,nan
1741051001.7926226,-0.0396849280535006,-0.36770619263414744,0.2201882317428275,0.3064530338840584,nan
1741051001.796528,-0.5704776836654942,-0.09063051368035424,0.18577412282091654,0.2049975405980549,nan
1741051001.8004336,-0.8095057683419759,0.22599445429645787,-0.059276013920654215,-0.0539729184881588,nan
1741051001.804339,-0.5383710121810402,0.39081404294421024,-0.25248895715733327,-0.3166370182538364,nan
1741051001.8082445,0.09059402697359618,0.33955030041745193,-0.14701214153228434,-0.4040833656830749,nan
1741051001.81215,0.6383911711737645,0.15076494935042078,0.2316185913990007,-0.25699756548318503,nan
1741051001.8160555,0.7167151091449324,-0.04813949027356226,0.5600219395952979,0.0145157964599744,nan
1741051001.819961,0.30594972791955755,-0.1846337558549867,0.47983561613094483,0.22346670949457675,nan
1741051001.8238664,-0.225442149302737,-0.261368513829623,-0.06208071300957156,0.25983081172137973,nan
1741051001.827772,-0.43442707836737343,-0.29366487518438067,-0.7057905455321491,0.16749788538559274,nan
1741051001.8316774,-0.18934116117755206,-0.2506210823108757,-0.9332009325188527,0.07688963190884225,nan
1741051001.835593,0.21325079891649168,-0.07871395256850015,-0.4984715545544326,0.06220922407954927,nan
1741051001.8394985,0.32002689292111436,0.2075820352134396,0.33096183865982726,0.0662620607183808,nan
1741051001.843404,-0.046158430006117905,0.4699299835089805,0.9520687885647232,-0.0274141751187127,nan
1741051001.8473096,-0.5829974211791564,0.5119027998754262,0.9009236063934595,-0.24209126602238712,nan
1741051001.851215,-0.7450802988973083,0.23928058860396764,0.23481426715728973,-0.43323486705376135,nan
1741051001.8551204,-0.2414550104732015,-0.22143903098860626,-0.5092149328953436,-0.38945994028428804,nan
1741051001.859026,0.6421296186351472,-0.5742007394504139,-0.758385558023463,-0.03873338999168573,nan
1741051001.8629315,1.2145065203012475,-0.5648532323265543,-0.3801538949429605,0.4316063865164779,nan
1741051001.8668368,0.9427993931241874,-0.19109700354644812,0.21942601372651963,0.6804664994187541,nan
1741051001.8707423,-0.05868235957752793,0.2748286474793456,0.4655221905432797,0.4862377170527261,nan
1741051001.8746479,-1.0592307224053241,0.4918602693082437,0.1340149662196833,-0.04133476053889337,nan
1741051001.8785534,-1.2831308948075317,0.32576429391573963,-0.43851844729487244,-0.5161668046702597,nan
1741051001.8824735,-0.5635498691724034,-0.04062741704372279,-0.6513287328640294,-0.582189751696424,nan
1741051001.886379,0.48946192349516865,-0.26897100831751464,-0.19285790662954524,-0.22068154068656515,nan
1741051001.8902845,0.9885426084117419,-0.16843105212940207,0.6390391030521076,0.22140106274486246,nan
1741051001.8941898,0.5391105043620973,0.12768018992789762,1.1517768073835104,0.33426851829727205,nan
1741051001.8980954,-0.3877098836748694,0.28254602350898406,0.8438003400988165,0.028972197937241147,nan
1741051001.902001,-0.8438113321223495,0.081254363274683,-0.14093288465538148,-0.35177162600880574,nan
1741051001.9059064,-0.2650096422608802,-0.33299192034446046,-1.0967300314049182,-0.33303105914409514,nan
1741051001.909812,0.9372503769770647,-0.5513924752049817,-1.3244041010270595,0.21785036756539178,nan
1741051001.9137173,1.6249086322171478,-0.2734167840734795,-0.7015274044701372,0.8770732690618498,nan
1741051001.9176228,0.8974923948596362,0.3624704170870628,0.24042116589841311,0.9634321694962972,nan
1741051001.9215283,-1.0104835667298118,0.821671153920952,0.7983145636946773,0.15612291034552503,nan
1741051001.9254339,-2.714598385032891,0.6139807374181319,0.7058391578087172,-1.0974248243077176,nan
1741051001.929348,-2.685000706806214,-0.21934771411009846,0.31485783185809085,-1.8083337068505823,nan
1741051001.9332535,-0.536944994101721,-1.0275241081646265,0.1811837381686431,-1.2208955263207735,nan
1741051001.937159,2.4565106587710357,-1.0332426286970937,0.44573540612370544,0.46545490497995873,nan
1741051001.9410644,4.153482228963872,-0.03479113226325595,0.6250694751549989,2.080707135119318,nan
1741051001.94497,3.1280508842322257,1.2779673736391035,0.07659472186426138,2.308804736080206,nan
1741051001.9488754,-0.15300945039187158,1.7570650495015114,-1.239235979114293,0.7711400484776214,nan
1741051001.952781,-3.5303348772499787,0.733941517691788,-2.437036630907236,-1.5208528112263289,nan
1741051001.9566863,-4.662369004863171,-1.2762486484000624,-2.263307609381654,-2.8162424104992887,nan
1741051001.9605918,-2.7411462399601545,-2.7655861465077574,-0.20412510371845305,-1.9751217869733755,nan
1741051001.9644973,0.895747647455995,-2.3196253759533567,2.7745278636800403,0.5241365264913811,nan
1741051001.9684029,3.742717827336174,0.16662920234743678,4.621626404941468,2.7990244152543493,nan
1741051001.9723084,3.9567710950868427,3.1414603955619063,3.6340728439142453,2.9573029814188607,nan
1741051001.976222,1.647800696066004,4.347859561328912,-0.08897075758970523,0.6480390430713956,nan
1741051001.9801276,-1.331617143560131,2.5011966869126523,-4.37410491171978,-2.4885586136130247,nan
1741051001.9840329,-2.877428988977456,-1.5461196305504912,-6.290679303048555,-3.9510385613178407,nan
1741051001.9879384,-2.2022974160570636,-5.142632505694066,-4.232506513110829,-2.3210535677398085,nan
1741051001.991844,-0.26733776915995666,-5.602335659918403,0.7604606787155267,1.4741988451263977,nan
1741051001.9957495,1.1825409472361361,-2.201674866017367,5.52078617848241,4.659299643659249,nan
1741051001.999655,1.112553811316336,3.0811644933328117,6.86626592403397,4.626184863112574,nan
1741051002.0035603,-0.029574375273834174,6.750434233496613,3.836259308317267,0.9999176250116785,nan
1741051002.0074658,-0.8599047932117919,6.172900766454787,-1.5826622861369097,-3.8622037071870894,nan
1741051002.0113714,-0.39287276451796466,1.490380262723127,-5.80895392957511,-6.440489923035096,nan
1741051002.015277,1.0210346922585816,-4.34421954360919,-6.14383713061319,-4.620898204279782,nan
1741051002.0191824,1.9800673976684302,-7.508420620019575,-2.5941085979926433,0.6355123504671764,nan
1741051002.0231009,1.3012544969319704,-5.904945933814866,2.2486970775241075,5.823972711757755,nan
1741051002.0270061,-0.8261431070852486,-0.5923062888583931,5.12517158658794,7.320757976424484,nan
1741051002.0309117,-2.8358086908758335,4.951304697510126,4.379701898001101,3.969519951844631,nan
1741051002.0348172,-3.002630345695339,7.198163727375274,0.9542843586089804,-2.056489908514505,nan
1741051002.0387228,-0.9086930445630282,4.904219727601343,-2.5146465728261336,-6.753399391076335,nan
1741051002.042628,2.075601618208698,-0.19208139402024596,-3.703872224530425,-7.062840281323187,nan
1741051002.0465336,3.7570580734784,-4.70184459710045,-2.1828488618630137,-2.931551239351393,nan
1741051002.0504391,2.8123272958170653,-5.918138627846923,0.528018210849807,2.775909741566233,nan
1741051002.0543447,-0.1350860008464079,-3.495181896551807,2.3032404279443286,6.357293265974757,nan
1741051002.0582502,-2.9378020451487505,0.6002583551039136,2.0269648984190356,5.7846742125354,nan
1741051002.0621555,-3.547514794505112,3.6529316145584025,0.2613417434674571,1.8793028677354806,nan
1741051002.066061,-1.577646028410268,4.044683165680506,-1.4113089269986425,-2.543914296875878,nan
1741051002.0699785,1.4165845748107078,2.097744054063177,-1.718040463201099,-4.765309123305967,nan
1741051002.073884,3.1550171301183307,-0.506005458509841,-0.6127799870292333,-3.900100856253059,nan
1741051002.0777895,2.387607822433089,-2.097340754545921,0.8604669603988224,-1.1381132660386448,nan
1741051002.0816948,-0.17914698400063564,-2.092591111105959,1.518473462741249,1.4525751715893085,nan
1741051002.0856004,-2.483002153060969,-1.0748634066751037,0.967546925666256,2.4766305512185647,nan
1741051002.089506,-2.7326020412792245,-0.03819590316042319,-0.20501235995045677,1.9498007781008426,nan
1741051002.0934114,-0.7782034170441043,0.4553287221435976,-1.0283220556959396,0.854098545288096,nan
1741051002.097317,1.819321940628967,0.533584333647803,-0.9608515688862619,0.09874801331682331,nan
1741051002.1012223,3.0309508046562024,0.612882035025205,-0.2475952514931574,-0.16768937933269407,nan
1741051002.1051278,1.91848820716879,0.8299449497343735,0.4029563237441435,-0.39952108051524443,nan
1741051002.1090333,-0.6851535656362016,0.8739844144953967,0.47278825292571813,-0.9501062199243094,nan
1741051002.112939,-2.8494594431115323,0.354681869343142,0.04358006258692981,-1.5636660477377893,nan
1741051002.1168556,-3.006105190058623,-0.6788481468967562,-0.34949420697407796,-1.5560606445227094,nan
1741051002.1207612,-1.0729486512435233,-1.6007059896231959,-0.24063042580619337,-0.5083013974746822,nan
1741051002.1246667,1.5596742218214288,-1.6411177967290336,0.3396963441114394,1.1865389059192673,nan
1741051002.128572,3.0908652639998833,-0.5535156957402679,0.8866979856530897,2.4645387036071704,nan
1741051002.1324775,2.577379275972302,1.0638836949712567,0.8499115967873041,2.3611082709177142,nan
1741051002.136383,0.49655576127060175,2.116216678630335,0.10031882200379354,0.7942095322785868,nan
1741051002.1402886,-1.7121995626978959,1.8062793378670157,-0.9372348271422032,-1.2925063940142747,nan
1741051002.1441941,-2.69143006259072,0.2657922699399369,-1.5740456429555159,-2.569974138337042,nan
1741051002.1480994,-2.013501761255558,-1.4858022146170842,-1.3352669748069033,-2.262770625678153,nan
1741051002.152005,-0.3025589303338294,-2.2517331948488164,-0.2787270718564196,-0.6710197062272137,nan
1741051002.1559105,1.3219345048002376,-1.5149349396950662,1.0424359923326922,1.1002417822476271,nan
1741051002.159816,1.9938165138380988,0.1969791924777159,1.911750798198471,1.9602358548665735,nan
1741051002.1637323,1.5351065911346855,1.7033746964526588,1.8460667555598498,1.559923680690556,nan
1741051002.1676376,0.3935184193859191,2.015733223056094,0.8368331123764728,0.41040958252936155,nan
1741051002.1715431,-0.7427622075228476,1.009502979844878,-0.6560489599462298,-0.6177161159659905,nan
1741051002.1754487,-1.34023373352187,-0.5488280176969895,-1.9206405969984077,-0.9600395901873118,nan
1741051002.1793542,-1.2197655808546997,-1.5963464947246935,-2.316069145076052,-0.6717348251254968,nan
1741051002.1832595,-0.5456306702438088,-1.520984613755499,-1.5803239699917317,-0.21624329611111612,nan
1741051002.187165,0.30548733844464554,-0.5219211560348325,0.0028944923486394613,0.008692761880774986,nan
1741051002.1910706,0.9158602227628444,0.628853480426702,1.682726070880076,-0.021484048803932926,nan
1741051002.194976,1.0013711381801262,1.1860418684382734,2.5828910732816626,-0.042579372281798034,nan
1741051002.1988816,0.5481326697151467,0.9242510306870121,2.173629871770885,0.16034894315057366,nan
1741051002.202787,-0.163392469475308,0.1937032548038099,0.6135584727624823,0.5026069430290155,nan
1741051002.2066925,-0.702389716548732,-0.43252014813049455,-1.2805384232164387,0.665449411149638,nan
1741051002.2106085,-0.7506838705397773,-0.5995300295640968,-2.473712922963645,0.4033207925467956,nan
1741051002.214514,-0.31915345495903125,-0.3653150807005424,-2.322278038811606,-0.19761696390649047,nan
1741051002.2184193,0.25414950472316866,-0.05113269213967526,-0.9646125100911176,-0.748499766247051,nan
1741051002.2223248,0.5493331261742233,0.07467493777164914,0.7756979898833327,-0.8547484752448972,nan
1741051002.2262304,0.3810525202306117,0.0024770268800791313,1.9179256877928574,-0.42968555573414413,nan
1741051002.230136,-0.0635226929782744,-0.07011658618122928,1.9264575860155118,0.23544282442778555,nan
1741051002.2340415,-0.3852687928937897,0.03450270489274226,0.9833245662483266,0.695709108705834,nan
1741051002.2379467,-0.308597060295079,0.2871841771151096,-0.22606919663495204,0.6813249765422219,nan
1741051002.2418523,0.08539825182853254,0.46671120889096845,-1.0187757551921905,0.270630568772705,nan
1741051002.2457578,0.42844528316790836,0.35533799995275395,-1.1284216865931154,-0.20928964146899526,nan
1741051002.2496634,0.3844718635485316,-0.056360767288205126,-0.7556177247526984,-0.44780047228642805,nan
1741051002.253569,-0.05052441512322742,-0.5292262589262301,-0.28752113671971863,-0.3606117010722004,nan
1741051002.257484,-0.5278354246407905,-0.7366277698282568,0.03581237265120581,-0.09726205215744829,nan
1741051002.2613895,-0.6301548549564671,-0.5038812139964042,0.23519181739451198,0.12138440873305621,nan
1741051002.265295,-0.22497969157697081,0.05519095157379264,0.43955024126218006,0.17746665058601965,nan
1741051002.2692006,0.4109091932318227,0.6049597208700661,0.6589104946307998,0.10637008462525467,nan
1741051002.273106,0.8027314552133001,0.8081938819709064,0.7210709393461671,0.015381731665778386,nan
1741051002.2770114,0.6499273873057968,0.5443371044441719,0.43654500107131994,-0.027204242905374793,nan
1741051002.280917,0.053920658360500424,-0.01979987215624835,-0.16958266321107865,-0.029987268495286976,nan
1741051002.2848225,-0.5749633378146863,-0.5447744516982195,-0.7920900345701536,-0.030872614062818216,nan
1741051002.288728,-0.8367911535644865,-0.7332965702112602,-1.034336167424729,-0.03546814680161851,nan
1741051002.2926335,-0.6167228936753264,-0.503821368680386,-0.7090423794114872,-0.013062470277910358,nan
1741051002.2965388,-0.10849136036527308,-0.02094980492187263,1.318340043015552e-06,0.05112635411740014,nan
1741051002.3004444,0.387142766230455,0.42180212290142227,0.6569377788527334,0.11412218242416468,nan
1741051002.3043637,0.6789433541325068,0.5828706451819486,0.8828646706123366,0.10098403465830055,nan
1741051002.308269,0.7335350466134057,0.4052824091387866,0.6101192511615132,-0.01793699384149628,nan
1741051002.3121746,0.5678637766329399,0.029663117509482122,0.09035981840928202,-0.1757311603025941,nan
1741051002.31608,0.1607047035471776,-0.30737402850001333,-0.32705325689591175,-0.24555529933057008,nan
1741051002.3199856,-0.47869608774098293,-0.419556771361343,-0.44973147601000335,-0.14533711448346404,nan
1741051002.3238912,-1.149102890742228,-0.27336804750136273,-0.33019198131006416,0.07993222499871111,nan
1741051002.3277965,-1.424964913296033,0.008930138316199392,-0.1495249296472479,0.278143078798827,nan
1741051002.331702,-0.9022397290486681,0.23886066003795672,-0.03367480057655741,0.30473717172613246,nan
1741051002.3356075,0.4020420636500453,0.2828471639199306,0.026401593509309783,0.138327930474412,nan
1741051002.339513,1.8479503576317544,0.1388033821513911,0.10143820560035205,-0.10179909936649893,nan
1741051002.3434186,2.4522633182687366,-0.07598877015524497,0.2007332532094286,-0.2521074170697054,nan
1741051002.347324,1.5644127986582324,-0.2117383414048597,0.2403912581920918,-0.2324350626717469,nan
1741051002.3512378,-0.5332562785977255,-0.18663383285728488,0.13817805625694132,-0.09661925272532455,nan
1741051002.3551433,-2.6244282087125113,-0.03425167376033724,-0.0693638695273931,0.03175163354594984,nan
1741051002.3590488,-3.2855934773138973,0.12982704196672765,-0.22386103150138315,0.07403199647173837,nan
1741051002.3629544,-1.8945290887395532,0.1936973198875354,-0.181280772036514,0.05556033220416904,nan
1741051002.36686,0.8201278840176356,0.12453482612179559,0.035354400874735833,0.05886260898430915,nan
1741051002.3707652,3.1623259346965487,-0.01751255238655821,0.22548323301679513,0.12189072750282205,nan
1741051002.3746707,3.5870161061478023,-0.13119251771669133,0.1790229344422928,0.1844797241025027,nan
1741051002.3785763,1.7794342908595604,-0.14886058836379348,-0.11543882177214221,0.14061026020562012,nan
1741051002.3824818,-1.0962719905864895,-0.07826354652380862,-0.42059086226903103,-0.04812730303325485,nan
1741051002.3863873,-3.184308112545306,0.015310568250029485,-0.43153942760773634,-0.28641295904309494,nan
1741051002.3902926,-3.205276114157668,0.06643885661375402,-0.0509924289489193,-0.39895072975026846,nan
1741051002.3941982,-1.2950032885075127,0.05843506403705067,0.484065163508475,-0.26974238537341594,nan
1741051002.3981164,1.170754616531656,0.026611330359314875,0.7588891567927691,0.049762368854539066,nan
1741051002.402022,2.595864430533028,0.017992890815373138,0.5137594179593905,0.36166103047100123,nan
1741051002.4059274,2.2526478874805926,0.04458186259431383,-0.12118004403308442,0.46284716382769947,nan
1741051002.409833,0.6621789493656397,0.07072922037210096,-0.7001605211764101,0.29458630108658296,nan
1741051002.4137385,-0.9368098333401896,0.045608603709277815,-0.8029642291563737,-0.020111333621573378,nan
1741051002.4176438,-1.5482349959982598,-0.046217536043965265,-0.3691774799074977,-0.2777939509432195,nan
1741051002.4215493,-1.0591429765371907,-0.15915859915385308,0.2544722604033942,-0.3461977850171456,nan
1741051002.4254549,-0.13508961340805722,-0.21045529155069875,0.5988846924402892,-0.24176760389158555,nan
1741051002.4293604,0.4395284059787748,-0.13964577996997715,0.4537188124233634,-0.08020160879972119,nan
1741051002.433266,0.3845145685045316,0.03927635178287116,0.02398670890741863,0.04018742912319013,nan
1741051002.4371712,0.026666191038594602,0.2335585578926491,-0.2693848660159155,0.11014553402543828,nan
1741051002.4410768,-0.1193011345401393,0.32342683440325504,-0.1705582770683062,0.17662261917560085,nan
1741051002.4449944,0.13621496237903527,0.23860835394813268,0.18232417240045184,0.2514242121796526,nan
1741051002.4489,0.5077698152697012,0.009393103418205513,0.3849511427245936,0.2656098502429344,nan
1741051002.4528055,0.5452697712082007,-0.24342044629529702,0.14502069269362783,0.12853228668791472,nan
1741051002.456711,0.08921363474198055,-0.3766737155241193,-0.4209476629756117,-0.15737883669837016,nan
1741051002.4606166,-0.5533809269227528,-0.3104205283183466,-0.844670624686075,-0.4428110589292642,nan
1741051002.464522,-0.8666988086298543,-0.07786517540402527,-0.6893413920739504,-0.5135171283727832,nan
1741051002.4684274,-0.5788159165061724,0.1923411278633929,0.05604164766780384,-0.2610576074593238,nan
1741051002.472333,0.09669881064664775,0.35172994646385003,0.912234130276793,0.19849063663424052,nan
1741051002.4762385,0.6407574145788928,0.31939368829703535,1.2510353636896245,0.5740181571021339,nan
1741051002.480144,0.6662421717145901,0.12702058238399447,0.7805266158841024,0.6004204548056722,nan
1741051002.4840493,0.2286440615475983,-0.10595961599686718,-0.2143441398893011,0.24223747416118258,nan
1741051002.4879549,-0.2528694552635471,-0.24983617030907385,-1.0721222814588862,-0.2650292662411022,nan
1741051002.4918716,-0.37949541795913916,-0.24335852424398344,-1.239423927534291,-0.5789785368050424,nan
1741051002.4957771,-0.11471089009932821,-0.12249181646473505,-0.6604183814012671,-0.49899474298398583,nan
1741051002.4996824,0.21387448077579008,0.016935432764414407,0.22114025416611297,-0.1082055662765715,nan
1741051002.503588,0.24071503786675288,0.09239066635980542,0.8232042744121179,0.2996217082449687,nan
1741051002.5074935,-0.08709665060655183,0.08881715413943181,0.845769229125301,0.44661163986471364,nan
1741051002.511399,-0.45468779184167724,0.055135913091873795,0.4268466994318935,0.27091469466546636,nan
1741051002.5153046,-0.4700202328897188,0.04985873139118933,-0.04894795470433415,-0.050958675950135625,nan
1741051002.5192099,-0.0376274715389282,0.08301056644545031,-0.28786119499194346,-0.2633339138854255,nan
1741051002.5231154,0.5252318421412391,0.10462628603189458,-0.2785507415527936,-0.23318091626341814,nan
1741051002.527021,0.7445547127075824,0.05174248498427996,-0.20711749199761909,-0.03326970613213927,nan
1741051002.5309265,0.4012624614933104,-0.0844991105188864,-0.21877034678397164,0.14569119839239253,nan
1741051002.534832,-0.2617617632646983,-0.23101559623207207,-0.26835797031161046,0.1639999119052155,nan
1741051002.538748,-0.7259650276733889,-0.27544516280512954,-0.19301158899747764,0.03684994109896868,nan
1741051002.5426536,-0.6258052606893711,-0.15299366446735863,0.08234123011044191,-0.10339195777825119,nan
1741051002.546559,-0.0559949939820677,0.0898689721557441,0.42174677072116773,-0.13652239186199575,nan
1741051002.5504646,0.5068572788010952,0.3109086569709511,0.5691135058274904,-0.053968619002059307,nan
1741051002.55437,0.6044388851238052,0.36420463366410655,0.37599411959378565,0.05312845290111307,nan
1741051002.5582755,0.18011212951402494,0.20460862710107006,-0.04747598067231825,0.09176375567766054,nan
1741051002.562181,-0.37926658689819026,-0.07424312464146407,-0.40733181919138206,0.05144303822867472,nan
1741051002.5660865,-0.5773081064316938,-0.3003237590965675,-0.4677485199309251,-0.0015647562220905912,nan
1741051002.569992,-0.23328393607320028,-0.34008769472249056,-0.24416897199757492,-0.004901622909878618,nan
1741051002.5738974,0.362010309677243,-0.1865464012116679,0.02808775085245547,0.03095828689750657,nan
1741051002.577803,0.690842483552573,0.0448177167367008,0.12060798553438275,0.036633360644510456,nan
1741051002.5817084,0.4464350881339771,0.20526539391843998,0.02287389912294325,-0.03369270113362481,nan
1741051002.585624,-0.20392067453250287,0.21667979250022895,-0.06245503805882874,-0.13715954455529358,nan
1741051002.5895295,-0.7494831194389857,0.11278761331174413,0.060138367886648,-0.16761748520083772,nan
1741051002.5934348,-0.749921831726753,-0.006235914048120438,0.35130753590311825,-0.05709962516804567,nan
1741051002.5973403,-0.1900464472273101,-0.06088733460882993,0.5305492795625143,0.1409882888311543,nan
1741051002.6012459,0.5114086381547307,-0.04780680478714983,0.3234940229995441,0.27471651888979215,nan
1741051002.6051514,0.8368341871454565,-0.02304805956427873,-0.2480964786015585,0.21685052723762988,nan
1741051002.6090567,0.5695508031200135,-0.03638395269997772,-0.8097016600163273,-0.01480762789163604,nan
1741051002.6129622,-0.05974993466052975,-0.0797491480627803,-0.8998174163022546,-0.25262543658916464,nan
1741051002.6168678,-0.5787788209051802,-0.09620779641851684,-0.3596909713587535,-0.30761851803945267,nan
1741051002.6207733,-0.6453485847456394,-0.03921520684660673,0.48585362881668714,-0.12914289402899354,nan
1741051002.6246789,-0.28292429179936096,0.07400960018780765,1.0379737917746112,0.14307387730412452,nan
1741051002.6285841,0.18706485401591327,0.16622627558613345,0.8814647929311981,0.28802123170262955,nan
1741051002.6324992,0.42720527468031017,0.16120357976602334,0.1246387028228552,0.18820777904571986,nan
1741051002.6364048,0.3330786125345799,0.05028466996055365,-0.6677730538922407,-0.06680347895346139,nan
1741051002.64031,0.06077273369709266,-0.0941578661643017,-0.9112612662611534,-0.2521316615991044,nan
1741051002.6442156,-0.15096135190748702,-0.17240730619691708,-0.46131236705290607,-0.19978120780277436,nan
1741051002.648121,-0.1835519076551459,-0.13471611941426995,0.278922049882456,0.05130205004186962,nan
1741051002.6520267,-0.0953139333217969,-0.018208740025298313,0.6944365255673995,0.2803363766005058,nan
1741051002.6559322,-0.014613419610598795,0.08640352095907622,0.4637536174973491,0.27097588776342807,nan
1741051002.6598375,0.0010375899617124907,0.1088041415821969,-0.18220327785235998,0.003705353574683426,nan
1741051002.663743,0.000502580385580847,0.05118006223772152,-0.6612540173998864,-0.31292084848328794,nan
1741051002.6676486,0.05109693630316528,-0.023072344243982117,-0.5334707343867097,-0.407413067748753,nan
1741051002.671554,0.13588363960931824,-0.04983585421747687,0.12354089823963448,-0.17447072543314032,nan
1741051002.6754596,0.15427201177584562,-0.018541192590113,0.7703468045802068,0.22458934721454915,nan
1741051002.6793737,0.031718886619133,0.026382239165104286,0.8479237127219491,0.4807936054355399,nan
1741051002.683279,-0.17538153192010805,0.03395024222672344,0.2423653112866639,0.3844475786924294,nan
1741051002.6871846,-0.299309517892969,-0.002901952352941758,-0.6098719103012566,-0.001309502215787125,nan
1741051002.69109,-0.2058793188236102,-0.042584407958612604,-1.062095152875191,-0.38523375036322094,nan
1741051002.6949956,0.06569036253945065,-0.0392453960260508,-0.7659103918087993,-0.4776340680944271,nan
1741051002.6989012,0.3103265109220652,0.007702487023443862,0.06056495649882773,-0.2190591761586466,nan
1741051002.7028065,0.3253725091432675,0.04890796436988697,0.8118838469187241,0.17749570010921883,nan
1741051002.706712,0.0965298682871103,0.033118419361590316,0.9665694016851993,0.4030111844199907,nan
1741051002.7106175,-0.17514264767901686,-0.03628993257430152,0.47044401378771955,0.300717984184698,nan
1741051002.714523,-0.24790811350039887,-0.09329304028487753,-0.25989356033896394,-0.016842414226480442,nan
1741051002.7184286,-0.06891401791444851,-0.06514728537312701,-0.6898547623284986,-0.2734178125094578,nan
1741051002.722334,0.1577841214598357,0.053208837067242346,-0.5750291324295791,-0.2638078971117516,nan
1741051002.7262478,0.15143960205488935,0.17619209233153857,-0.104581632450986,-0.02024545080300425,nan
1741051002.7301533,-0.15904781670287244,0.18731666117545887,0.303870631897435,0.2255141518080546,nan
1741051002.7340589,-0.5085284914401119,0.04029463191162046,0.35875865155084835,0.24718738821977815,nan
1741051002.7379644,-0.4835803002671321,-0.18372675691486123,0.10155828009533038,0.02012047129747439,nan
1741051002.7418697,0.09383898589050142,-0.320641653876307,-0.1802119658059027,-0.2568888071002086,nan
1741051002.7457752,0.912430804342115,-0.24587106907384665,-0.22684766774592358,-0.33127613925734706,nan
1741051002.7496808,1.3139102521068282,0.018560706062305563,-0.02026171473230003,-0.11438430610928785,nan
1741051002.7535863,0.7890192927883936,0.3026956072439311,0.23120930353162683,0.235846245424093,nan
1741051002.7574918,-0.5371990944464747,0.40442052042976034,0.296549113763614,0.4374349273216472,nan
1741051002.7613971,-1.851004229475216,0.23960463168811552,0.12106753284743017,0.31272189746125456,nan
1741051002.7653027,-2.152828761479681,-0.08872371110997365,-0.14628043756644077,-0.06346030660122702,nan
1741051002.7692082,-1.0029885325951797,-0.35912703870249185,-0.29945243997581933,-0.4159714148880343,nan
1741051002.7731266,1.045448571672492,-0.38993543325237406,-0.24968385833970175,-0.4802275630697511,nan
1741051002.7770321,2.7063146717448716,-0.16874733950668208,-0.07572685144698175,-0.20467204160893104,nan
1741051002.7809377,2.7982704049334526,0.14319282777680517,0.07504360459658184,0.21211645545994937,nan
1741051002.7848432,1.095212703643639,0.3323116122322888,0.12506042889484537,0.47370728619002983,nan
1741051002.7887487,-1.4331224886997727,0.28579241394799354,0.11338718114641276,0.40522331819286306,nan
1741051002.792654,-3.205799380606981,0.06256312727615561,0.12042652133027204,0.07258985276762657,nan
1741051002.7965596,-3.068322538382287,-0.16432737893403543,0.16020409035030714,-0.28035259576285537,nan
1741051002.800465,-1.0725558685742493,-0.24167418843319063,0.15584215763672593,-0.417326219335335,nan
1741051002.8043706,1.5455287780166878,-0.14155904113789744,0.025620002518246945,-0.2725296929382981,nan
1741051002.8082762,3.177548072534516,0.03583203056985406,-0.20706595311920542,0.02378244036789764,nan
1741051002.8121815,2.8841532494077438,0.15214834516721876,-0.3959592603150715,0.25945971801815004,nan
1741051002.816087,0.9608932236718314,0.1356932802360853,-0.3783795671635253,0.29539569376360897,nan
1741051002.8199909,-1.3268390284553142,0.021898867281527283,-0.11863930075071061,0.14630524257569763,nan
1741051002.8238964,-2.613868481568657,-0.09069322209979595,0.24089498992724398,-0.05734906349829451,nan
1741051002.827802,-2.2911936872714405,-0.12255507364437085,0.4742527911332539,-0.17879741915609068,nan
1741051002.8317075,-0.7879110117851331,-0.06577865649461617,0.43808645114862427,-0.16589361732186972,nan
1741051002.835613,0.8423418069784557,0.026075648259233346,0.17272738668039941,-0.06424740901468247,nan
1741051002.8395183,1.6713781916528159,0.08971935288990496,-0.1417991248776189,0.03884415393767201,nan
1741051002.8434238,1.4414918000105699,0.09669934441742069,-0.329551037767667,0.08351552793327328,nan
1741051002.8473294,0.5775181542483278,0.05916098876913707,-0.33639670639975405,0.06754982916351436,nan
1741051002.851235,-0.24777550346484586,0.004776675855127007,-0.2297612235083415,0.027367962999577958,nan
1741051002.8551402,-0.6125645467763976,-0.047314162111842986,-0.101401774508318,-0.0015994770531210238,nan
1741051002.8590457,-0.5470782962788067,-0.08808365354267533,0.020382389964859478,-0.009489610730929179,nan
1741051002.8629513,-0.35561153697333914,-0.10545258734423044,0.16317733495560208,-0.008116336725140626,nan
1741051002.866868,-0.2764251280321966,-0.08059453690119255,0.32542300977174116,-0.011488366399143272,nan
1741051002.8707733,-0.28469390541434036,-0.00532873038752515,0.4169502246984219,-0.021770624876961752,nan
1741051002.8746789,-0.18000032094585933,0.09533322217176084,0.30895294983879995,-0.030273021727684736,nan
1741051002.8785844,0.15763389637265715,0.16410968808419865,-0.032986319038074044,-0.02740186441031807,nan
1741051002.88249,0.5942502380564695,0.14651304310878346,-0.457168407018467,-0.01037427607883623,nan
1741051002.8863955,0.8149325674087007,0.036882961016325766,-0.6859271312867904,0.016042814483806865,nan
1741051002.8903008,0.5847664201287636,-0.10505080142978443,-0.512173891246832,0.042494742884168345,nan
1741051002.8942063,-0.026916483621704627,-0.18853378155953932,0.015359592307714188,0.05749285230543377,nan
1741051002.8981118,-0.6573061698410613,-0.15640982763402111,0.581934808302842,0.04992966602931139,nan
1741051002.9020174,-0.9012483069094034,-0.030204109452784705,0.8076108309556793,0.01472563953528708,nan
1741051002.905923,-0.6096510960854861,0.10274733450748966,0.5217916679743422,-0.03949647560340646,nan
1741051002.9098282,-9.859928339874232e-05,0.15329707641495802,-0.09878447867484375,-0.08801696329338139,nan
1741051002.9137444,0.50811597296263,0.0965473719289282,-0.6436520587406949,-0.09988538961863007,nan
1741051002.91765,0.6054499258906247,-0.012269398147020487,-0.7562240624773211,-0.05769041829761299,nan
1741051002.9215553,0.30800371202062193,-0.08448033436015209,-0.3819717757443412,0.025910593427327436,nan
1741051002.9254608,-0.08496488441658637,-0.06913729072225824,0.20545689855136032,0.10936252937179256,nan
1741051002.9293664,-0.24867727798957362,0.008785072652970122,0.6110757063652023,0.14407042975993692,nan
1741051002.933272,-0.09439761682990222,0.07290961119728097,0.5952645287036524,0.10412896606971693,nan
1741051002.9371772,0.17392618106580687,0.060983599658837984,0.21694761454347153,0.0041157740833107056,nan
1741051002.9410827,0.2483703122162498,-0.022924864706258454,-0.24377921814664175,-0.10705044279889772,nan
1741051002.9449883,-0.007136759750373505,-0.11151471206004643,-0.5002093981073517,-0.17201592316085365,nan
1741051002.9488938,-0.42247324235441586,-0.12869809712291452,-0.43999673670459294,-0.15469485008943146,nan
1741051002.9527993,-0.6435191246778919,-0.05055206128101878,-0.15495759628459696,-0.05803359579753686,nan
1741051002.9567046,-0.4189717121063886,0.07533781174353335,0.16528494518621192,0.07673437714646211,nan
1741051002.9606206,0.1759629478689744,0.16532171322578398,0.36603171915276506,0.18676383659862866,nan
1741051002.9645262,0.762953476221716,0.1601689661782144,0.3889433018751843,0.2137343364555095,nan
1741051002.9684315,0.9245085560735067,0.06427523922049978,0.25183425753648375,0.1319413026410649,nan
1741051002.972337,0.5133471319056286,-0.06244436689746391,0.007152791539334317,-0.03191251321578834,nan
1741051002.9762425,-0.22750562092989338,-0.14851591796735994,-0.26833023477643553,-0.20051473154993996,nan
1741051002.980148,-0.8275991688468038,-0.15538917668657656,-0.4637455497378469,-0.2780640902226737,nan
1741051002.9840536,-0.9158468610616328,-0.09295181843166408,-0.4572560458374549,-0.20445600236063036,nan
1741051002.987959,-0.4709265295649971,-0.0026351844644656834,-0.19410059724351633,-0.0019579300872126764,nan
1741051002.9918644,0.18360495345647268,0.07262028324506718,0.23330700224477927,0.22192327486624566,nan
1741051002.99577,0.624680152036595,0.10914961726559315,0.592698315965566,0.3301616097014095,nan
1741051002.9996755,0.6249835399945655,0.1053688053041694,0.6418143929225341,0.243849343080668,nan
1741051003.003581,0.28180423078418465,0.07289874546363152,0.30617861796391754,0.00361730389234275,nan
1741051003.007496,-0.09944015615076264,0.0266541506927424,-0.2356667096682992,-0.2451075400661178,nan
1741051003.0114017,-0.2575581998381529,-0.02087588788365102,-0.6487708700818098,-0.34300729237500327,nan
1741051003.0153072,-0.16116277040593058,-0.06180420096549628,-0.6690241918631818,-0.22565657797772085,nan
1741051003.0192125,0.00731489173890263,-0.09250719344171679,-0.29425598701965866,0.028378424936938363,nan
1741051003.023118,0.03685767537963532,-0.10983880575592038,0.21330569323170073,0.24956208248425932,nan
1741051003.0270236,-0.12071917143247116,-0.10505302096733997,0.5219430454618441,0.29559092969797934,nan
1741051003.030929,-0.3105079095904845,-0.06246663211765475,0.47223056670483177,0.15003843859444496,nan
1741051003.0348346,-0.31252568443907114,0.028995381439360406,0.17514216541438568,-0.07174991435499836,nan
1741051003.03874,-0.03949481329407996,0.1537754647602616,-0.10641221547981315,-0.21271968633210125,nan
1741051003.0426455,0.36941959827565524,0.2558172304848053,-0.1858729261427995,-0.1898470092947964,nan
1741051003.046551,0.6364648895422128,0.25605715757672,-0.09480967125944323,-0.04693162495700009,nan
1741051003.0504565,0.5478835929341311,0.10494763889917708,-0.020503400137663205,0.09232549890491042,nan
1741051003.0543706,0.11667059045534761,-0.1606471588000902,-0.10257197343541667,0.12781152616068084,nan
1741051003.0582762,-0.41543865267117297,-0.40654642626044274,-0.2784822966220746,0.05719623932950173,nan
1741051003.0621817,-0.7352124736687339,-0.46591550566399775,-0.32707571304781424,-0.03633465104686696,nan
1741051003.0660872,-0.6590115854423936,-0.2529346119859744,-0.0821714436257003,-0.06544494661687665,nan
1741051003.0699925,-0.240033663309981,0.15200486351051162,0.3725507238617429,-0.015031973361797735,nan
1741051003.073898,0.2796565781223173,0.5214174783381776,0.7161803298230554,0.05188297808146652,nan
1741051003.0778036,0.624575692129566,0.6136975551192045,0.6290058896738762,0.05959376831685585,nan
1741051003.0817091,0.6397227189585839,0.3405372576604953,0.07374235378113299,-0.005971043630003686,nan
1741051003.0856144,0.3541744991168108,-0.1521630174111931,-0.6211867240627063,-0.08282884056221702,nan
1741051003.08952,-0.06254002777114032,-0.5624138861476133,-0.9713592548179771,-0.09161502808681407,nan
1741051003.0934255,-0.4041035502139071,-0.6291517610838769,-0.6961006077940645,-0.013067051995700168,nan
1741051003.097331,-0.5261968322170433,-0.31335572542703377,0.04992309617088273,0.08841303442581554,nan
1741051003.1012447,-0.39905790967443283,0.17075159283651234,0.7659135481482693,0.11979452428488388,nan
1741051003.10515,-0.10581252849482074,0.5039783884225516,0.961587228954626,0.04545503082652567,nan
1741051003.1090555,0.20213122581026863,0.48570438702842506,0.5153827501970611,-0.07456370023461155,nan
1741051003.112961,0.37522111307750877,0.1687004547937457,-0.23903063652184112,-0.13289357811544952,nan
1741051003.1168666,0.33779095485577,-0.19406415870766866,-0.7641816205764297,-0.07087593926100651,nan
1741051003.1207721,0.12941870700568384,-0.3470837153016311,-0.7150833705641966,0.06301596970416916,nan
1741051003.1246774,-0.1139357061367387,-0.22046238532812443,-0.1794363734731905,0.1489477897477215,nan
1741051003.128583,-0.2400504044095426,0.03550440032314184,0.4130298885946067,0.10023593752850539,nan
1741051003.1324885,-0.1791938399803562,0.18967141352548442,0.6294528274369516,-0.05323650601132143,nan
1741051003.136394,0.005760247736279517,0.12474584774807598,0.35315340281283214,-0.18031206218925036,nan
1741051003.1402996,0.1613012201430975,-0.07306914475015057,-0.15627361745837048,-0.1574608812192613,nan
1741051003.1442049,0.15597065314951264,-0.20033563900270007,-0.4905990653812266,0.01794152820739533,nan
1741051003.148118,-0.01630738556777691,-0.12171973454661172,-0.4147822346413793,0.2104676982109632,nan
1741051003.1520236,-0.2238373328510748,0.10581791321129225,-0.029526985990545533,0.2499023091548468,nan
1741051003.155929,-0.2922935918914346,0.2787305326107632,0.33855017989331715,0.0762206277201668,nan
1741051003.1598344,-0.13941250519038229,0.22618364518942888,0.4123539264911402,-0.19490032513663738,nan
1741051003.16374,0.15433896819029946,-0.03079393042283774,0.17604386096250815,-0.34916986344913786,nan
1741051003.1676455,0.39658152081463666,-0.282646980121621,-0.1401851537919543,-0.24124382209148326,nan
1741051003.171551,0.4189200673256907,-0.3042301784014539,-0.27335612417712457,0.07837142732320128,nan
1741051003.1754565,0.19523825474884088,-0.05613914389308886,-0.15128746574609178,0.3837176434877504,nan
1741051003.1793618,-0.14472064044928332,0.2613269286020445,0.06067412222078263,0.43527290939087,nan
1741051003.1832674,-0.40971087269224604,0.36199000864569786,0.12327229992790145,0.16465485508049796,nan
1741051003.187173,-0.470713452692923,0.12006845192646136,-0.04717631035936719,-0.2598564481177807,nan
1741051003.1910784,-0.32263292316643866,-0.2966152351582435,-0.2847626937875715,-0.542502892185682,nan
1741051003.1949959,-0.054323006012321214,-0.5339592040831002,-0.3061656511945287,-0.46880823923318443,nan
1741051003.1989014,0.22539518805772862,-0.33412586866017685,0.029955733682632275,-0.06343085715436783,nan
1741051003.2028067,0.4345932938132275,0.22657314858028685,0.5516815005819454,0.41737915046440804,nan
1741051003.2067122,0.5132902457056847,0.7492046127436955,0.8517257027549497,0.654606188606756,nan
1741051003.2106178,0.40684095183696856,0.7925547564077602,0.5853652150188086,0.4796663817970467,nan
1741051003.2145233,0.09152365724275363,0.22451521472803793,-0.22433947088504583,-0.01231502325788053,nan
1741051003.2184289,-0.35970715501030187,-0.6291943641307642,-1.1193469035929646,-0.5214966776199453,nan
1741051003.2223341,-0.7436324423411844,-1.1768541455724533,-1.4674362380040902,-0.7315486142642745,nan
1741051003.2262397,-0.8023810632418007,-0.9767908781293146,-0.900670311130373,-0.5047732659627225,nan
1741051003.2301452,-0.39924062891896805,-0.08000414492275414,0.37087214366334553,0.03481802269256576,nan
1741051003.2340508,0.325702376991718,0.9627902898151441,1.6161630080487972,0.5750130404672108,nan
1741051003.2379563,0.969687384782381,1.4563692926048852,2.0158537505292844,0.7971572994797522,nan
1741051003.2418728,1.0958667046849568,1.0392893299385395,1.2077416219493835,0.5604410485711018,nan
1741051003.2457783,0.5462897647115319,-0.05264201894835721,-0.4222565700524819,-0.013584438327753268,nan
1741051003.2496839,-0.3931373606764196,-1.1302579767118397,-1.9259495985717319,-0.6030222758549899,nan
1741051003.2535894,-1.1336830717375963,-1.5080557030821957,-2.3669720131587084,-0.8634312193222106,nan
1741051003.2574947,-1.1699512568149926,-0.9589868425700969,-1.4237556748432696,-0.6273312635098182,nan
