timestamps,TP9,AF7,AF8,TP10,Right AUX
1741085444.251317,-0.10623579658521601,-0.15346203407615847,-0.08132053411996994,0.3839972733263672,nan
1741085444.255221,0.24928578333373713,0.27822371372085836,0.7485750905241146,1.4265139860343599,nan
1741085444.259125,0.4650358728697649,0.5385045925302602,1.0871578999252676,1.578079626192017,nan
1741085444.2630289,0.3891962651064136,0.537854529075449,0.6827287486790076,0.7671248363750329,nan
1741085444.2669327,0.07489599485928958,0.30015830105605135,-0.18163322194345763,-0.43415055471646763,nan
1741085444.2708368,-0.2617030379791265,-0.0701150658913882,-0.8871234194672081,-1.2400717132124295,nan
1741085444.2747407,-0.4038621411875494,-0.4204177458165915,-0.9373726065071675,-1.2088851645593726,nan
1741085444.2786446,-0.28832010286350157,-0.5880402584269228,-0.32668291595071686,-0.5075718124058113,nan
1741085444.2825487,-0.033920773212103704,-0.4651662417234244,0.46580066847199936,0.2892162712420503,nan
1741085444.2864525,0.16765945934544377,-0.07712797776957418,0.8496785828096525,0.6705631713173716,nan
1741085444.2903564,0.20255497043025023,0.38844209438599153,0.5717306835638646,0.5429224856536846,nan
1741085444.2942605,0.10518273638287222,0.6597882821711964,-0.10827713322979744,0.2064369084327385,nan
1741085444.2981918,0.0017282429952795496,0.5484950348523224,-0.6421808468917534,0.021809714073445226,nan
1741085444.3020957,-0.0127616116571792,0.09720724757751555,-0.6300005651793948,0.0823773867137215,nan
1741085444.3059998,0.04635668093513196,-0.4176927336494513,-0.12036540939792666,0.172775697555795,nan
1741085444.3099036,0.08162010897399613,-0.6594132545451545,0.45353112775153237,0.025970774650524723,nan
1741085444.3138075,0.01606401324573337,-0.4694279199973733,0.6347550173352254,-0.3745424341313128,nan
1741085444.3177116,-0.12603200369704554,0.009232012917171422,0.30188623828871336,-0.7331666642364522,nan
1741085444.3216155,-0.2330219922357376,0.43112927158306136,-0.25574671594867804,-0.6861428097638529,nan
1741085444.3255193,-0.20146400815586685,0.5057382576268201,-0.5900052264620513,-0.13940856025381063,nan
1741085444.3294234,-0.028860132128120466,0.21605632818287368,-0.45489762303164616,0.6011776712594387,nan
1741085444.3333273,0.1771893444198321,-0.17679608151335194,0.014998172868284875,1.0348857881997375,nan
1741085444.3372312,0.2809110417897954,-0.35034045820526244,0.4371253398944645,0.8475167308688354,nan
1741085444.3411353,0.22149204035875503,-0.18484329427819582,0.4977445658268194,0.15764421805267442,nan
1741085444.345066,0.05250123840069431,0.14245057644400866,0.18898891317166133,-0.5730998571145266,nan
1741085444.3489702,-0.10984429925308245,0.31336926567381584,-0.21438841860885735,-0.8890319668430301,nan
1741085444.352874,-0.17959184640894577,0.14742733314960965,-0.39753080693105497,-0.6640338559323448,nan
1741085444.356778,-0.15520282266257693,-0.2313810887604435,-0.25495306697483405,-0.14861008036015563,nan
1741085444.360682,-0.0956159325963067,-0.48623831919880706,0.05188972425961973,0.27225825131020986,nan
1741085444.3645859,-0.050595445370944174,-0.3500740519301083,0.2553503531811293,0.38774971614672543,nan
1741085444.3684897,-0.01546254632908628,0.13279627367490793,0.2087907352047609,0.27882002456244387,nan
1741085444.3723938,0.04814055286120654,0.6130552485950022,-0.010167824460102472,0.17171214947016478,nan
1741085444.3762977,0.15008021363095472,0.6993140814323495,-0.19063399196720485,0.18820258383772523,nan
1741085444.3802016,0.23475208665637948,0.2739466608629173,-0.17823524364372326,0.23167636388348184,nan
1741085444.3841057,0.214146435519118,-0.3928908215296356,0.002560880597621402,0.10910995936798436,nan
1741085444.3880095,0.04929229070547706,-0.8306356178664186,0.18668614521815283,-0.23575627248453077,nan
1741085444.3919427,-0.1923835360816638,-0.7181367523613139,0.21819039159572046,-0.6091268931270718,nan
1741085444.3958466,-0.3633503078836725,-0.12643062029732358,0.076228010930128,-0.6974296550312427,nan
1741085444.3997505,-0.3368059804018215,0.5328680644143932,-0.12245968059114799,-0.3404309843310818,nan
1741085444.4036546,-0.10650900062936386,0.8121442023573783,-0.23060983112956845,0.29336116850437693,nan
1741085444.4075584,0.19591321213755508,0.5504884221802551,-0.18548724740501385,0.7971262575156369,nan
1741085444.4114625,0.3855583212181045,-0.027696157165252564,-0.039153168165188476,0.8248567582045047,nan
1741085444.4153664,0.3499720632780963,-0.5012076374947362,0.10393604867500011,0.3589350272692324,nan
1741085444.4192703,0.12273808593912891,-0.5705181071083173,0.17217959078375772,-0.274795752675656,nan
1741085444.4231744,-0.14714134524447414,-0.25986476318308654,0.16078675015490718,-0.6579977847975109,nan
1741085444.4270782,-0.3019536387151863,0.13922455537334913,0.10182496697495391,-0.5913101410608758,nan
1741085444.430982,-0.2758057989917276,0.31862646896763286,0.01897308445450729,-0.21600032414324874,nan
1741085444.4348862,-0.11946601538566991,0.19066359098173952,-0.08119011347765914,0.13967021479442418,nan
1741085444.438819,0.055816731944901395,-0.07008791791321999,-0.18010230704473879,0.2441115038306525,nan
1741085444.4427228,0.16075359161013672,-0.19699196017731016,-0.2263760815823485,0.13130132347907678,nan
1741085444.446627,0.172868556043742,-0.06352898772706389,-0.16264717360910494,0.022168328781184243,nan
1741085444.4505308,0.12217364989090215,0.21203463622736277,0.01455711405000956,0.0865145770682089,nan
1741085444.4544346,0.04755609577734693,0.36845199834920445,0.22175201835996233,0.2693040528031705,nan
1741085444.4583387,-0.030205736807451262,0.22244709888168177,0.32827967449664225,0.3402932454726109,nan
1741085444.4622426,-0.10069056038334127,-0.16952211974535608,0.24986156548225275,0.12151286352831615,nan
1741085444.4661465,-0.14307617025281535,-0.5370515452102382,0.02079013055800066,-0.3153793450257694,nan
1741085444.4700506,-0.1262107714354825,-0.5912933533654805,-0.22103424174867703,-0.667659976754749,nan
1741085444.4739544,-0.037460756569727735,-0.24395367927970338,-0.33051308610035696,-0.6344737227726296,nan
1741085444.4778585,0.08800275790112125,0.3128475746618738,-0.2566665557879187,-0.17319659501485857,nan
1741085444.4817624,0.17442984663771005,0.7259215532801604,-0.06743406040327013,0.43902663469249453,nan
1741085444.485695,0.15557348152452896,0.7168807518338648,0.11637527063068162,0.7981015340425444,nan
1741085444.4895988,0.031116998921596254,0.27136892714720473,0.2140255796460456,0.669959069060551,nan
1741085444.4935029,-0.12098132152353727,-0.3467929970760138,0.22321337726680743,0.15724744300830246,nan
1741085444.4974067,-0.19478826872274752,-0.7641265568319936,0.18092637150579413,-0.3898061210196245,nan
1741085444.5013106,-0.1350438370831977,-0.7346185738261678,0.10134464032995,-0.6372524661133141,nan
1741085444.5052147,0.017994204762578903,-0.28983146114932523,-0.034730790771690834,-0.4934864581553809,nan
1741085444.5091186,0.15597447576531245,0.2914287984931857,-0.2236188655960275,-0.13176306744525298,nan
1741085444.5130224,0.1829725003296339,0.6667601149491659,-0.3812058817373004,0.18152444141656615,nan
1741085444.5169265,0.08623103253956882,0.6423367252423834,-0.36757745125187463,0.29272566473856926,nan
1741085444.5208304,-0.05826025018292398,0.27698328377594994,-0.10355251707801513,0.23583441475550312,nan
1741085444.5247343,-0.14778689163829617,-0.18018781082457508,0.3143294404242222,0.1421013703870592,nan
1741085444.5286384,-0.13082916871100458,-0.46419274469031674,0.6238947940104105,0.09327185281607722,nan
1741085444.5325704,-0.038793173908069564,-0.45647697178135216,0.5666735766757307,0.05942675711285379,nan
1741085444.5364745,0.04969545309470868,-0.23008558085395986,0.10549927422066413,-0.033764965147537414,nan
1741085444.5403783,0.07693166890788855,0.03663104285006667,-0.4929344651217666,-0.19106690718009095,nan
1741085444.5442824,0.04773133069107964,0.19828744590754283,-0.811925431269639,-0.31032657784921097,nan
1741085444.5481863,0.012513095453841524,0.2254372323729228,-0.588541343303815,-0.2660946220908119,nan
1741085444.5520902,0.012436850987107366,0.1808914495709827,0.061547015496567714,-0.03776373689484437,nan
1741085444.5559943,0.03896505954149982,0.12959932068379887,0.6928343026707634,0.24274314189000284,nan
1741085444.5598981,0.04454747888160516,0.07345562985089032,0.8437909270953293,0.37945461841790845,nan
1741085444.563802,-0.0065984621865420355,-0.028959311824741613,0.3892519401273877,0.26872915833515393,nan
1741085444.567706,-0.09551156070846933,-0.183115258672445,-0.3459967596130682,-0.010523880661488787,nan
1741085444.57161,-0.15482244346356458,-0.3075669031669809,-0.8176001079444879,-0.2539714063425235,nan
1741085444.5755138,-0.12230446790051529,-0.27863564965057747,-0.6720497478134082,-0.29189133659553723,nan
1741085444.5794458,0.002829296962868341,-0.047336251206724606,-0.021787555338382416,-0.11961573358733561,nan
1741085444.58335,0.14961579802161953,0.2760612563070445,0.6349986946031949,0.10815711174959326,nan
1741085444.5872538,0.22234784169558303,0.46609780870946693,0.7950559035179656,0.20978710475773557,nan
1741085444.591158,0.16918918049419773,0.34724543021960175,0.33799639984515994,0.12190159031795574,nan
1741085444.5950618,0.019420979213418926,-0.04397794144824392,-0.3814048087666091,-0.06127649372459914,nan
1741085444.5989656,-0.13789113022631336,-0.4464545956647934,-0.8090241641076686,-0.17851926684835168,nan
1741085444.6028697,-0.2150517664481129,-0.5508417820274621,-0.6191278909481818,-0.13750716049936232,nan
1741085444.6067736,-0.1798116794349877,-0.2444976360520201,0.03950275235794502,0.01862882286457004,nan
1741085444.6106775,-0.06591713609656508,0.27280813509663326,0.666431672616513,0.16075991783059007,nan
1741085444.6145816,0.0595484882756039,0.6160424924387358,0.7979589651740521,0.18528708359264973,nan
1741085444.6184855,0.14085339497896024,0.5064079428611675,0.35443654787425344,0.08914431037587635,nan
1741085444.6223893,0.15764617978261933,0.002375065086600055,-0.3177424527816075,-0.04662748249547883,nan
1741085444.626321,0.11958403652779771,-0.5248602291368902,-0.7270594714688177,-0.13493096900253754,nan
1741085444.630225,0.047717843256250045,-0.6699347442707699,-0.6088901925760023,-0.14549215334155657,nan
1741085444.6341288,-0.03668580495444505,-0.31373746226521243,-0.1004206525460818,-0.10355727612274895,nan
1741085444.638033,-0.11079457278539454,0.2738588562577786,0.3991047680670242,-0.04326874252310077,nan
1741085444.6419368,-0.14806512853213535,0.6418116285364839,0.5498411083667261,0.02597279809039304,nan
1741085444.6458406,-0.12744042318095797,0.516198503488973,0.3128666286593363,0.10612740171671335,nan
1741085444.6497447,-0.05064506346330411,0.01847765164420691,-0.06433273480492947,0.1741958399841815,nan
1741085444.6536486,0.049540717408895416,-0.438824837902733,-0.2786557694791172,0.17616959939100418,nan
1741085444.6575525,0.12347944041547665,-0.49631322020650986,-0.2137270605003124,0.0725981536625998,nan
1741085444.6614566,0.13525672405533595,-0.14544217557460312,-0.0014945792185636576,-0.10407427162419139,nan
1741085444.6653605,0.08649818220015486,0.27305954744980193,0.12500762337857077,-0.2459589141789884,nan
1741085444.6692646,0.01316642026564137,0.3723014866698204,0.04501943303203999,-0.2427756632684761,nan
1741085444.6731958,-0.04286727430980331,0.06587429835010397,-0.15271619020710192,-0.07836926170872795,nan
1741085444.6770997,-0.06379509401593858,-0.3457943962841508,-0.25956171714741505,0.13789936147035034,nan
1741085444.6810036,-0.062319768064985605,-0.436359919668292,-0.1354080814086186,0.24654409379872733,nan
1741085444.6849077,-0.06073611592894061,-0.04633191887111298,0.1656900304969609,0.16719997989373536,nan
1741085444.6888115,-0.06378653500315005,0.5364773981314009,0.43162449667134445,-0.028300167660950674,nan
1741085444.6927154,-0.05214740920385558,0.7871898026190994,0.45349675695896846,-0.1701689621869877,nan
1741085444.6966195,-0.00398030386883375,0.3912039579304728,0.18161714541542304,-0.13479921778812498,nan
1741085444.7005234,0.0752846616299529,-0.44433748565260806,-0.23804977271885291,0.04314287290290037,nan
1741085444.7044272,0.14465093032378223,-1.0988215309799128,-0.5619560029160207,0.19348279967219428,nan
1741085444.7083313,0.15285217084952443,-1.0112458255638408,-0.6012034532891731,0.15740920203686512,nan
1741085444.7122352,0.07908020906896816,-0.14969496294683138,-0.32556320175907594,-0.06450368950397764,nan
1741085444.716139,-0.044915313552711646,0.9128011364314266,0.1318296679018469,-0.29584860634272925,nan
1741085444.7200701,-0.1518906599699221,1.4036384624519767,0.550659702856506,-0.3242692586743543,nan
1741085444.723974,-0.18379044291102495,0.9363863628323621,0.7272974833976725,-0.08578677659325183,nan
1741085444.727878,-0.1294772254907775,-0.1810166802046739,0.5616053966706709,0.2643527572441585,nan
1741085444.731782,-0.02698070968985597,-1.1643911996360836,0.10411030174015666,0.46269577769322323,nan
1741085444.735686,0.06851787473966865,-1.3342715058635133,-0.44960585282212806,0.34597093415714264,nan
1741085444.73959,0.12232861741410984,-0.6115890913371326,-0.8284992172787714,-0.013681680619356961,nan
1741085444.7434938,0.13333009247114766,0.44864940809487386,-0.8119367894177935,-0.36034759407453976,nan
1741085444.747398,0.11684124430091983,1.095713068252959,-0.362346655849252,-0.4525325789539676,nan
1741085444.7513018,0.07935809919826509,0.9392442394014365,0.3178320779863958,-0.24638269692326437,nan
1741085444.7552056,0.012829905416338994,0.1960337814432997,0.867128783015277,0.08317305028268861,nan
1741085444.7591097,-0.08508231129901674,-0.5348559471103609,0.964168795214411,0.2935211291821859,nan
1741085444.7630136,-0.1863457889808573,-0.755540851134756,0.531848104671072,0.26608893748247225,nan
1741085444.7669468,-0.2332400644675528,-0.4171185669618081,-0.19396650570882723,0.08051211872371569,nan
1741085444.7708507,-0.1734364075647535,0.11803206821126677,-0.7953329092965302,-0.0794462069738389,nan
1741085444.7747548,-0.006213808654302834,0.4201220089399453,-0.9300173967563818,-0.09414791031121261,nan
1741085444.7786586,0.198713650512186,0.3300528980660269,-0.5462947763692904,-0.00030801629138983933,nan
1741085444.7825625,0.33155342611844246,0.024653300641700765,0.09321734401571813,0.06590240080771279,nan
1741085444.7864666,0.30710373360623483,-0.1993025429277048,0.594577295105831,0.011292860379608577,nan
1741085444.7903705,0.12133113990462711,-0.19562285483892067,0.6918949617949878,-0.12268137883909412,nan
1741085444.7942743,-0.13913462670756513,-0.05328892671977091,0.40194459151183515,-0.2017635148808939,nan
1741085444.7981784,-0.34214454435181246,0.04775760247344301,-0.024610527756726182,-0.13020494657841103,nan
1741085444.8020823,-0.3819263492469897,0.03816075123459677,-0.3033133231586937,0.05453540018828267,nan
1741085444.8059862,-0.23521400438052475,0.011442330071918269,-0.3115138646950839,0.21269347778750708,nan
1741085444.8098903,0.02783824148398006,0.08541634661342914,-0.14144244117882165,0.22813776660627466,nan
1741085444.8138232,0.2797277057463326,0.23006769754473366,0.009697803722196517,0.10951148515939263,nan
1741085444.817727,0.397464991114224,0.2580287250067324,0.011358704881292847,-0.028337991600196222,nan
1741085444.8216312,0.32104523477263586,0.012336411182197584,-0.10305309189177358,-0.08194493148332974,nan
1741085444.825535,0.08402878088725134,-0.42280804533361455,-0.17967704300857762,-0.05861717290141207,nan
1741085444.829439,-0.1975848966157099,-0.7142121317603428,-0.08330457358889447,-0.056766386490417535,nan
1741085444.833343,-0.37780130596956907,-0.5306961716373348,0.18038797404967755,-0.14350807958144973,nan
1741085444.837247,-0.35573955805839635,0.13911653547445113,0.4513467662923869,-0.25369517709004485,nan
1741085444.8411508,-0.13720217305808302,0.891165279264026,0.5189485160614065,-0.22559729575349488,nan
1741085444.8450549,0.1569661193498028,1.160620354003532,0.27059466465194804,0.038565878260718806,nan
1741085444.8489587,0.3526759017114043,0.658093150684225,-0.21376965218367378,0.430724255177592,nan
1741085444.8528628,0.32774823387594565,-0.36031091508329127,-0.6835858369431738,0.6650991604574384,nan
1741085444.8567667,0.0962338115915264,-1.2305852352168536,-0.8491629391900493,0.48909806276751905,nan
1741085444.8606992,-0.19059203554021292,-1.3482217996590657,-0.5538391146774893,-0.08216071968511177,nan
1741085444.864603,-0.3388074584407983,-0.6146268683311314,0.10879784537606946,-0.715608894734059,nan
1741085444.868507,-0.24488473328132093,0.4844884129152707,0.8088657129235891,-0.9690929919777043,nan
1741085444.872411,0.026309638589491657,1.231373904391182,1.1396904291372572,-0.6192090833520445,nan
1741085444.8763149,0.2809221308519312,1.1863275767420094,0.8538013201981443,0.14746841527523585,nan
1741085444.880219,0.3321325711915381,0.4683193497968153,0.0427673773290095,0.8437216206618686,nan
1741085444.8841228,0.13693629823110134,-0.3870073795202157,-0.8670131822401768,1.0217885712484316,nan
1741085444.8880267,-0.16874788071112806,-0.8491812938406851,-1.3366039364461673,0.5881505417348638,nan
1741085444.8919308,-0.3665376798576824,-0.7504149369500384,-1.0458128787802328,-0.14577893250047239,nan
1741085444.8958347,-0.31420296182158747,-0.3208806299021094,-0.12536446079400007,-0.7066408895081164,nan
1741085444.8997386,-0.04812838805725282,0.07368738919458859,0.8857333718793693,-0.7964669446928659,nan
1741085444.9036427,0.24679276817703336,0.23576708674721913,1.3640962682024125,-0.4641601497465105,nan
1741085444.9075747,0.3746996700447296,0.23001392218828165,1.0107885703747574,-0.0021556425410471096,nan
1741085444.9114788,0.2671792833080191,0.2302644172656254,0.06343622566792455,0.3123936866819756,nan
1741085444.9153826,0.01917538738994533,0.3018429031029391,-0.8539610091618723,0.4023138134611,nan
1741085444.9192865,-0.19697519981050857,0.3349045736183716,-1.1558398259745004,0.36492772874786983,nan
1741085444.9231906,-0.2631838107009599,0.17928868565155545,-0.6979857369090491,0.30255613124902214,nan
1741085444.9270945,-0.18713480950066047,-0.16705162932594222,0.13594892532330785,0.19909533585167496,nan
1741085444.9309986,-0.06563303277847596,-0.5105361953312838,0.7315312386135201,-0.031049963742643835,nan
1741085444.9349024,0.015081961581456433,-0.6089390186980166,0.7026279233695003,-0.38078954754752903,nan
1741085444.9388063,0.048345447592577806,-0.37780417122501125,0.16413835362398588,-0.6609662025268536,nan
1741085444.9427104,0.08735763813405661,0.03560732120137937,-0.3881469177176913,-0.6112915813681913,nan
1741085444.9466143,0.16418026612034908,0.3769090247065613,-0.4905634598603481,-0.14216747384685693,nan
1741085444.9505181,0.2325321628600636,0.4879484951824927,-0.08633801556456872,0.5137700776585049,nan
1741085444.9544501,0.1971267722944488,0.4011343069130036,0.43805050743478263,0.9142044811635686,nan
1741085444.958354,0.00959380496209995,0.2501957196380057,0.5826191384006275,0.7343025771095223,nan
1741085444.962258,-0.2572136121459811,0.10577549246154463,0.16055127421503151,0.05105685616496995,nan
1741085444.966162,-0.4345892646627382,-0.08360235943943765,-0.5281503697259287,-0.6703815890274928,nan
1741085444.9700658,-0.37727817676068925,-0.378075382710687,-0.9228724640827866,-0.911520860192611,nan
1741085444.97397,-0.08489651201980547,-0.6843128925774522,-0.6513963175853734,-0.5043731965062545,nan
1741085444.9778738,0.2778522173494929,-0.7439939590095184,0.15757786736170423,0.2266199856765929,nan
1741085444.9817777,0.4879965847990312,-0.34066994979960635,0.9504881688989723,0.7151179487630734,nan
1741085444.9856818,0.420314186870198,0.4361993486814876,1.1568386853845896,0.6033319493608232,nan
1741085444.9895856,0.1323609693314519,1.1364737760076307,0.6119783539341525,0.02566106388224728,nan
1741085444.9934895,-0.18571217635223142,1.224674272809796,-0.32729633559380206,-0.5112711646395398,nan
1741085444.9973936,-0.35268607585979733,0.5116853767191614,-1.049684024233712,-0.5552981915983911,nan
1741085445.0013251,-0.3154083345298076,-0.6148277692888388,-1.1209572778653476,-0.08640633046517972,nan
1741085445.0052292,-0.15736169494585422,-1.4021512704488381,-0.5551058231153768,0.4721880251898651,nan
1741085445.009133,-0.004786120988265882,-1.2748937551710415,0.25039293346332137,0.6192659251196,nan
1741085445.013037,0.07872113774162642,-0.29626169752913656,0.8233260580164281,0.2074917868172198,nan
1741085445.016941,0.11883480489316758,0.8399407550280571,0.9139117302921094,-0.4260422234209532,nan
1741085445.020845,0.16724919430717605,1.3166563578027544,0.5802092049577633,-0.7434613771658521,nan
1741085445.0247488,0.2212988677657742,0.8187042929907848,0.060536772407697066,-0.46364845266366456,nan
1741085445.028653,0.2116869234139072,-0.22339098358952603,-0.4103056188988365,0.19616842927399405,nan
1741085445.0325568,0.07461208286905814,-0.9772000576204524,-0.6911853928731646,0.7012999351067424,nan
1741085445.0364606,-0.16102925120210898,-0.8711603395176457,-0.7152591578237576,0.6489281732707753,nan
1741085445.0403647,-0.36224037400264686,-0.04251289899263736,-0.4575578077473651,0.10281428772857823,nan
1741085445.0442686,-0.3818451525473631,0.7916727208273577,0.03254927884927152,-0.470406096073933,nan
1741085445.0482,-0.18034963273186191,0.9300214521250512,0.5721110172861841,-0.6046827197849096,nan
1741085445.0521038,0.12702097347584626,0.256931657270943,0.8726438256065352,-0.22833250038056757,nan
1741085445.0560079,0.3468466798781048,-0.6771653884028206,0.7067738069713045,0.28982572162840564,nan
1741085445.0599117,0.35063408564549814,-1.1181807012663374,0.1107191816337726,0.4766583663253129,nan
1741085445.0638156,0.16726104847674775,-0.7190362962269431,-0.568211701851184,0.17581332504617955,nan
1741085445.0677197,-0.05177503371699027,0.20388036307121774,-0.87752953821729,-0.3162601392439931,nan
1741085445.0716236,-0.16224380417477938,0.9580851254036803,-0.5983052993760626,-0.5190224373357637,nan
1741085445.0755277,-0.13866971037829937,1.0382322633771393,0.05608590772099406,-0.20516209141002412,nan
1741085445.0794315,-0.07245342530070065,0.4868711817907404,0.5780177281631058,0.38047744725878657,nan
1741085445.0833354,-0.06489121734339053,-0.22102135662472489,0.5656833487026747,0.7198551684389383,nan
1741085445.0872395,-0.11912804265335114,-0.6197395019168023,0.06645478565052379,0.47301465628140127,nan
1741085445.0911434,-0.13588068270571516,-0.6068968566160576,-0.44312830572082446,-0.20928488298320616,nan
1741085445.0950744,-0.020474551169700934,-0.4154932370142712,-0.45785746125596505,-0.7898198216734121,nan
1741085445.0989785,0.19960639504388542,-0.28573108944670883,0.09542191842623261,-0.7872539312848783,nan
1741085445.1028824,0.3658588716775938,-0.19518335127477665,0.7436748018397362,-0.18365911967742118,nan
1741085445.1067863,0.31350163983995927,0.0729143344895454,0.838733208555216,0.5515752608388815,nan
1741085445.1106904,0.028254498698031344,0.5983890731429625,0.13320909535671763,0.8457905503084564,nan
1741085445.1145942,-0.30938886316216574,1.0921992068306094,-0.9304455156146667,0.49215986435354514,nan
1741085445.118498,-0.4494632139103013,1.057355708837124,-1.5063516692860035,-0.19090960071504923,nan
1741085445.1224022,-0.2757155093006767,0.25595433071399204,-1.01964781059196,-0.6396932482434625,nan
1741085445.126306,0.08485416850522139,-0.9440461057384704,0.31368681195227954,-0.5202386742839015,nan
1741085445.1302102,0.35079743125781354,-1.725853744064039,1.5790283996015917,0.006912142958704496,nan
1741085445.134114,0.3127109511821397,-1.4396127698317913,1.8392523099277995,0.45041421536987125,nan
1741085445.138018,0.012082855024953756,-0.18445194058122222,0.8715555908153226,0.426914687821248,nan
1741085445.1419442,-0.2843025693675989,1.178240301431403,-0.6388291253955394,-0.011251206037909255,nan
1741085445.1458483,-0.30447461213991417,1.66559919958205,-1.6253071200015305,-0.4404869973917542,nan
1741085445.1497521,-0.007767309089953164,0.9729492915136657,-1.4695782786107447,-0.45581433789705433,nan
1741085445.153656,0.364581505167428,-0.2553337830053583,-0.45442502129366674,-0.03525114051417433,nan
1741085445.15756,0.47869802287783997,-0.9620196798117195,0.5328575769130427,0.44469937173008905,nan
1741085445.161464,0.18927462065511952,-0.6007647342729783,0.7853107154249949,0.5526678894046371,nan
1741085445.1653678,-0.32068799726009095,0.35455376141752376,0.36492882702281365,0.19426793204909945,nan
1741085445.169272,-0.6665460888122552,0.8102805405290517,-0.02611989320939471,-0.3025526204371462,nan
1741085445.1731758,-0.5622463497418634,0.07596536277625573,0.21793441587825219,-0.48900048371849325,nan
1741085445.1770797,-0.053912006785486424,-1.3759026846742475,0.9334076764521472,-0.2132286966796649,nan
1741085445.1809838,0.5051825367232752,-2.1573317245440116,1.2356708866227044,0.2295737425164417,nan
1741085445.1848876,0.7225317479168301,-1.1333168887800185,0.3305816482733813,0.36625585784967485,nan
1741085445.1888232,0.4643400511679793,1.4237394210078158,-1.584355692258121,0.004879875965940452,nan
1741085445.192727,-0.05317058502354956,3.7452927146681403,-3.1815713609769256,-0.5361565903236677,nan
1741085445.196631,-0.44659580921678965,3.79700786403949,-2.908995421063033,-0.6687839965497031,nan
1741085445.200535,-0.4680569814069254,0.9653640375403578,-0.3231173740606558,-0.07376340594342877,nan
1741085445.204439,-0.18182106373669776,-3.168187537553269,3.2426505073189893,0.9252681185914,nan
1741085445.2083428,0.11997158401278775,-5.736816650377305,5.363225070584761,1.5177847094823003,nan
1741085445.212247,0.17952736461740004,-4.648822412606356,4.214574186116443,1.0302898110739123,nan
1741085445.2161508,-0.011449012294729477,-0.2757660150379603,0.05971792294835148,-0.45770641843361387,nan
1741085445.2200546,-0.22025828227120947,4.593898304427338,-4.660193305566408,-2.028307907869279,nan
1741085445.2239587,-0.18943461047234245,6.633618830243393,-6.844933314133111,-2.5085632302608385,nan
1741085445.2278626,0.12752947663667794,4.3670707659302295,-4.864221863479171,-1.3337669375535246,nan
1741085445.2317665,0.5096657726422698,-0.7136819088329085,0.22556910256939264,0.9502704630515303,nan
1741085445.235699,0.6365546574949128,-5.173559749388186,5.294522600614653,2.953645113710501,nan
1741085445.239603,0.342244087001615,-6.073954757279006,7.1927466300669165,3.3320893399215517,nan
1741085445.243507,-0.24677909986237448,-3.0276989675266925,4.816694404698292,1.6960586765646342,nan
1741085445.2474108,-0.7905658278550095,1.634081409990505,-0.23647882961750133,-1.0882413301108464,nan
1741085445.2513149,-0.9611672354119313,4.6543084404970285,-4.822583331745483,-3.4117374979354262,nan
1741085445.2552187,-0.6443546858015081,4.211191803030512,-6.334749710645153,-3.903910035043862,nan
1741085445.2591228,0.011547109735989092,1.0864064044020498,-4.258279975467415,-2.2469169788407184,nan
1741085445.2630267,0.7005079882732733,-2.1483781525543426,-0.22297415156302763,0.6660149435740298,nan
1741085445.2669306,1.1187841925135957,-3.187109957803604,3.295465608030242,3.272829178063035,nan
1741085445.2708347,1.0822395705031533,-1.6580512561880485,4.579304891975086,4.21357304048638,nan
1741085445.2747386,0.5742692120159618,0.821046237463705,3.4870513496729285,3.022992527699111,nan
1741085445.2786424,-0.2480532922767563,2.1098272863629184,1.1234432727563202,0.311427826171849,nan
1741085445.2825747,-1.075028361363249,1.2789516292029142,-1.1427987538927702,-2.5863257104936554,nan
1741085445.2864785,-1.5226930938900831,-0.7599076424331604,-2.4841493811948485,-4.266416304368394,nan
1741085445.2903826,-1.2962265737228542,-2.1378156113477687,-2.764550974531614,-3.9027606207792265,nan
1741085445.2942865,-0.3878886383315619,-1.61855174467219,-2.192024545017258,-1.6238668799018443,nan
1741085445.2981904,0.8280390872975156,0.41555716920447866,-0.9820510012512988,1.5246052420312266,nan
1741085445.3020945,1.7293296750243026,2.329626666500766,0.6376909474270949,4.0316938006174246,nan
1741085445.3059983,1.7894532342256275,2.5852729755476855,2.2103747331270385,4.625770956119949,nan
1741085445.3099022,0.9278315577482279,0.9509197432218721,3.0181351655294466,2.927267257933882,nan
1741085445.3138063,-0.39459112608428154,-1.3677873633337652,2.451660479000799,-0.29219268820594796,nan
1741085445.3177102,-1.4438292459641695,-2.7104517536077877,0.5505785766534785,-3.437885338864105,nan
1741085445.3216143,-1.683386859214531,-2.2218294134556653,-1.7874662587642574,-4.894959533971402,nan
1741085445.3255181,-1.109150305012208,-0.40496373153705023,-3.2373952640422545,-3.894508249171376,nan
1741085445.32945,-0.19465933311110858,1.3863177953782617,-2.9010369952396946,-0.947381409001471,nan
1741085445.333354,0.5064047560255002,2.020923097762979,-0.9645418521325033,2.4244628794774505,nan
1741085445.3372579,0.7727821334173794,1.3544111518558488,1.3748475956504775,4.514762164190962,nan
1741085445.3411617,0.798693977345768,0.14838325872334943,2.7055771108550455,4.337127221529474,nan
1741085445.3450658,0.8855761480500693,-0.669391223817822,2.3497631929485996,2.0932862438767392,nan
1741085445.3489697,1.0364455947923148,-0.7299715347655478,0.7645723506722445,-1.0207869546170258,nan
1741085445.3528736,0.8617505062649445,-0.36559245672133245,-0.8779838548393872,-3.4956348686134424,nan
1741085445.3567777,-0.05061328832165828,-0.1506598803287301,-1.5766654270979474,-4.253853148408632,nan
1741085445.3606815,-1.5852419117365704,-0.319233509252805,-1.1624369049447043,-3.0796756307540147,nan
1741085445.3645856,-2.8929132283269134,-0.5797777275061928,-0.2653769302007623,-0.5995816929136987,nan
1741085445.3684895,-2.8437532802846204,-0.44969152328656825,0.309805620400272,2.069884485356768,nan
1741085445.3723934,-0.9149382679322425,0.2312783129057473,0.24467731550675295,3.792277787959225,nan
1741085445.3763251,2.1586179388248974,1.0832655423732909,-0.12602338141163796,3.8316209053132453,nan
1741085445.3802292,4.587917061529332,1.4577297787365626,-0.22160947061166378,2.1327949237676087,nan
1741085445.384133,4.615719952490321,0.9640038546666815,0.20414678817572302,-0.6073893560814771,nan
1741085445.388037,1.8005912095555578,-0.19033490422237265,0.8246863771291486,-3.1543682179597585,nan
1741085445.391941,-2.4520726681798446,-1.3187370884652518,1.0354250201491786,-4.245871744966801,nan
1741085445.395845,-5.615393546484643,-1.7310819850674168,0.5058440941295927,-3.2350947347662404,nan
1741085445.3997488,-5.638015283120631,-1.1952360125737727,-0.49738402027307893,-0.5300726773714021,nan
1741085445.403653,-2.347277280009591,-0.05724921580497369,-1.292900025290424,2.501050513263492,nan
1741085445.4075568,2.344184914613363,1.0247546634981046,-1.3153051139014726,4.21867038094807,nan
1741085445.4114606,5.6264872365463665,1.502520834842015,-0.5513119946011542,3.654292534271904,nan
1741085445.4153647,5.59233704652205,1.2209612162260093,0.46704699575196706,1.1269438278513748,nan
1741085445.4192686,2.426607958220572,0.42238009181374525,1.0845848476985978,-1.9041266453125012,nan
1741085445.4232023,-1.805510003870833,-0.4574455907400257,1.001323454781715,-3.708934712253794,nan
1741085445.4271064,-4.576507210822385,-1.0286671317124148,0.43077110977074434,-3.3397527598794046,nan
1741085445.4310102,-4.505467862927963,-1.0955259552024876,-0.14849981991961025,-1.1807837430136972,nan
1741085445.434914,-2.074063287641618,-0.6910910691341294,-0.39971350329492966,1.3614532424724335,nan
1741085445.4388182,0.9371964618366819,-0.03468567863158527,-0.34514157209884716,2.797326733360522,nan
1741085445.442722,2.764285153421621,0.5608000899347327,-0.2440338476038362,2.473655188795805,nan
1741085445.4466262,2.7413048648148375,0.8219571868720666,-0.28591734692188825,0.8716170699566663,nan
1741085445.45053,1.4555931009395882,0.6530683104875591,-0.3973186339653877,-0.8533577411943464,nan
1741085445.454434,0.03810786726166407,0.19960702604275324,-0.33207664547417676,-1.6976299734416826,nan
1741085445.458338,-0.7394302523265275,-0.2337694760406194,0.05358694808474272,-1.402871855015341,nan
1741085445.462242,-0.8641327798129659,-0.3872315590369822,0.6066341087996424,-0.45650404618158263,nan
1741085445.4661458,-0.7892902262503679,-0.23419676694463593,0.9522334652181375,0.39647794005090925,nan
1741085445.4700768,-0.8402093219579618,0.0034309210901711383,0.784740750667568,0.7001936618882,nan
1741085445.4739807,-0.8914990244050629,0.048451550869153,0.13000457544076058,0.4998909468173802,nan
1741085445.4778848,-0.5705629053567115,-0.17494866734626502,-0.6428162915235947,0.14703138582666903,nan
1741085445.4817886,0.25995944729442827,-0.44467410025200366,-1.0725977665484425,-0.05709394135533212,nan
1741085445.4856925,1.2305473282987778,-0.4141341248620291,-0.921676397705071,-0.06541156563916697,nan
1741085445.4895966,1.6844080994299566,0.06545718255330456,-0.3167665699578863,-0.016952147106890626,nan
1741085445.4935005,1.2130092109502701,0.7477490958673747,0.3708163862732207,-0.03065209085337589,nan
1741085445.4974043,0.03817495539714344,1.118747321924092,0.7874550897235478,-0.08530933614013751,nan
1741085445.5013084,-1.1063698414284027,0.7872265413501396,0.796515932316999,-0.08352126929677779,nan
1741085445.5052123,-1.5142435079482852,-0.1621078979909066,0.4930542983737192,0.0008614901008687172,nan
1741085445.5091162,-1.0270811484842748,-1.1566260561148607,0.07455283561171008,0.06837091107390252,nan
1741085445.5130203,-0.11304188636471682,-1.5137128918522094,-0.2958969030022444,-1.3196812292994499e-05,nan
1741085445.5169535,0.5468739365254128,-0.9405975450222733,-0.5346296760481545,-0.18637911677019478,nan
1741085445.5208573,0.6054789475570582,0.2282132763414288,-0.6026426572337499,-0.30499512836430226,nan
1741085445.5247614,0.2721466424639937,1.249674283835354,-0.4736724547711374,-0.15810553876460692,nan
1741085445.5286653,0.04541534543354584,1.4895811873646105,-0.15817246809914123,0.2499690763643839,nan
1741085445.5325692,0.21350024062799763,0.8511061640719966,0.24869040918227625,0.6495441630310592,nan
1741085445.5364733,0.5742016717193041,-0.1968372695633263,0.571323646631946,0.6861662110356929,nan
1741085445.5403771,0.6255634005323564,-0.9866809796365046,0.6418054648636459,0.21916643514937928,nan
1741085445.544281,0.060357515696824196,-1.1138047204302153,0.4145714640752131,-0.5135407007339312,nan
1741085445.548185,-0.877620940399686,-0.6495536584185643,0.009575887833859372,-1.0261854500003578,nan
1741085445.552089,-1.5109068439714655,0.009566137837601206,-0.3613528659331481,-0.9329980908308458,nan
1741085445.555993,-1.253579583319028,0.4794677073517983,-0.5302374062330292,-0.24644780360217125,nan
1741085445.559897,-0.12123167694461373,0.6224421057495491,-0.4633158337003216,0.6131399278039672,nan
1741085445.5638297,1.206486622304416,0.5262289950412176,-0.24347820700246356,1.1096187852148265,nan
1741085445.5677338,1.8498140563504264,0.32083934818606075,0.01894694398922971,0.9603115123765323,nan
1741085445.5716376,1.3714710044583798,0.04896485221944273,0.25371161365638434,0.3051697536902556,nan
1741085445.5755415,0.0998182188558395,-0.29012648861601276,0.4218716404092754,-0.4320004992559344,nan
1741085445.5794456,-1.1163750431503676,-0.6078059587836669,0.4684306731004346,-0.854519137901236,nan
1741085445.5833495,-1.525780270112362,-0.6937861350127694,0.321665588755561,-0.8260833665669041,nan
1741085445.5872533,-0.9878266779362719,-0.3718541851138207,-0.028464177776780487,-0.47426023461991296,nan
1741085445.5911574,-0.005438930162685095,0.2801024703107596,-0.44511555357900684,-0.019780161848603824,nan
1741085445.5950613,0.7097311340511044,0.8785248753189094,-0.6692611270682842,0.3839926411149832,nan
1741085445.5989654,0.7705981045256317,0.9651609483602813,-0.4899225509950562,0.6707915952049922,nan
1741085445.6028693,0.3343372839865159,0.37652899938684675,0.05326622478768938,0.776940138154592,nan
1741085445.6067731,-0.12026264022093497,-0.5565485794736603,0.6235020506566581,0.5991313798513038,nan
1741085445.6107056,-0.22638878418907718,-1.188967727226644,0.7900673207324812,0.08486066027417068,nan
1741085445.6146097,-0.0010727828411783566,-1.0267734465516032,0.36453710352333885,-0.6196405375260934,nan
1741085445.6185136,0.24280024256178478,-0.1260288753973931,-0.39665974663613784,-1.1437531927033466,nan
1741085445.6224174,0.2220542458299031,0.9069494628198319,-0.9264991332714555,-1.0912033021158432,nan
1741085445.6263216,-0.06281319730167437,1.3433442005263139,-0.7641993714048003,-0.3558677696626389,nan
1741085445.6302254,-0.35986800731791446,0.8708279967145789,0.052382817376906594,0.7047904841937586,nan
1741085445.6341293,-0.4248637769296135,-0.1740239424260381,0.950600945293858,1.4332327008054855,nan
1741085445.6380334,-0.24675849009409187,-1.0617965347411227,1.2194347385653659,1.308859212163161,nan
1741085445.6419373,-0.02719639194925033,-1.2118427071218052,0.563907103058458,0.34912816762465393,nan
1741085445.6458414,0.053522981908591324,-0.5968335205052931,-0.6165708760874202,-0.849621635156345,nan
1741085445.6497452,0.040136344487016765,0.2897531247489779,-1.4758425935162844,-1.5009233806418707,nan
1741085445.653649,0.15453105430665567,0.8459412245249486,-1.3400847270541851,-1.1802221238741262,nan
1741085445.6575813,0.519099212726516,0.8029699288590454,-0.2352484711239597,-0.12961074650902654,nan
1741085445.6614852,0.918968673209243,0.35318947107075654,1.0948920841491894,0.9200121845263783,nan
1741085445.6653893,0.8795793488816354,-0.09425913613152564,1.7164284532471439,1.2786859885264092,nan
1741085445.6692932,0.07183398492548021,-0.27946749148284417,1.1898673945787732,0.7798311716934718,nan
1741085445.6731973,-1.2677758511853112,-0.2568473689843133,-0.10787810470383634,-0.14107734988445747,nan
1741085445.6771011,-2.30668497082943,-0.24655258767966673,-1.2689409739176178,-0.8098388593530316,nan
1741085445.681005,-2.118153922684641,-0.3509530879340561,-1.5250793676534455,-0.8194423753470997,nan
1741085445.684909,-0.4182569961397836,-0.4255950601435625,-0.7894746374533727,-0.28863887689725953,nan
1741085445.688813,2.024667526024486,-0.23258421122995598,0.33177163570518264,0.2990500120719995,nan
1741085445.6927168,3.7113990549424973,0.2738050218848082,1.0386688620936027,0.5101085086842334,nan
1741085445.696621,3.354711681456912,0.8158847711089671,0.9363835005930193,0.28124011419962097,nan
1741085445.7005248,0.8342148253360309,0.9694480984338263,0.2709533316068413,-0.094720539109252,nan
1741085445.7044568,-2.5404169539312154,0.5185169064868859,-0.34801898667751613,-0.2653715811603162,nan
1741085445.708361,-4.735071899774858,-0.32012282205356074,-0.47329200750397693,-0.12217323104866436,nan
1741085445.7122648,-4.270219205762833,-1.0162637093351683,-0.15230498377785215,0.14225231159008048,nan
1741085445.7161686,-1.2369752353537409,-1.1125662132453682,0.1862289078822946,0.24453553271352757,nan
1741085445.7200727,2.6601773701071885,-0.5671274789544077,0.15903182416943792,0.07992646187133215,nan
1741085445.7239766,5.113406371585163,0.2281834201349392,-0.2176341157198011,-0.19195665441445844,nan
1741085445.7278805,4.643888087287825,0.7630192889555176,-0.5506771971445318,-0.30881241114866914,nan
1741085445.7317846,1.529587357807782,0.7891420692726423,-0.43876648431933757,-0.15489972713115818,nan
1741085445.7356884,-2.373041169281955,0.4539804799400884,0.14254666931206791,0.13273580643150362,nan
1741085445.7395926,-4.789194408155917,0.09963045334596064,0.7796748365054049,0.29394703233576985,nan
1741085445.7434964,-4.410899524226316,-0.06744547471787309,0.9451332629644008,0.18762986846214555,nan
1741085445.7474003,-1.6305409957421666,-0.12894021209573509,0.43912461400145364,-0.07725473649639428,nan
1741085445.7513251,1.8003275191924137,-0.29928858380839796,-0.4213426370073793,-0.2423297743981397,nan
1741085445.7552292,3.9076155743252183,-0.6262582002729551,-1.0284258882164614,-0.14146892984567425,nan
1741085445.759133,3.668707295663866,-0.8547804247293912,-0.946636607031036,0.13675283343345687,nan
1741085445.763037,1.5050787914734505,-0.6183251822955227,-0.24393600540111787,0.31815195178074795,nan
1741085445.766941,-1.1349589083453613,0.18591393343276388,0.5679274384407011,0.1899658880304453,nan
1741085445.770845,-2.7462995187045416,1.1795084597564234,0.9274523629571708,-0.19025508714325595,nan
1741085445.7747488,-2.6358082269108514,1.6837655146790913,0.6358914587594791,-0.5148423570926931,nan
1741085445.778653,-1.18390710541231,1.2102400092054026,-0.026920826530477383,-0.47239529786637796,nan
1741085445.7825568,0.5630543227762825,-0.11175342769221888,-0.5510786763874046,-0.020312147378579924,nan
1741085445.7864609,1.6137582559007644,-1.5318857938382353,-0.5925808091874625,0.5477337320787614,nan
1741085445.7903647,1.579745948775612,-2.1473364634548258,-0.20459852739546272,0.8071562572727959,nan
1741085445.7942686,0.7581318010828465,-1.5205572283700577,0.25364017847832077,0.5258412562656719,nan
1741085445.7982,-0.20172665614452165,0.004449609577076104,0.4255806204226633,-0.1472995656807558,nan
1741085445.8021038,-0.7547647707567336,1.5197700949940438,0.2238434686554281,-0.7764107566038558,nan
1741085445.8060079,-0.737832889029259,2.145430415563797,-0.1423451576109972,-0.9435820460973742,nan
1741085445.8099117,-0.3492024342314215,1.5748625909098861,-0.36742056258052436,-0.5358095925314018,nan
1741085445.8138156,0.07474948461796589,0.21363118387917257,-0.29282260273057553,0.19009135247879974,nan
1741085445.8177197,0.2917534283246407,-1.1362379629098833,-0.002384788863290001,0.7938662348122383,nan
1741085445.8216236,0.2540627786983192,-1.7836517736764768,0.2779892871598974,0.9389440476406774,nan
1741085445.8255277,0.06480461114348347,-1.5022399022298798,0.3659084536836821,0.5796062466489486,nan
1741085445.8294315,-0.12802763866222627,-0.5539361698907959,0.2379173841668752,-0.05369712165173972,nan
1741085445.8333354,-0.21385997456865674,0.5439472122344855,0.00515676117495309,-0.6216314426184805,nan
1741085445.8372395,-0.14954554654907362,1.302303798535237,-0.1962426692095927,-0.8628599094575554,nan
1741085445.8411434,0.04050631122433029,1.4389553025909616,-0.2926090030646522,-0.6955374002300431,nan
1741085445.8450768,0.2697731855117141,0.9317991824460855,-0.2796401518188599,-0.21586471831035056,nan
1741085445.8489807,0.4076842883575456,0.0023980077125208186,-0.178161348143815,0.3625230768271822,nan
1741085445.8528848,0.3330718696895689,-0.9428134969761763,-0.00682185222223453,0.7869525291853416,nan
1741085445.8567886,0.017749591278633233,-1.4435261578277738,0.1992881078994698,0.8528865073791837,nan
1741085445.8606925,-0.4132322911599904,-1.2003663233798545,0.36130435129050215,0.4969579803309576,nan
1741085445.8645966,-0.7121210029378608,-0.28426626559968077,0.3769844382349862,-0.14003353159041654,nan
1741085445.8685005,-0.6457317520136212,0.8247934422182907,0.19531803252155006,-0.7422667163853759,nan
1741085445.8724043,-0.16702311671367648,1.4707155080373284,-0.11627700366354789,-0.9682814601912999,nan
1741085445.8763084,0.504092983790288,1.2306937147514934,-0.3867956683792617,-0.6585349648211545,nan
1741085445.8802123,0.9759491302073853,0.22945981378797414,-0.44904515888797925,0.03483431043463157,nan
1741085445.8841164,0.9225258648923271,-0.8977618656953388,-0.26332034120457265,0.7099238266919583,nan
1741085445.8880203,0.314111586934244,-1.4138617843583055,0.04611395978003723,0.9573115526308923,nan
1741085445.8919535,-0.5260529033823733,-0.9903790800249157,0.2802386676176165,0.6300258747088658,nan
1741085445.8958576,-1.1003551805998322,0.05561719172862064,0.3131470203417693,-0.05159991632705386,nan
1741085445.8997614,-1.0484921978870678,0.9881890772434616,0.17815154241464853,-0.6457781153262006,nan
1741085445.9036653,-0.3871230906717446,1.1839859032141211,0.021374364324519824,-0.7891022876679803,nan
1741085445.9075694,0.4895709526426491,0.5716374576915862,-0.034762937623656225,-0.4364627359341501,nan
1741085445.9114733,1.05645278811048,-0.34913871633076116,0.0028993012414120123,0.12976761141820706,nan
1741085445.9153774,0.9895527775800514,-0.9100083676850473,0.017921611007492618,0.5190818687231528,nan
1741085445.9192812,0.3631311754895478,-0.7742846147761022,-0.08816852089702708,0.510018126907299,nan
1741085445.923185,-0.4149784224690025,-0.14830139709991258,-0.2774055308277568,0.18095495638302064,nan
1741085445.9270892,-0.8770960035847866,0.43777015795163654,-0.3812246276012548,-0.18678129875358376,nan
1741085445.930993,-0.7886850542597702,0.5741627894986927,-0.23962529328763327,-0.33821289336525684,nan
1741085445.934897,-0.26948924384294154,0.27049744204145143,0.13882602366292787,-0.2212833658565723,nan
1741085445.93883,0.3201508938540399,-0.11668800145372353,0.5390970808374037,0.01381482131657291,nan
1741085445.942734,0.6302912206567785,-0.23344274106687948,0.6744502347145781,0.16618759093902533,nan
1741085445.9466379,0.5323382147624881,-0.037178484042491036,0.4016874595537129,0.14679795345678553,nan
1741085445.9505417,0.16047961373125122,0.1972595438474588,-0.15026389441951216,0.022906755787494695,nan
1741085445.9544458,-0.2171016104180706,0.16105019005552054,-0.647417963879872,-0.07157603926094153,nan
1741085445.9583497,-0.38641130737216617,-0.18048433969239838,-0.7739650108219465,-0.06385442171138538,nan
1741085445.9622536,-0.30423307690112883,-0.5340015015161788,-0.45042102296882786,0.0060556005351009535,nan
1741085445.9661577,-0.08329818784842748,-0.5291963511205361,0.11314986113782183,0.043379973734111316,nan
1741085445.9700615,0.11541950167113627,-0.05732384557039865,0.565504144932943,-1.3340020413239307e-05,nan
1741085445.9739656,0.19205061791718142,0.5977758580826298,0.6524794243379486,-0.07862341913768098,nan
1741085445.9778695,0.14822486172619032,0.9558958563686349,0.3732327914567708,-0.10030727033176196,nan
1741085445.9817734,0.051964392676885546,0.7094231647402035,-0.04823287017726031,-0.018264600436455322,nan
1741085445.9857059,-0.027036750085012766,-0.030765300146679525,-0.3393703352572221,0.11897524155874686,nan
1741085445.9896097,-0.059549309659105334,-0.8044373591690157,-0.3646743804126857,0.2041367590333562,nan
1741085445.9935138,-0.05646217422795608,-1.1249366694012828,-0.1899964942326039,0.15973185816576893,nan
1741085445.9974177,-0.0424775350266312,-0.8048447435772386,0.0033664285486535365,0.0008036071819343684,nan
1741085446.0013216,-0.03250507608745123,-0.052894813487608716,0.07239837725554295,-0.17792362080098106,nan
1741085446.0052257,-0.02587117433132493,0.6962198553147858,0.0127488018978527,-0.27240310638959603,nan
1741085446.0091295,-0.013928176571909515,1.0625820136047832,-0.06152275624975382,-0.2349560780254822,nan
1741085446.0130336,0.010558150230201133,0.9106265856136421,-0.02958555724893268,-0.08862335435952558,nan
1741085446.0169375,0.047738695286229364,0.3584876919278225,0.12687966616301602,0.10384176182644789,nan
1741085446.0208414,0.0872041710851694,-0.33428095485324744,0.3004726980187512,0.27500209829807576,nan
1741085446.0247455,0.10668968749698723,-0.8877981072854109,0.3357550373178528,0.3638155278848632,nan
1741085446.0286493,0.07881191790429545,-1.0774386204439401,0.14921598535879682,0.3157306815294677,nan
1741085446.0325816,-0.009864321170431109,-0.7897668944385705,-0.1947905378117605,0.10356975752409889,nan
1741085446.0364854,-0.13601814247027147,-0.0898729063591467,-0.5068080105243422,-0.22743133111575334,nan
1741085446.0403893,-0.23433777364059416,0.7384960205983238,-0.5829318464030653,-0.5341793202422512,nan
1741085446.0442934,-0.22672409894215087,1.267854766153159,-0.3359935800554871,-0.6234636809581501,nan
1741085446.0481973,-0.07738365618222345,1.1472362077379403,0.13480797381428314,-0.3734279781850468,nan
1741085446.0521014,0.16311598976223488,0.35856607080264596,0.5837331882761064,0.14834710510017632,nan
1741085446.0560052,0.36595802147624457,-0.6914722844247831,0.7520475059660199,0.6752717100819265,nan
1741085446.059909,0.3940711433954869,-1.3719596325241716,0.5215813864085321,0.8823083221217874,nan
1741085446.0638132,0.1955557783606906,-1.2336585274286096,-0.0037282023328540684,0.6009206415574512,nan
1741085446.067717,-0.1449371639638951,-0.34242313159476856,-0.5442232116423805,-0.04375929817708368,nan
1741085446.071621,-0.4417735108477623,0.7279306466840774,-0.8001537879657341,-0.6878567267597165,nan
1741085446.075525,-0.5170861231506447,1.2755804965716606,-0.6276024061395926,-0.9545315482573619,nan
1741085446.079457,-0.31404422369280716,0.9643423026541338,-0.12633548008285986,-0.6978295721050113,nan
1741085446.083361,0.062380422802630515,0.06267146876374413,0.41873808163799625,-0.09122293822679849,nan
1741085446.0872648,0.40678184624062896,-0.7615447117864133,0.7086967743807449,0.5002133837266355,nan
1741085446.0911689,0.5366913629163639,-0.940727826378165,0.6064966778295153,0.7652884366297352,nan
1741085446.0950727,0.3966953461391365,-0.4203936519143705,0.20636952441902587,0.6295570925852173,nan
1741085446.0989769,0.07881883815932429,0.33009190117782444,-0.24242665565539848,0.25454735317430094,nan
1741085446.1028807,-0.24523966839832204,0.707173782657147,-0.49886583845634347,-0.11944606651304089,nan
1741085446.1067846,-0.4269028862609911,0.44764439285874497,-0.46798454289324753,-0.3452050006840279,nan
1741085446.1106887,-0.4109507274385225,-0.18623006469640008,-0.22824183456146613,-0.4224932936624774,nan
1741085446.1145926,-0.23909904513068336,-0.6446274838581586,0.052037663972893604,-0.4179658279917611,nan
1741085446.1184964,-0.0031131163039558344,-0.5442689889738992,0.2337996317094609,-0.3528744123481093,nan
1741085446.1224005,0.2086045448653896,0.03162104166837301,0.27512327853734414,-0.1773996041285108,nan
1741085446.1263323,0.33775069135476377,0.6183488723329315,0.21534204829784412,0.14352600965267076,nan
1741085446.1302361,0.35531226185540804,0.7525891023814015,0.11269410626229714,0.5242659568224858,nan
1741085446.13414,0.2549104438946013,0.33381867530734527,-0.0002028240607921877,0.754185290102134,nan
1741085446.138044,0.057227651807775906,-0.31824466773904575,-0.11108042514920383,0.6302159468497532,nan
1741085446.141948,-0.18009152818937388,-0.7329308151300217,-0.19646208381062294,0.13221020944041287,nan
1741085446.1458519,-0.3678554113494762,-0.6485827105332079,-0.2121486475008006,-0.5092612204772753,nan
1741085446.149756,-0.4183076110636235,-0.17791181148001478,-0.12635459402464164,-0.9305300150692383,nan
1741085446.1536598,-0.29277350843945454,0.3242654308125982,0.03486278334548458,-0.8691768077837491,nan
1741085446.157564,-0.03256030261259653,0.5493633469483095,0.18228650057913615,-0.34638736699760764,nan
1741085446.1614678,0.2522631706949537,0.436032930180833,0.21875442289050476,0.33996679754419773,nan
1741085446.1653717,0.4343688146640135,0.14789728004744962,0.1165376066591062,0.8086096104598354,nan
1741085446.1692758,0.4319497941463675,-0.10627903968685543,-0.05110583280111253,0.8341579273367788,nan
1741085446.1732068,0.24714461488552464,-0.2299912667301766,-0.16006471504678813,0.46511923666025873,nan
1741085446.177111,-0.03849146223794525,-0.2520766480313272,-0.13290781134170512,-0.046999732967339336,nan
1741085446.1810148,-0.30416914725257377,-0.22799221685482376,-0.003225404749672969,-0.43347215041113984,nan
1741085446.1849189,-0.4421523650378245,-0.15901267088683357,0.11128878759984875,-0.5638145420144471,nan
1741085446.1888227,-0.3991592687489841,-0.015149272940622205,0.10861469042679753,-0.4723894642583169,nan
1741085446.1927266,-0.1944378462981213,0.17929587134668268,-0.00858776851666929,-0.2714919868271019,nan
1741085446.1966307,0.08817354478459198,0.313021690218531,-0.13309442839332422,-0.04839302955674819,nan
1741085446.2005346,0.33162900018667885,0.26812840197782173,-0.1456481146407673,0.1673669892854488,nan
1741085446.2044384,0.43279310864578385,0.04576461482977641,-0.021706965925970732,0.36141190137180057,nan
1741085446.2083426,0.3490798560258156,-0.19767871291900913,0.14151152630652777,0.48332184920520305,nan
1741085446.2122464,0.12166810270033089,-0.26625196857069366,0.2047774172388385,0.45318651561034723,nan
1741085446.2161503,-0.14211096765384842,-0.10366125109760253,0.1071057242498476,0.22787954952520537,nan
1741085446.2200816,-0.32324265533733276,0.13427134001256202,-0.07786108251016055,-0.13494235280607694,nan
1741085446.2239854,-0.35289777141636103,0.20430938525863812,-0.20089883249441812,-0.4809954843708315,nan
1741085446.2278893,-0.24326073652609306,0.005476583964613185,-0.1632695004058506,-0.6399358010490379,nan
1741085446.2317934,-0.06787212557857403,-0.296073215003971,-0.0013023759514907015,-0.5255846769311981,nan
1741085446.2356973,0.09204354658919231,-0.38578381365300196,0.1450283806545649,-0.18412844722591296,nan
1741085446.2396014,0.1938727544029531,-0.08680064055848051,0.153590706312113,0.23712771254053994,nan
1741085446.2435052,0.23919102260584263,0.4344071482082124,0.026041243092740377,0.5679674033052263,nan
1741085446.247409,0.24153983527247008,0.751424466684922,-0.1152492268169272,0.6847527482974929,nan
1741085446.2513132,0.19336639546326917,0.5196457642234782,-0.1375937551260253,0.5415334137155652,nan
1741085446.255217,0.06979233570702664,-0.19592438469463572,-0.018498537365781772,0.17347228229111608,nan
1741085446.259121,-0.12915136160075974,-0.9033415959399393,0.13178654669348705,-0.30558871706674867,nan
1741085446.263025,-0.3384517869435393,-1.0348774547450672,0.1682648522865944,-0.7145793113745414,nan
1741085446.2669582,-0.4393565944129579,-0.4091100893215618,0.044415136911042895,-0.8534243877088997,nan
1741085446.270862,-0.332281156019766,0.5761929243393057,-0.1391235275139071,-0.5996595862523665,nan
1741085446.2747662,-0.024225390512243986,1.2073707348321892,-0.21812916481977335,-0.010825317490832168,nan
1741085446.27867,0.34259680375316354,0.9942921591920606,-0.11093536294739086,0.6508669433099564,nan
1741085446.2825742,0.5599821646053909,0.06524189324420278,0.10187391659818508,1.0284412577538287,nan
1741085446.286478,0.4857580508354509,-0.9080220346765319,0.23934163371726158,0.8778171443887675,nan
1741085446.290382,0.14728924952466776,-1.2128934236952342,0.17552026336909776,0.24383275087174974,nan
1741085446.294286,-0.2640307648129659,-0.6387019991592676,-0.045265123794133874,-0.5318435357381651,nan
1741085446.2981899,-0.5119751725346412,0.3667603776586706,-0.23752602656632982,-1.0038862615534616,nan
1741085446.3020937,-0.46791280161333415,1.0489332136520257,-0.22966042861679775,-0.9034032868430577,nan
1741085446.3059978,-0.18854028922993948,0.9256830894426197,-0.015057672284123094,-0.31379858228578356,nan
1741085446.3099017,0.13496324138887772,0.13861091672736686,0.23274983268531033,0.3863541182459735,nan
1741085446.3138347,0.3150126387374283,-0.6874467424329374,0.30012455725144893,0.7780924348898017,nan
1741085446.3177385,0.28892196806721226,-0.9450211177457302,0.11445199627747618,0.6750684445354103,nan
1741085446.3216426,0.13763810343809674,-0.49744925666684053,-0.18696069949261113,0.2229541057028532,nan
1741085446.3255465,-0.0009316203963663652,0.26113047015871665,-0.36249781085204036,-0.2357956513259167,nan
1741085446.3294506,-0.04628888372423973,0.7533891878113141,-0.26244314209242825,-0.419269595906823,nan
1741085446.3333545,-0.02505089440508792,0.6677803768180632,0.0459533904897254,-0.28999498778463484,nan
1741085446.3372583,-0.023419594582499675,0.15157740928488786,0.3289652524414329,-0.03828441449153397,nan
1741085446.3411624,-0.09216075169814247,-0.3699287674151363,0.37182312606709556,0.10121665361339872,nan
1741085446.3450663,-0.19044588566186219,-0.5554601869505849,0.1474284599220682,0.04172897631678389,nan
1741085446.3489702,-0.2176560556803378,-0.37840232644122523,-0.1677604468886149,-0.10584610704068674,nan
1741085446.3528743,-0.10497326117351015,-0.0651096071721754,-0.33917579857974445,-0.15185347631371365,nan
1741085446.3567781,0.11288133681241376,0.15246845916337629,-0.25801872574089907,-0.0050776949633296615,nan
1741085446.3607106,0.3088384023897898,0.22147023094580798,-0.014569927640952562,0.24187776889841758,nan
1741085446.3646145,0.3516732942490239,0.23748832101872072,0.19075337421107666,0.38606175611549076,nan
1741085446.3685186,0.2022861607494462,0.2703344008327479,0.21525632688606672,0.2816358955213117,nan
1741085446.3724225,-0.056473469013654756,0.2524117088195934,0.07863976897693273,-0.036320003831605066,nan
1741085446.3763266,-0.2770510123833777,0.057437878434729174,-0.07508886177869657,-0.3690934078086903,nan
1741085446.3802304,-0.34497801089872093,-0.3108988699762497,-0.11345142021342697,-0.49609458795411,nan
1741085446.3841343,-0.24449927850156672,-0.6310556099731788,-0.026034797124394413,-0.33060528800043343,nan
1741085446.3880384,-0.05120516427184826,-0.6053008534212969,0.08162049806856093,0.024219436444323516,nan
1741085446.3919423,0.13032994312383833,-0.13443951118415304,0.09482137930876385,0.35148679787970116,nan
1741085446.3958461,0.2297615626169218,0.526496492203886,-0.004517819004073369,0.46494762057435907,nan
1741085446.3997502,0.2328058152350885,0.9094109663042836,-0.12626531864333537,0.3188041385507581,nan
1741085446.403654,0.1618391087187465,0.6928318914291975,-0.15825910446910119,0.018050329500863237,nan
1741085446.4075863,0.04751527826296924,-0.011972234369128495,-0.06727324250829439,-0.2606537750679087,nan
1741085446.4114902,-0.08050739270260929,-0.7089687872121432,0.07568359900368846,-0.3746237495948192,nan
1741085446.415394,-0.18567942871043114,-0.8901268276647701,0.16258601768157085,-0.28360120371835873,nan
1741085446.4192982,-0.2238008181348762,-0.4398143980635613,0.14119964084729067,-0.05460314834449802,nan
1741085446.423202,-0.16518975485362725,0.2685010997751512,0.04894133923969554,0.18386220007032722,nan
1741085446.427106,-0.025745436937496292,0.6760295303417893,-0.03592934596569338,0.3077358228236813,nan
1741085446.43101,0.12613613426179246,0.4972155817542581,-0.07082804001168018,0.2554470740835726,nan
1741085446.4349139,0.20518844980217005,-0.052045733200193435,-0.07642742898768896,0.057779544163251956,nan
1741085446.438818,0.16764701284564834,-0.453216635543877,-0.09260821747011506,-0.17401495412443843,nan
1741085446.4427218,0.04614897001258209,-0.34390333673475176,-0.11526666879799978,-0.3033981184233411,nan
1741085446.4466257,-0.07189899284376307,0.15894261773802199,-0.08780298754739824,-0.24615279693919598,nan
1741085446.4505298,-0.11006399735932719,0.5577122199478786,0.03462758402309614,-0.027657352472336548,nan
1741085446.4544618,-0.06097289044656444,0.4191775376108851,0.21002442796851872,0.2221785935735146,nan
1741085446.4583657,0.01200653346479568,-0.21667475437779443,0.3093271042971934,0.34403393722012515,nan
1741085446.4622698,0.032301643447653086,-0.8297967568768675,0.21364516393024774,0.25215714920613236,nan
1741085446.4661736,-0.02119499629851013,-0.8442915701189281,-0.06568788202901918,-0.004261491058983656,nan
1741085446.4700775,-0.093737770029591,-0.1371195154645876,-0.3578808561893392,-0.2682535709233937,nan
1741085446.4739816,-0.1020724520147982,0.8065542409703652,-0.442523045266968,-0.3763724465981962,nan
1741085446.4778855,-0.010558377333746686,1.247590268411321,-0.2251562246046167,-0.2648237692009957,nan
1741085446.4817894,0.1295350698464004,0.7863914305931851,0.16606966218148536,-0.006588047794004823,nan
1741085446.4856935,0.21392941423354045,-0.28834238983468413,0.4569592785948968,0.24329998411628448,nan
1741085446.4895973,0.16736530456090304,-1.1943334092377524,0.4316164352869895,0.3503576126950656,nan
1741085446.4935014,0.007000514298713527,-1.253739355571047,0.10543450125235915,0.27693479366070517,nan
1741085446.4974053,-0.1656667038857945,-0.4218316389709444,-0.27833889050297617,0.08557296844251033,nan
1741085446.501337,-0.23893740450864304,0.6765575623625383,-0.43474981373977567,-0.11821968327937739,nan
1741085446.505241,-0.1720229821340462,1.2321986099379851,-0.26043896037437736,-0.2511233681279205,nan
1741085446.5091448,-0.019687488665479407,0.8713516017066076,0.08745738115448794,-0.28036643273110073,nan
1741085446.513049,0.11546524425659639,-0.07773563520282832,0.3231593541866996,-0.21221910477343622,nan
1741085446.5169528,0.16057712748985525,-0.8689712577954934,0.2673423461007921,-0.07090525149976887,nan
1741085446.5208566,0.11715049880737814,-0.9301561723339173,-0.009099543537800892,0.10580424631759221,nan
1741085446.5247607,0.042337317135158474,-0.28710077212724405,-0.2520749693450553,0.2594142650683014,nan
1741085446.5286646,-0.008645651742122146,0.5006865812161085,-0.2449764880727016,0.31884964132120147,nan
1741085446.5325687,-0.02526545336699772,0.8123234589175008,0.004114803579195651,0.23745474174229894,nan
1741085446.5364726,-0.035319193228088026,0.4498236161699813,0.2685524790685053,0.036174432631400896,nan
1741085446.5403764,-0.06283853114766702,-0.24454781162953507,0.29917939421314915,-0.18981001847799397,nan
1741085446.5442805,-0.09525893831804803,-0.700529537345147,0.04469071953165383,-0.3212228956774198,nan
1741085446.5482116,-0.09290143166429059,-0.5815735380710586,-0.29288515984192925,-0.2921322386604364,nan
1741085446.5521157,-0.03125950880742887,-0.022117968033836873,-0.42004989899068185,-0.13431075286194466,nan
1741085446.5560195,0.0660189125122002,0.522653990258429,-0.20008060824611132,0.05035030306319838,nan
1741085446.5599234,0.1377868003985612,0.6567989880391666,0.2195308711673239,0.1682856465650211,nan
1741085446.5638275,0.13328590308169327,0.3320393622180428,0.5116281162411801,0.19699513187828,nan
1741085446.5677314,0.0552062270560822,-0.16676410283069223,0.4272715576011659,0.17880245758029303,nan
1741085446.5716352,-0.04131553012672288,-0.4845302577704326,0.0009552106239323711,0.15624206352466996,nan
1741085446.5755394,-0.09378321248466912,-0.4640508563522983,-0.4632292481956645,0.11653499171168094,nan
1741085446.5794432,-0.08176734209767286,-0.20981682721951025,-0.617137195680191,0.0065080504111210925,nan
1741085446.5833473,-0.03724228524164416,0.06140261128139247,-0.33168420377672975,-0.1895993320721392,nan
1741085446.5872512,-0.008442708764076271,0.21477900177026993,0.20402841807811534,-0.3869383458032248,nan
1741085446.591155,-0.01252690991479704,0.26214381310098783,0.6196092175011159,-0.42989678480526966,nan
1741085446.595086,-0.022097501240248302,0.27159545147666453,0.6286179831506117,-0.214015225310646,nan
1741085446.59899,0.001927956175343431,0.24735198312791495,0.2249383844149412,0.19528713026399028,nan
1741085446.602894,0.06345789208361635,0.11840435701628368,-0.32452979155702266,0.5624167297113623,nan
1741085446.606798,0.11764573331605603,-0.15175408468717527,-0.6703068243958734,0.6293162848817301,nan
1741085446.6107018,0.10760269794065619,-0.45775989416828416,-0.6084634674273935,0.3126416466558018,nan
1741085446.614606,0.01998595302305269,-0.5809672450212684,-0.19326201344333221,-0.20797036989517428,nan
1741085446.6185098,-0.09320898378779088,-0.359230105282822,0.32080205806054657,-0.5979106596997389,nan
1741085446.6224139,-0.15152072110307507,0.14336131205628314,0.6452139895704102,-0.6046668127286111,nan
1741085446.6263177,-0.11285551614852421,0.6312442052793843,0.6167407400420944,-0.24427801926077913,nan
1741085446.6302216,-0.011133514086793694,0.7703524032324383,0.2658459971199886,0.21284734771592456,nan
1741085446.6341257,0.07159352826366451,0.4391225870894614,-0.21912614910901393,0.4503860288716836,nan
1741085446.6380296,0.07667278532631384,-0.1650601478464557,-0.5927762411589007,0.34457658040972355,nan
1741085446.6419628,0.02048287211617346,-0.6574939983088621,-0.6669055766620312,0.042182448982581375,nan
1741085446.6458666,-0.022637905787037536,-0.7380704980500336,-0.39719008782622495,-0.180901952421706,nan
1741085446.6497707,0.0062156536357639266,-0.39356861719570474,0.08847959914442323,-0.1572223366662245,nan
1741085446.6536746,0.08713461748645179,0.11907217361332009,0.5405582414287721,0.04034549032646904,nan
1741085446.6575787,0.13037446244292822,0.47914146457273515,0.7106657117153308,0.1812072612500799,nan
1741085446.6614826,0.05730939587165673,0.5240983856779164,0.4940836490166152,0.09666365086305513,nan
1741085446.6653864,-0.11523980455224651,0.31945167912968264,0.006139277744232529,-0.1599667675259054,nan
1741085446.6692905,-0.26717555533790066,0.05038003160666629,-0.4722331825646065,-0.35636440797628427,nan
1741085446.6731944,-0.2625634489535096,-0.14421618448308113,-0.6635503684043054,-0.2907411007868295,nan
1741085446.6770985,-0.06661490906636851,-0.2471592254773649,-0.47219257140752896,0.01884890435507989,nan
1741085446.6810024,0.2075186351348526,-0.30425881349415096,-0.044837584189430235,0.3379249765745805,nan
1741085446.6849062,0.3708561334001819,-0.31911114140140295,0.3373401464055042,0.4145764211185876,nan
1741085446.6888392,0.3004215044078887,-0.225171601415849,0.4586296557043835,0.199951605052462,nan
1741085446.6927433,0.0386487561985657,0.029200002969729997,0.3097934634007436,-0.10881541042871865,nan
1741085446.6966472,-0.23337755904817858,0.37108432399318086,0.06327609759656665,-0.24733669865158367,nan
1741085446.700551,-0.3320798727617529,0.5959682113147028,-0.08972234142732548,-0.12706098873996463,nan
1741085446.7044551,-0.20962129949492797,0.5026018591443676,-0.09788941038590956,0.08101201696240269,nan
1741085446.708359,0.016870399222007577,0.07160607147753842,-0.06716002725079151,0.10949747967756931,nan
1741085446.7122629,0.1675246578095412,-0.47000118957719966,-0.12604985012883554,-0.1337299821538211,nan
1741085446.716167,0.14741133020821992,-0.7764841077927943,-0.26833651235952505,-0.43788278504798733,nan
1741085446.7200708,0.016545186246303252,-0.6239460748278098,-0.3301586365977576,-0.44714340587131046,nan
1741085446.723975,-0.07457883572519788,-0.08264123549260208,-0.1408408276176522,0.007231198338998563,nan
1741085446.7278788,-0.02607108230569632,0.5166299773056007,0.27924176986237065,0.6887316065608964,nan
1741085446.7317827,0.11729263739772766,0.8032567636322367,0.6649829693472347,1.073064803668915,nan
1741085446.7357152,0.20282281922289827,0.61328930710684,0.6806451530946717,0.749459700305665,nan
1741085446.739619,0.10843833967349549,0.08533697204722034,0.20491021709931492,-0.2041134756142076,nan
1741085446.7435231,-0.13620336276199754,-0.45081546846151827,-0.5114890309184832,-1.1972452054368699,nan
1741085446.747427,-0.35462197104260723,-0.6966408419757589,-0.9777888685163738,-1.5186125409214792,nan
1741085446.751331,-0.35863267944549443,-0.5559954854148527,-0.8178310144240136,-0.867842196926122,nan
