timestamps,TP9,AF7,AF8,TP10,Right AUX
1741050986.7418866,0.9739123646996313,-0.09817941422762941,0.4250533414618769,0.2252914104336668,nan
1741050986.7457922,0.35804953017032215,0.516976291723651,1.4222690479524562,-0.2776057462220494,nan
1741050986.7496974,-0.5126040905053063,0.8941407635991726,1.607185668492604,-0.479631345399448,nan
1741050986.753603,-1.0525920645384972,0.7743147147284979,0.9036790884058217,-0.24867192796528076,nan
1741050986.7575085,-0.8908884284619533,0.20222337760664957,-0.23375578658657803,0.19188474273408115,nan
1741050986.7614138,-0.16015312981078575,-0.49467637203409875,-1.1278202960711805,0.44763346375530755,nan
1741050986.7653193,0.5972997176934498,-0.9140243343970598,-1.3095574937340222,0.2781546894054019,nan
1741050986.769225,0.8423823356651128,-0.8289895751500372,-0.7819461263049842,-0.19980232061738104,nan
1741050986.7731302,0.4476087467391512,-0.31542709639833577,0.04302037483361061,-0.5986592097392267,nan
1741050986.7770357,-0.22187164006810864,0.3164687585214961,0.6583794439463688,-0.5700996362858936,nan
1741050986.7809412,-0.6149205129923344,0.7242916994543452,0.7884980398729451,-0.09030528955282366,nan
1741050986.7848465,-0.4378501121208754,0.7293454663995411,0.5081856998127691,0.5101330663609289,nan
1741050986.7887583,0.12255090790984513,0.38965070346111647,0.10811140140226512,0.7967981547906704,nan
1741050986.7926636,0.5698723152282813,-0.07222648589188911,-0.1540632032756401,0.5627300627505489,nan
1741050986.796569,0.5149112412318403,-0.41716113872270044,-0.2169684242641807,-0.02097230847411565,nan
1741050986.8004746,-0.00536665040131879,-0.5138071273081871,-0.18992737531322335,-0.5471937974902914,nan
1741050986.80438,-0.5638914940144611,-0.37698862458765064,-0.19749056799035739,-0.6845381332816194,nan
1741050986.8082855,-0.6980523141424365,-0.12248404716983909,-0.24762787879096584,-0.40799101997881027,nan
1741050986.812191,-0.2882953093421846,0.11459271712548122,-0.23602061151874903,0.02332639672953718,nan
1741050986.8160965,0.34715272525439933,0.24624475379959432,-0.06885045613632032,0.3005158835228201,nan
1741050986.8200018,0.7128572270770575,0.2559555733426983,0.21753621394549913,0.3042880686461497,nan
1741050986.8239074,0.5346288198053417,0.18298251279891806,0.4544451556612319,0.1564354214800236,nan
1741050986.827813,-0.02769711708068904,0.08553129684214776,0.4643419598325208,0.0631214222438784,nan
1741050986.8317182,-0.5192623227134742,0.005195568000195302,0.2074772830529109,0.10735627606387622,nan
1741050986.835634,-0.5603719305600234,-0.0498572048887895,-0.1724983019364542,0.17991212841898446,nan
1741050986.8395395,-0.14569215652308595,-0.09582050622195461,-0.4447509155786583,0.10385485561758935,nan
1741050986.843445,0.3639140836886235,-0.1458890022512367,-0.45418592540686903,-0.16920822102696065,nan
1741050986.8473504,0.5411067872718583,-0.18572541317692018,-0.2240134226075867,-0.4771111779500906,nan
1741050986.851256,0.23663614566338864,-0.1744453242025906,0.07683121822842329,-0.5625908486545377,nan
1741050986.8551614,-0.3051156868158962,-0.07683612599635138,0.2666981070312553,-0.29256696246891367,nan
1741050986.8590667,-0.6438315374421819,0.0945842207810686,0.27479957701061836,0.20792620085591532,nan
1741050986.8629723,-0.490602299777696,0.2645737710833942,0.16337398942205053,0.6275798556372876,nan
1741050986.8668778,0.06821036306075506,0.3301813382159294,0.046526857590397507,0.6940584828802414,nan
1741050986.870783,0.6372316775278185,0.23020771620980238,-0.012857678451260148,0.37227465192247683,nan
1741050986.8746886,0.8070822605327514,-0.00038155488931208116,-0.03860628390746005,-0.12012395409269107,nan
1741050986.8785942,0.4491225186982493,-0.23850473827028823,-0.08798182583846421,-0.48330033534874106,nan
1741050986.8825092,-0.2039461186229144,-0.34768697538124443,-0.16991956770090955,-0.5467754575520709,nan
1741050986.8864148,-0.7338045625147523,-0.2700093467818836,-0.2181259080399212,-0.3564875552671433,nan
1741050986.8903203,-0.824119836281366,-0.06626698953451447,-0.1489370778393165,-0.08873544816937584,nan
1741050986.8942256,-0.4523992765041174,0.12932983987280616,0.04712842041423954,0.11129631979709687,nan
1741050986.8981311,0.13000858207358848,0.20747991562912152,0.2672174173773695,0.21981956589801493,nan
1741050986.9020367,0.5859424402114843,0.15884770179437555,0.35655980069027077,0.29015928967763804,nan
1741050986.905942,0.7002652486032925,0.06649905016473438,0.2274400035270334,0.3422630921010659,nan
1741050986.9098475,0.4745354471799484,0.02361288117037852,-0.058968989406456875,0.3118144069757575,nan
1741050986.913753,0.07702083888883406,0.04761168280260918,-0.32063363503784403,0.1178325618989237,nan
1741050986.9176583,-0.2845774092446517,0.06670243685889095,-0.3798593429248739,-0.21733440527411993,nan
1741050986.9215639,-0.4718491760938388,-0.006204314905504598,-0.19371191993734815,-0.5244536746505264,nan
1741050986.9254694,-0.4527660232181919,-0.17510418333384853,0.11060969616346493,-0.586695831331523,nan
1741050986.9293838,-0.2769240369351521,-0.32880203811765335,0.3249905053081753,-0.31419199719867513,nan
1741050986.9332893,-0.030550657235868008,-0.31556042650514804,0.30899345775648723,0.1561896706360181,nan
1741050986.9371948,0.1977884256985334,-0.07387373264355555,0.0877006242648765,0.5359114976252377,nan
1741050986.9411001,0.33702467120015045,0.2877600705844172,-0.1722037025071881,0.5892811682076068,nan
1741050986.9450057,0.3483879188653179,0.5395812494241906,-0.287281218200222,0.3066947336465305,nan
1741050986.9489112,0.23717028033456958,0.4869942305001883,-0.18858594876005802,-0.09529451797192806,nan
1741050986.9528165,0.052211318194613415,0.12293834072439945,0.03613682538777964,-0.3474707988642543,nan
1741050986.956722,-0.13386139971233774,-0.343826538180636,0.21524832846498274,-0.33113975749869107,nan
1741050986.9606276,-0.25595900645838643,-0.6177746076918489,0.22193865838953278,-0.14495226769612038,nan
1741050986.9645329,-0.28109218636967875,-0.517772391333856,0.06266415186285869,0.01098292391598323,nan
1741050986.9684384,-0.2133807620637437,-0.1061733723527756,-0.13589109982457118,0.022586235429379573,nan
1741050986.972344,-0.0829816466599296,0.3500498214456383,-0.22551835798458036,-0.04782122486344742,nan
1741050986.9762578,0.06750500737765512,0.5608724431315739,-0.1446368018410111,-0.04469649049086312,nan
1741050986.980163,0.19121537016155574,0.40868117024023415,0.041938601914366956,0.10717581859096238,nan
1741050986.9840686,0.24482745166875353,0.020088059143771216,0.19558939694926986,0.30583081525053046,nan
1741050986.9879742,0.20431775736383762,-0.332237999327674,0.2059876154176585,0.3504448749582651,nan
1741050986.9918795,0.08444272600333852,-0.42220340314785104,0.06803160394483246,0.1315404536081709,nan
1741050986.995785,-0.057125739561499765,-0.21899748251444523,-0.1185262194390142,-0.24020429025588813,nan
1741050986.9996905,-0.14687839171996062,0.10789091203123755,-0.22213581952859196,-0.49544664974019165,nan
1741050987.0035958,-0.14415419351408204,0.3205323039677792,-0.1711835559076652,-0.421345697757863,nan
1741050987.0075014,-0.07506282563715057,0.28027468837861563,-0.0011730323203115087,-0.050858887715852744,nan
1741050987.011407,-0.01644833165305308,0.03392906250096619,0.1721102939688091,0.34390641252155807,nan
1741050987.0153122,-0.03175811394322461,-0.23287170939956423,0.23201387303205204,0.46288984308358105,nan
1741050987.0192177,-0.10671814329519985,-0.33163446318029305,0.1382355191776115,0.22419637521687022,nan
1741050987.0231311,-0.14506222646769187,-0.19730868407890453,-0.04846041327690569,-0.16361938515277444,nan
1741050987.0270364,-0.043286972145440195,0.0771769701565475,-0.20773084606600425,-0.37158988366812656,nan
1741050987.030942,0.20500422516446828,0.3113529807135858,-0.23793178411375815,-0.2261151987411907,nan
1741050987.0348475,0.4632561675088095,0.3571353549805402,-0.11989739180913025,0.14108433625704525,nan
1741050987.0387528,0.5210527830799635,0.1884195325680944,0.07327885783647972,0.3999804363376588,nan
1741050987.0426583,0.2474082571684193,-0.09100305871743196,0.2240261313723424,0.3019015973074921,nan
1741050987.0465639,-0.27983104631909184,-0.3172692285103619,0.24317836235292767,-0.10169891728000499,nan
1741050987.0504692,-0.7776250571599057,-0.36525982495847026,0.12197256166527956,-0.4890890373517008,nan
1741050987.0543747,-0.9167053890998548,-0.2170922529432022,-0.0668688667048279,-0.5283692955456447,nan
1741050987.0582802,-0.5420296722168731,0.03538436902139572,-0.21575199876705164,-0.15493755391837788,nan
1741050987.0621855,0.1967512919342796,0.24986592620730594,-0.24501219426851464,0.36506709818712146,nan
1741050987.066091,0.9063144406777259,0.31690946021970245,-0.14423411838055644,0.6413817105883949,nan
1741050987.0700042,1.1762349256441547,0.21869516876206319,0.028364930467028503,0.46878372790501777,nan
1741050987.0739095,0.8298183152921614,0.030693895924459865,0.182271283945806,-0.01356715587866553,nan
1741050987.077815,0.03748337243705016,-0.1320806755105116,0.2422786453036729,-0.44031460277344686,nan
1741050987.0817206,-0.7797935540490962,-0.18888075324650433,0.18228639328432178,-0.5140407677708996,nan
1741050987.085626,-1.1937396712261503,-0.13905030588412215,0.03295380626617167,-0.2317546458842835,nan
1741050987.0895314,-1.0064230283206477,-0.05016801340903206,-0.13472433932010622,0.13752046058737596,nan
1741050987.093437,-0.34329516024584195,0.0013416442752522749,-0.24029544911397988,0.29406614187624736,nan
1741050987.0973423,0.4388835022737927,-0.007948977345232247,-0.22850233614684554,0.15705533146591796,nan
1741050987.1012478,0.9577454056344569,-0.03264479909961114,-0.09696122498823376,-0.08738314622252774,nan
1741050987.1051533,0.9986286106808473,-0.0031188488222438325,0.0953137990018555,-0.1716361565398463,nan
1741050987.1090586,0.5961510633303715,0.10363682650428142,0.248772014443919,0.0030639864763022926,nan
1741050987.1129642,-0.018246973298520295,0.2264534080400166,0.2721506474641231,0.2726965218058312,nan
1741050987.116876,-0.5522652630010407,0.2540278368782128,0.13834980682065123,0.35576523606645005,nan
1741050987.1207814,-0.7918988980005731,0.11299015385360205,-0.08739331410805028,0.11170346298085937,nan
1741050987.124687,-0.6804900155188517,-0.15603030207223523,-0.273975353444743,-0.31396704166702627,nan
1741050987.1285923,-0.31580701382691073,-0.4004723228001392,-0.30030133195119096,-0.5897146624854817,nan
1741050987.1324978,0.11728519848326042,-0.4480876302154957,-0.13728132607144083,-0.4666948642017229,nan
1741050987.1364033,0.4385943011344122,-0.23085218007384595,0.12151659920475748,0.006365260282615874,nan
1741050987.1403086,0.5461513359315106,0.15016551892610977,0.31082803389091496,0.504001065538163,nan
1741050987.1442142,0.44266813935928645,0.4743985386997101,0.3008549517897398,0.6693254344632943,nan
1741050987.1481197,0.21052912766276258,0.5403744195216257,0.08988591372788833,0.3881381599260344,nan
1741050987.152025,-0.0434838657888299,0.3004013938437742,-0.1861469785544063,-0.12695672576962827,nan
1741050987.1559305,-0.2390238798495665,-0.10360830247016141,-0.3412139304624943,-0.5059141215116143,nan
1741050987.159836,-0.34171438721651465,-0.43060462197883503,-0.26727019867739127,-0.5041223035011398,nan
1741050987.1637523,-0.3497505627603137,-0.4957940318916064,-0.012373957820814801,-0.1738443553996854,nan
1741050987.1676579,-0.27032672499152166,-0.2845407700509577,0.24992005933978872,0.20235533076983128,nan
1741050987.1715634,-0.11252274072234975,0.050396241132799606,0.34109995590709447,0.34799182498258013,nan
1741050987.1754687,0.09724062441098263,0.30001283423676894,0.2026609553652255,0.2011755093102804,nan
1741050987.1793742,0.298147328793571,0.33642716627991914,-0.06477968485505775,-0.06563392866841533,nan
1741050987.1832798,0.4051145200388269,0.1823630443086294,-0.27598392847648584,-0.2122722274555455,nan
1741050987.187185,0.3530015761831838,-0.026621995870088604,-0.2934555067343158,-0.13242548100737123,nan
1741050987.1910906,0.14718522810407672,-0.14900023131785156,-0.12045917158777132,0.0759960087088875,nan
1741050987.194996,-0.12268440951130116,-0.13179081107789092,0.1107958903778261,0.2156982793443218,nan
1741050987.1989014,-0.326803274393783,-0.029750276896839935,0.24163316334981053,0.16606936055546226,nan
1741050987.202807,-0.3727539858499109,0.05319769962839284,0.19987247420307233,-0.022949036368467783,nan
1741050987.2067125,-0.26098623469762894,0.047985671688084264,0.04038108742995145,-0.18981268422624836,nan
1741050987.2106287,-0.0756352037493186,-0.033117811626673835,-0.10992612512688617,-0.20844418461435857,nan
1741050987.2145343,0.0819643695993979,-0.11531908431809514,-0.15256962464378812,-0.0894087770411031,nan
1741050987.2184396,0.16317844794089068,-0.12328020934698458,-0.0838242642509175,0.047675039286465784,nan
1741050987.222345,0.18912112884764096,-0.03704986499050855,0.01885831103724531,0.09414153297163108,nan
1741050987.2262506,0.20478122722299283,0.09602166120714364,0.06982751962017285,0.04915278151869055,nan
1741050987.230156,0.2163966601000366,0.19578845609965212,0.04319758255753556,0.0061194906117956705,nan
1741050987.2340615,0.1746026814980924,0.20146699480771801,-0.017249953888884135,0.04692827604630664,nan
1741050987.237967,0.025172283614257197,0.10621035884546025,-0.04651970539958297,0.14790053963924557,nan
1741050987.2418723,-0.2153106384021087,-0.04363598671363843,-0.01780503021452391,0.1904048213039745,nan
1741050987.2457778,-0.4323926632415241,-0.17765562248150013,0.038462538990661814,0.07226139513229426,nan
1741050987.2496834,-0.4745947584273385,-0.2375408693261544,0.06778840228326734,-0.1792256180921428,nan
1741050987.2535887,-0.2665328448343166,-0.20092845848488772,0.042895091817800705,-0.3998036607759991,nan
1741050987.257509,0.11394365637310272,-0.08540530868362028,-0.013794988081322943,-0.40534022604579134,nan
1741050987.2614145,0.46465781854157395,0.06335234688858607,-0.05423382451046342,-0.14332512029716168,nan
1741050987.26532,0.5844647579383766,0.1905162376408336,-0.05020583780571117,0.24689337878540885,nan
1741050987.2692254,0.40719083740840256,0.25053242801104725,-0.017041344677463446,0.5209379126908491,nan
1741050987.273131,0.044665005616825196,0.2207026955179754,0.005522708715130731,0.5010085025134808,nan
1741050987.2770364,-0.29323212961141193,0.10792445734645603,-0.004348848536162405,0.2013398886901994,nan
1741050987.2809417,-0.43999308308131907,-0.052365480791023676,-0.026729900099660153,-0.18678795492541028,nan
1741050987.2848473,-0.3694599436729592,-0.20527116084600133,-0.019080631376877134,-0.43435123586183355,nan
1741050987.2887528,-0.18242179908635714,-0.29256866943991733,0.03777394808272671,-0.42837388922905917,nan
1741050987.292658,-0.006937427510075217,-0.2729802972999991,0.11032213413974862,-0.22706626871228955,nan
1741050987.2965636,0.09837250540807183,-0.14108205750126443,0.13130167603897053,0.012254924052166414,nan
1741050987.3004692,0.16092579992942443,0.06309061662679431,0.05628120011196942,0.16134992129330664,nan
1741050987.3043835,0.22906352600174446,0.2616739293435072,-0.08879691472666619,0.1996756811537174,nan
1741050987.308289,0.2956135505023119,0.366648408077725,-0.21312781493884894,0.19056502146567436,nan
1741050987.3121946,0.2870601075212298,0.319936865918965,-0.2221755754824859,0.19215727007383082,nan
1741050987.3161,0.13240282478567528,0.12750725560381618,-0.09025260681366322,0.1909240851633807,nan
1741050987.3200054,-0.14990004134912374,-0.13370279711163424,0.11243936265054122,0.11801161262102754,nan
1741050987.323911,-0.42983726962642727,-0.3462333602765353,0.26228920707114733,-0.06894586470860986,nan
1741050987.3278162,-0.5390637911305844,-0.4088387856484605,0.2651377362132465,-0.3154135973587357,nan
1741050987.3317218,-0.3884882136977475,-0.2897914464331695,0.1193779879905188,-0.47987503816118315,nan
1741050987.3356273,-0.03884971927176606,-0.045218896338277505,-0.08550631772944789,-0.4261117137369022,nan
1741050987.3395326,0.331982825734104,0.20996975165547346,-0.23108614748763576,-0.1303733711563161,nan
1741050987.3434381,0.5405020805594934,0.36216378380532505,-0.2456271831737658,0.2799368672261236,nan
1741050987.3473437,0.5045788608618584,0.3547189279751604,-0.14064753226871632,0.5903553105624878,nan
1741050987.3512576,0.2728418031727216,0.20815496889547483,0.010620997189083967,0.6259799146342223,nan
1741050987.3551629,-0.030520310884446955,-0.0017913290476337894,0.12850266630185297,0.3568387993825692,nan
1741050987.3590684,-0.28892572208056577,-0.1885677864453372,0.17219286322842486,-0.08484517771725855,nan
1741050987.362974,-0.4391602005054213,-0.29230459005760046,0.1475655011655077,-0.48165504336949017,nan
1741050987.3668792,-0.4612359250932969,-0.29281740997107614,0.08367386068931885,-0.6495755486895252,nan
1741050987.3707848,-0.34842406351531047,-0.2016047091151176,0.00605431712085413,-0.5269692322224387,nan
1741050987.3746903,-0.10464882733846664,-0.04880724804333745,-0.07072043712987554,-0.19013013639986998,nan
1741050987.3785956,0.22343618599957674,0.12337622860823066,-0.13257906824109494,0.20027051008492955,nan
1741050987.3825011,0.5213857475738691,0.26328160807850093,-0.1570605137703845,0.48195768874242434,nan
1741050987.3864067,0.6375600513346253,0.31900197329893587,-0.12189175226664456,0.5578769952484023,nan
1741050987.390312,0.47111399161970047,0.258752920372048,-0.026706012782524595,0.4217043837398507,nan
1741050987.3942175,0.05879885369192593,0.09265216329888817,0.09310964125576661,0.1430743799864852,nan
1741050987.3981311,-0.4144913532370742,-0.12156655047101407,0.17825716564873956,-0.16971495195649156,nan
1741050987.4020364,-0.707510025576018,-0.2986424756380497,0.17991476223297895,-0.4096934022329269,nan
1741050987.405942,-0.6643294684608578,-0.36357697497029606,0.09303545568073243,-0.5015639656217304,nan
1741050987.4098475,-0.3099017334452117,-0.2860564939005245,-0.037000099926368324,-0.4188215699500373,nan
1741050987.413753,0.16707445067827278,-0.09306775581330018,-0.1410189753625097,-0.18867707939556214,nan
1741050987.4176583,0.530059915449423,0.14375013741568568,-0.1680156852099884,0.11428795505118981,nan
1741050987.4215639,0.6274609784288515,0.33558698774474355,-0.11366994136330179,0.38655962981287256,nan
1741050987.4254694,0.4568444450501358,0.40593588789468193,-0.017476560825581397,0.5263184552324419,nan
1741050987.4293747,0.1336868481598729,0.31588578786942884,0.06643252386907893,0.4709529837833109,nan
1741050987.4332802,-0.1932307413119781,0.08343553171180797,0.10246256408641156,0.22822382061679947,nan
1741050987.4371858,-0.41291753578087464,-0.20961432110856681,0.08888547406011332,-0.11627299762647754,nan
1741050987.441091,-0.4741216961117788,-0.43632739121889236,0.049063175230421405,-0.4264500559786047,nan
1741050987.4450042,-0.37279685610762253,-0.47624675114332626,0.009667670155326621,-0.5719352474776621,nan
1741050987.4489095,-0.14105653971931992,-0.28423580899557777,-0.01646633515704164,-0.48821799492454443,nan
1741050987.452815,0.148558417049598,0.0643406885992623,-0.03224469957400687,-0.208710990634608,nan
1741050987.4567206,0.38527886836120867,0.3939112723838201,-0.04549674569470451,0.15038151416322118,nan
1741050987.460626,0.45710154614613807,0.5203170011560428,-0.05681948326225957,0.44459990879088396,nan
1741050987.4645314,0.31690120676439054,0.3656882235078208,-0.05660777537372907,0.5644830005159478,nan
1741050987.468437,0.030134619932610948,0.018623386878661177,-0.0334360489644279,0.4745824963129883,nan
1741050987.4723423,-0.24679889357488294,-0.31224961158250564,0.013129629586369016,0.21477495288915266,nan
1741050987.4762478,-0.35995735200732115,-0.43086760871381563,0.06588552032212788,-0.12470657555237576,nan
1741050987.4801533,-0.26209905163600267,-0.28440957478715,0.09629741364840153,-0.43309868061316986,nan
1741050987.4840586,-0.046428219723853734,0.0032001226590569177,0.08169751075958794,-0.6031614262550983,nan
1741050987.4879642,0.12342503274959592,0.22369644015690915,0.022790056455613363,-0.5559463791147308,nan
1741050987.491876,0.1380001675863719,0.23719689971767338,-0.05156394685931402,-0.27487557471823465,nan
1741050987.4957814,0.02372906763126585,0.07082516321282574,-0.09874420699312984,0.16130686573644198,nan
1741050987.499687,-0.0852742102477357,-0.11229270644239268,-0.08942625306674756,0.5787609087685278,nan
1741050987.5035923,-0.06419952141157284,-0.14904014484492148,-0.029597892025972645,0.7697918731977832,nan
1741050987.5074978,0.09205107706035401,-0.009325022474897967,0.04014544038455682,0.6033144819846414,nan
1741050987.5114033,0.25739249206146136,0.18049373751996714,0.07148314909694846,0.12300489260915272,nan
1741050987.5153086,0.27435461166232683,0.24288343061883882,0.0445586208998273,-0.44339524495682897,nan
1741050987.5192142,0.08563621160335093,0.09801410856704029,-0.014200592562260372,-0.794493259965904,nan
1741050987.5231197,-0.20951799935182713,-0.16497538505266934,-0.050133610901746256,-0.7323534815256136,nan
1741050987.527025,-0.4210310845038652,-0.3530851120931829,-0.024685536996325908,-0.2927838254190844,nan
1741050987.5309305,-0.4049272054049153,-0.3191173167136803,0.04768626315782543,0.2675014014753004,nan
1741050987.534836,-0.16537034149823096,-0.07594665334695871,0.10334801005238678,0.6295327049013419,nan
1741050987.5387526,0.15347222307935873,0.2145225226377899,0.07795708509391595,0.6135202986983337,nan
1741050987.5426579,0.3725135540691771,0.3652060817090733,-0.03476044405391923,0.283890969433805,nan
1741050987.5465634,0.3944888071446986,0.2986927794708941,-0.16348103260238242,-0.11441967060486807,nan
1741050987.550469,0.24773457849169,0.08823027507382462,-0.20346656616941183,-0.3374456414470248,nan
1741050987.5543742,0.03864143039694379,-0.1175532127221512,-0.09836632745419556,-0.3047452594457318,nan
1741050987.5582798,-0.1339395803162476,-0.21315206055294142,0.10302174490731927,-0.12583991688090618,nan
1741050987.5621853,-0.23068970489185717,-0.1974337632407066,0.26673434132691565,0.016979382226473987,nan
1741050987.5660906,-0.2612431378044073,-0.1371851100927297,0.2658911616186378,0.02502531876019485,nan
1741050987.569996,-0.24086995072163964,-0.0825603640261524,0.08047652480957346,-0.04990194995219708,nan
1741050987.5739017,-0.16584274487897901,-0.022225947472103214,-0.17448144552956862,-0.07538322482856673,nan
1741050987.577807,-0.029484135871002747,0.08034443858335771,-0.322666892661039,0.025059020923957766,nan
1741050987.5817125,0.14525583082809865,0.2130858168110244,-0.25396657234290204,0.19282724795060993,nan
1741050987.5856283,0.29744091919140925,0.28950468909093996,-0.010652772034602862,0.2826335615047634,nan
1741050987.5895338,0.3581852495376323,0.21227914359728015,0.23717942245409465,0.19429384194855392,nan
1741050987.593439,0.2933513518950627,-0.023321450290829764,0.313723997123625,-0.030743756876241618,nan
1741050987.5973446,0.12133605537166987,-0.2874321105321666,0.16720905243974343,-0.2362604461886055,nan
1741050987.6012502,-0.1045777626504867,-0.39314140143408793,-0.09168767693036498,-0.28031914052352735,nan
1741050987.6051557,-0.3241488648757058,-0.24488808319943417,-0.27316175765269385,-0.1534401803248274,nan
1741050987.609061,-0.47843759765588384,0.066694974572051,-0.24991985151488155,0.01928922671472686,nan
1741050987.6129665,-0.5007476128631584,0.3171633974750516,-0.0487354991505551,0.09472158462700893,nan
1741050987.616872,-0.32544506174661636,0.3206275077558593,0.1764130503962228,0.04191667858771937,nan
1741050987.6207774,0.05983792961689754,0.08475113939638397,0.2648023242227096,-0.03386511586722274,nan
1741050987.624683,0.546713696557434,-0.18741967637582954,0.1666927170129506,0.0007391804588301611,nan
1741050987.6285884,0.8979413682268458,-0.2622697659621019,-0.03118719122028724,0.16363504771075563,nan
1741050987.6325035,0.8537960362020433,-0.07584467027229955,-0.18450697861071366,0.31493211249634473,nan
1741050987.636409,0.3170708798446358,0.20243274556879495,-0.20376421004049103,0.2684759459094667,nan
1741050987.6403143,-0.5126238660601377,0.30731044464011664,-0.10887361848427958,-0.02976320377984293,nan
1741050987.6442199,-1.188733007635858,0.10964415255711778,0.00992465417151589,-0.4155110026420542,nan
1741050987.6481254,-1.2691795717662109,-0.254278755960663,0.07940123667759454,-0.6050793212845262,nan
1741050987.6520307,-0.6237869582274315,-0.47732829190319215,0.09703272387673972,-0.4160620184623193,nan
1741050987.6559362,0.4258870692316846,-0.33486600900055696,0.10711980331649375,0.06771807243213561,nan
1741050987.6598418,1.2679343219444004,0.1106853504384999,0.13122928126614058,0.5332090767534075,nan
1741050987.663747,1.384610311504046,0.5339027269894929,0.12872102747950862,0.6632829923695623,nan
1741050987.6676526,0.7031893253062473,0.5951051090372128,0.03407818365754309,0.37743216962075277,nan
1741050987.6715581,-0.3425434672436547,0.21873195434352893,-0.15884367575706781,-0.10635572178645258,nan
1741050987.6754634,-1.0987480766347733,-0.32947519975967426,-0.34925939116220095,-0.44265427803606183,nan
1741050987.679378,-1.1306957645181515,-0.6401598309885906,-0.37988655581176906,-0.42664259932398746,nan
1741050987.6832836,-0.5023569419490098,-0.481133202839164,-0.16178616180299388,-0.14191304161425092,nan
1741050987.6871889,0.3008139787307071,0.017181249184398926,0.22535298442979781,0.13057534144446406,nan
1741050987.6910944,0.7391351544242367,0.46499414595170974,0.5524899010050718,0.16206502542729997,nan
1741050987.695,0.5974040444808546,0.5241036693457058,0.586412459751432,-0.029154252560182232,nan
1741050987.6989055,0.09872971809419351,0.174693771845209,0.2621604223422931,-0.2041685758321694,nan
1741050987.7028108,-0.31185008897482147,-0.2783513404440848,-0.24960261525467742,-0.1284750847569474,nan
1741050987.7067163,-0.3274487558917719,-0.46176360728362237,-0.6414012675662357,0.19956095439031885,nan
1741050987.7106218,0.00043421519904443724,-0.2393883674529396,-0.6708181628557343,0.5199810894592231,nan
1741050987.7145271,0.33886303066391205,0.18444096012152747,-0.3221067737337514,0.5184607285304228,nan
1741050987.7184327,0.3647748180254668,0.4443395831510355,0.18771878977711645,0.10249444011565643,nan
1741050987.7223382,0.02746300003455757,0.32141685391349595,0.5586444919124841,-0.48759240767737294,nan
1741050987.726252,-0.42081800878668757,-0.07888774335823505,0.6014414719082231,-0.8376062613600271,nan
1741050987.7301574,-0.6333748187614476,-0.42291702263767195,0.33967934842139885,-0.671838890673668,nan
1741050987.734063,-0.43770349195133357,-0.4313382893239989,-0.038279778655954826,-0.07215302852814573,nan
1741050987.7379684,0.04570524841361598,-0.10728659210557584,-0.3227637321678498,0.5724942788564489,nan
1741050987.7418737,0.5091008099071546,0.2781664983921039,-0.408027872868657,0.8482910166244048,nan
1741050987.7457793,0.6837339052313666,0.4219075164022108,-0.31906516729214285,0.6102719334756457,nan
1741050987.7496848,0.5059874301176622,0.2391604277615901,-0.1480180415879963,0.06404476691556811,nan
1741050987.75359,0.11624363072075489,-0.08305511270051859,0.02633678375511589,-0.413371628101999,nan
1741050987.7574956,-0.2720883490491253,-0.2650421787246823,0.16922065555790447,-0.5572332392147369,nan
1741050987.7614012,-0.5075721155032892,-0.18102984502121255,0.26526363905378064,-0.3779600986880782,nan
1741050987.7653065,-0.5447321824903895,0.043914506707745535,0.28716396235642166,-0.0937106915690998,nan
1741050987.769212,-0.40429323249501414,0.16552517371889086,0.20365125124146077,0.0822394490293911,nan
1741050987.7731252,-0.12710746454251456,0.05520763389958807,0.0221773601943455,0.10629392275875481,nan
1741050987.7770307,0.22279627381952713,-0.17691384112366412,-0.18343027547067914,0.09102706984535573,nan
1741050987.7809362,0.5294793465548907,-0.2831533137552922,-0.3030044597309489,0.1508013558321188,nan
1741050987.7848415,0.6400579921427891,-0.11306706203342207,-0.26572824049917293,0.26569072706904057,nan
1741050987.788747,0.4527873651527834,0.23132022605170333,-0.09938037556147883,0.2946805649076686,nan
1741050987.7926526,0.01938228956933723,0.4657025902244844,0.0838111983729803,0.12315735054404833,nan
1741050987.796558,-0.4412059351951262,0.36555325682293976,0.17096602774367775,-0.19862637583730877,nan
1741050987.8004634,-0.66333023466587,-0.02932068163378178,0.13482492834028345,-0.4639391351882858,nan
1741050987.804369,-0.517631825413608,-0.4305090315917204,0.048215127431170776,-0.4691756573346964,nan
1741050987.8082743,-0.11284485317184974,-0.531271481958398,0.012213033036089066,-0.18867577088071286,nan
1741050987.8121798,0.27751366038168,-0.2585018008614129,0.05990797433742988,0.19122731857650777,nan
1741050987.8160853,0.41723387199340134,0.16825857895907442,0.12238215333703421,0.4147939336745952,nan
1741050987.8199978,0.2791458559228462,0.42120567177179813,0.0914619277603741,0.35740302998656254,nan
1741050987.8239033,0.0452750835164193,0.33402817559867976,-0.07223487887064077,0.11358393774771323,nan
1741050987.8278086,-0.06420973464665569,0.02725699511591336,-0.2821591692766292,-0.09998168939542802,nan
1741050987.8317142,0.014157448925532631,-0.21338023201326628,-0.37731046106288774,-0.13730707136152603,nan
1741050987.8356197,0.13891746286697967,-0.1933817099816895,-0.24824093323387672,-0.04006499828276292,nan
1741050987.839525,0.10608576040260757,0.026275973410228023,0.06376672836245209,0.022936124853753008,nan
1741050987.8434305,-0.14335024729085594,0.19893335416241442,0.37927543047486467,-0.06558570533458925,nan
1741050987.847336,-0.43997837252368854,0.12890526530835986,0.5013126829806709,-0.2422871338451585,nan
1741050987.8512416,-0.5125539856662467,-0.14041479811668844,0.3528440211148052,-0.3088756102946711,nan
1741050987.855147,-0.22562284796662213,-0.3586113634670585,0.026535117243507222,-0.11961771152006803,nan
1741050987.8590524,0.2768467948599651,-0.29467254798778725,-0.28674517240579606,0.25648965698034637,nan
1741050987.862958,0.6565910035578355,0.04411508076577874,-0.4293014064006803,0.5544387434298466,nan
1741050987.8668697,0.6376822326871785,0.4002036478031647,-0.3662417339511556,0.5153869528800317,nan
1741050987.8707752,0.22691032318621693,0.4789626280565948,-0.1756685014501995,0.1105932949276303,nan
1741050987.8746808,-0.28668768079454415,0.2041477972747407,0.03294249911375308,-0.40570310774804214,nan
1741050987.878586,-0.5562904225446303,-0.20944909167457476,0.19288194862676702,-0.6726063421452179,nan
1741050987.8824916,-0.4419550139143727,-0.4344488672522641,0.2901982052189506,-0.49585853839793725,nan
1741050987.8863971,-0.09925381041148884,-0.3084920322108842,0.32215234199227405,-0.0003997499910860806,nan
1741050987.8903024,0.17387528677578215,0.03058236148695707,0.26498370227205537,0.46192872429090526,nan
1741050987.894208,0.19355604910159988,0.27129343845380155,0.09468645874204316,0.5772239540648946,nan
1741050987.8981135,0.02864499444884087,0.2067732650579657,-0.15854043348902985,0.29776662390589437,nan
1741050987.9020188,-0.09049724465599845,-0.08062998838352227,-0.38647468628085535,-0.14110124253589004,nan
1741050987.9059243,-0.0018463874291032142,-0.2939679111851215,-0.45352169339764453,-0.4168019313096925,nan
1741050987.9098299,0.23046239670723312,-0.1933051289351223,-0.2951630905505997,-0.3628325380360622,nan
1741050987.913741,0.37246156272340875,0.1748148983355359,0.017158048694979236,-0.06948714636269068,nan
1741050987.9176466,0.2388513027825755,0.49796403854775934,0.3093344339910976,0.21945607977696632,nan
1741050987.921552,-0.12490999429437467,0.46050188647240164,0.4209607613300519,0.3089172003055901,nan
1741050987.9254575,-0.4639099074718703,0.026136745288973827,0.3155609194375172,0.18318647942011967,nan
1741050987.929363,-0.5236668133738245,-0.5063967385182807,0.09536554816540171,-0.024565681101937884,nan
1741050987.9332683,-0.26419124790682463,-0.7314004116291063,-0.09012798453263965,-0.1689016885790877,nan
1741050987.9371738,0.11113960861071877,-0.46232366730336694,-0.16219592907302463,-0.20080781819125815,nan
1741050987.9410794,0.33593839512695467,0.11573895947235043,-0.1562737556402887,-0.16254600586685894,nan
1741050987.9449847,0.3066489447525015,0.5933760226055428,-0.15789630929027992,-0.10165403205328753,nan
1741050987.9488902,0.14987623917273857,0.658339111735908,-0.19707753768719158,-0.010472267948153289,nan
1741050987.9527957,0.07322207348136557,0.3234995886049402,-0.206224166246789,0.14126026290235194,nan
1741050987.956701,0.1434710986098614,-0.11879627470907556,-0.0879939158333656,0.32103288199086816,nan
1741050987.9606173,0.20852064843189486,-0.35889202658749897,0.16656038062614725,0.40250605432126213,nan
1741050987.9645228,0.050386438725770526,-0.31271226838691535,0.4254660283180646,0.2505506490030816,nan
1741050987.9684284,-0.36323944849952666,-0.142133144524216,0.4946543797085886,-0.13540634124038867,nan
1741050987.972334,-0.7716740466497489,-0.05784649246758455,0.2759377584650874,-0.5565080510235306,nan
1741050987.9762392,-0.7906847002925836,-0.10387405272917119,-0.12949348728686877,-0.7180728888866311,nan
1741050987.9801447,-0.24492520462208653,-0.12929823852926692,-0.47231791694911907,-0.44777435392146925,nan
1741050987.9840503,0.6179857649371663,0.030778718165703763,-0.5340212093279814,0.14211862542862347,nan
1741050987.9879556,1.243108750450436,0.34609038681637927,-0.29269280326539104,0.6965480825921411,nan
1741050987.991861,1.1598334227239315,0.5685550932329804,0.06297826925244009,0.8551645679858684,nan
1741050987.9957666,0.35356888101373857,0.4398218890264163,0.28699882219326117,0.5124922814907554,nan
1741050987.999672,-0.6865277610742105,-0.049390909605083286,0.27018301121055366,-0.1028645733361952,nan
1741050988.0035775,-1.3011809081208754,-0.5937831638363728,0.11166514883625912,-0.5961381924428498,nan
1741050988.0074928,-1.1283822870985187,-0.788511129832195,0.008843306896509454,-0.6912145852275245,nan
1741050988.0113983,-0.34592384341807225,-0.4601933193121907,0.06533895670006111,-0.40992417495737016,nan
1741050988.0153039,0.49124648028470674,0.16967104093569152,0.19067145228380805,-0.013448381367299008,nan
1741050988.0192091,0.8768363379844609,0.6436105525690888,0.1862932567830266,0.22970873672185216,nan
1741050988.0231147,0.6993710330755064,0.6302340690775701,-0.05447064100130095,0.24735973756091031,nan
1741050988.0270202,0.24908536266290235,0.18845566176128012,-0.4137894390872564,0.17384464809561595,nan
1741050988.0309255,-0.08377515224451054,-0.29211163068753265,-0.6151459636771016,0.17734700133173956,nan
1741050988.034831,-0.13976466762543324,-0.4261528871450605,-0.4469997389725067,0.274662064063724,nan
1741050988.0387366,-0.07026129061486483,-0.1561606749134017,0.0420756549700295,0.3086141029218191,nan
1741050988.0426419,-0.12446860872555203,0.2146296733497459,0.5513504785731959,0.11075568732534115,nan
1741050988.0465474,-0.36266223039182305,0.3067538180191304,0.7465867938168798,-0.3015696361725366,nan
1741050988.050453,-0.5712035103306625,0.014278591649652126,0.5149739591447765,-0.6836676638287271,nan
1741050988.0543673,-0.461525401276391,-0.39246306432094613,0.044472290300735996,-0.7341854915692411,nan
1741050988.0582728,0.030834840783147143,-0.5073589270103012,-0.33887837558232686,-0.3446552896463096,nan
1741050988.0621781,0.6300421744824211,-0.16266607689401558,-0.43540131514010744,0.284851422951921,nan
1741050988.0660837,0.9109476069071839,0.39804682517349144,-0.3098063594226598,0.7719375598421477,nan
1741050988.0699892,0.6452929220380843,0.7120431292319358,-0.1866579018940679,0.8262048765854657,nan
1741050988.0738945,0.0038220844568780036,0.49628918388666116,-0.2051247276642568,0.4524705623730335,nan
1741050988.0778,-0.5686067980096854,-0.09543797996385461,-0.26631752588842217,-0.0767721037247922,nan
1741050988.0817056,-0.7059885166816168,-0.5906102788143293,-0.12839851950573283,-0.445822084965641,nan
1741050988.0856109,-0.403139324160947,-0.5982575755846208,0.3229228255391911,-0.5230029758913468,nan
1741050988.0895164,0.012513620262174221,-0.14558892219414282,0.8786546041849216,-0.40655830609732346,nan
1741050988.093422,0.18812005220168587,0.34759757384445844,1.0961597716508675,-0.27302439324905275,nan
1741050988.0973272,0.05622170595802395,0.4412272388279982,0.6447310872659479,-0.18670737812021776,nan
1741050988.101241,-0.1275361423448928,0.06978583197885349,-0.3641126585010748,-0.054865073217032344,nan
1741050988.1051466,-0.05125325206385961,-0.3930639860766202,-1.359466046583075,0.2316045800143485,nan
1741050988.1090522,0.326770392634703,-0.46768388841322717,-1.671813781633356,0.6152672602340418,nan
1741050988.1129575,0.6974190497710607,-0.012763549395526616,-1.0229357431895503,0.8421321349379259,nan
1741050988.116863,0.6566626861834518,0.6160858147084985,0.23563619141652342,0.6461415749123935,nan
1741050988.1207685,0.08380573519361902,0.850274412841254,1.3412792597728356,0.005468210281819892,nan
1741050988.1246738,-0.6963658631120802,0.40326322045700286,1.6475707056432716,-0.7619643829576829,nan
1741050988.1285794,-1.132005615061588,-0.4517781535240591,1.0628403033242935,-1.1799989466876624,nan
1741050988.132485,-0.8791312329998673,-1.0754611278528026,0.0676383315096067,-0.9556236731462132,nan
1741050988.1363902,-0.09088588433614148,-0.9772101867342216,-0.6876446522325028,-0.21198506713662688,nan
1741050988.1402957,0.6901644883595718,-0.2189290559061987,-0.8709413619391799,0.5853553759580651,nan
1741050988.1442013,0.9558298347855838,0.6372455382823673,-0.6501627528793417,0.9639303991511042,nan
1741050988.1481144,0.6212180414316438,0.9919912793733223,-0.4417710904414103,0.7799152066649728,nan
1741050988.15202,0.055213931818710024,0.6840497041823993,-0.4685438430042884,0.2874342146114178,nan
1741050988.1559255,-0.2651714622863956,0.0731765799619215,-0.5303720310920707,-0.10673714097339092,nan
1741050988.1598308,-0.17145512837067037,-0.32377887327478583,-0.20593703835236676,-0.19037645948395454,nan
1741050988.1637363,0.07340479386231115,-0.30118769749316965,0.6788290646027388,-0.09859268028890016,nan
1741050988.1676419,0.052134416428207736,-0.10705172097937356,1.7352287527190335,-0.14387852824695607,nan
1741050988.1715472,-0.3782124043487957,-0.13491272929612333,2.1727909271286117,-0.47591774542406406,nan
1741050988.1754527,-0.8964644711511358,-0.46762900396320595,1.3758397269483797,-0.878827357663391,nan
1741050988.1793582,-0.9568134182930718,-0.7303519477662125,-0.5303034201843416,-0.9062003179653182,nan
1741050988.1832635,-0.27301787297189223,-0.4341386285908869,-2.5909911412710063,-0.26760523194618263,nan
1741050988.187169,0.8647104213807693,0.48116676641481193,-3.546528739736387,0.8481466641776134,nan
1741050988.1910746,1.7309088422142633,1.4317571465454404,-2.6448710452869224,1.802107042722059,nan
1741050988.194987,1.680234933117726,1.581663829437202,-0.1856435397084638,1.9073846293808654,nan
1741050988.1988926,0.638533407182902,0.5738897407413478,2.58957883312808,0.9255721899963965,nan
1741050988.2027981,-0.8179873880438863,-1.0324586932719513,4.199303908961256,-0.7115270901811528,nan
1741050988.2067034,-1.8555696185792923,-2.075294808802232,3.764430722902987,-2.1302600613902025,nan
1741050988.210609,-1.9379556661486015,-1.6883879151651915,1.4751680926110473,-2.5424824538199453,nan
1741050988.2145145,-1.1262333967092533,-0.07050060769550547,-1.55557738365383,-1.71269092035309,nan
1741050988.2184198,0.06264742307803386,1.566808292680989,-3.9001396115554585,-0.06634644549875784,nan
1741050988.2223253,1.0643503015541502,1.9232980154381003,-4.503546284560737,1.593006954146449,nan
1741050988.2262309,1.5870769613161835,0.6998947746725495,-3.1116583389069836,2.532362996428806,nan
1741050988.2301362,1.6238559300091373,-1.0707986134124439,-0.31531718049681584,2.414385672816602,nan
1741050988.2340417,1.246726599771604,-1.8139378229281922,2.719054193506361,1.3554265638111154,nan
1741050988.2379472,0.46203017892612364,-0.748593383748859,4.692937141090606,-0.22008895770338233,nan
1741050988.2418592,-0.6945688499372178,1.3331598594752485,4.6704605425860715,-1.7681130907683866,nan
1741050988.2457645,-1.931943386271277,2.579964901689247,2.50150038982778,-2.7577956883330237,nan
1741050988.24967,-2.644831808168132,1.5877738888828303,-0.9951806898391433,-2.7736019509631435,nan
1741050988.2535756,-2.211446758516314,-1.283172420865926,-4.260111425642731,-1.6549694597313072,nan
1741050988.2574809,-0.5003608346108627,-3.930733801343827,-5.658605097028742,0.34168827265481055,nan
1741050988.2613864,1.8235520296807364,-4.018505547220996,-4.335153545657377,2.4924066544945442,nan
1741050988.265292,3.5316645604763583,-0.8911688156209339,-0.7879049526073866,3.8116627076852483,nan
1741050988.2691972,3.5476015148775,3.6292548205915014,3.2545094680157822,3.509757421806164,nan
1741050988.2731028,1.6830755116137812,6.336035849932932,5.698049604823623,1.4818824394278234,nan
1741050988.2770083,-1.1483571334861649,4.946553383455946,5.24681284281976,-1.4912811628877112,nan
1741050988.2809136,-3.4364151959885447,-0.06397885699307561,2.1658743754009118,-4.027597668929857,nan
1741050988.2848191,-3.9782479993554296,-5.553001790766525,-1.8566291716192582,-4.818142510034757,nan
1741050988.2887356,-2.573354748170729,-7.790179147488542,-4.689504035112176,-3.3353326508370684,nan
1741050988.2926412,-0.0633892483319504,-5.086361866101077,-4.97572885036136,-0.16682108016483907,nan
1741050988.2965467,2.2507371846064697,0.9382807686126419,-2.8330201761719476,3.229777686736154,nan
1741050988.300452,3.3651243303148997,6.4043066718964665,0.3599752187401938,5.230480859345803,nan
1741050988.3043575,3.005489532472191,7.81567756499316,2.882885786640441,4.839685009488098,nan
1741050988.308263,1.554948406070656,4.413019037375199,3.6604415090742117,2.176926883503097,nan
1741050988.3121684,-0.3177500729626831,-1.4142001880393338,2.711342353049658,-1.568938984300543,nan
1741050988.316074,-1.983092539788439,-5.879455435727508,0.8834978646768413,-4.680181946834507,nan
1741050988.3199794,-2.9572935824410247,-6.391648457902375,-0.8139013648017334,-5.6920451365241425,nan
1741050988.3238847,-2.896066815720758,-3.1399844759370596,-1.7746876220286667,-4.072782320125241,nan
1741050988.3277903,-1.6764391538425691,1.3430985229326329,-1.9369122653656838,-0.5039719319829495,nan
1741050988.3316958,0.40455871467540944,4.147563514926959,-1.551830777211391,3.382596406875987,nan
1741050988.3356118,2.5321316117214225,3.9512853353667765,-0.8783183100864703,5.733490123874982,nan
1741050988.339517,3.6319385465705367,1.6161558948651347,-0.061141271216993844,5.366304885997528,nan
1741050988.3434227,2.972325073180166,-0.8177991856360808,0.7840516981301299,2.399455005347446,nan
1741050988.3473282,0.7371855798969581,-1.7874198214046964,1.4544408484309364,-1.7375981533283005,nan
1741050988.3512335,-1.9139400402576,-1.2088466931357387,1.684413012190139,-4.985135004585709,nan
1741050988.355139,-3.4744671046173305,-0.18829470360732797,1.3123258943460823,-5.714716056457853,nan
1741050988.3590446,-3.0545117208248995,0.13275178398742993,0.4338330510113179,-3.6042876737728045,nan
1741050988.36295,-1.0013868416963225,-0.43887366320625076,-0.6104341901058212,0.18288929234891507,nan
1741050988.3668554,1.3160080526350912,-1.1061716790370906,-1.4146864519568094,3.6445638802354323,nan
1741050988.370761,2.45076164395771,-0.908962934424297,-1.711262850719309,5.0493767095688185,nan
1741050988.3746665,1.877177952550139,0.3518243638829488,-1.4493928297153098,3.861075657811743,nan
1741050988.3785717,0.30369329367487513,1.8784928114231523,-0.7333882075626492,0.9429275932064061,nan
1741050988.3824873,-0.9344724759404311,2.496754565207393,0.2662687175078795,-2.0398090302967398,nan
1741050988.3863928,-0.9314671880674418,1.594909555654046,1.3204253267161592,-3.609635296031681,nan
1741050988.3902981,0.10497328878911409,-0.3780808591754698,2.0912605792654144,-3.2412387175715063,nan
1741050988.3942037,1.071152341183503,-2.2232884031717237,2.164524074375114,-1.4817840055704312,nan
1741050988.3981092,0.9072950412162323,-2.8333556801607007,1.261430326993138,0.5465743702641205,nan
1741050988.4020145,-0.49053322133330846,-1.9137131230758722,-0.4633086315581224,1.8613492567245549,nan
1741050988.40592,-2.117300000915048,-0.08929418435878521,-2.2973501574095265,2.087945656398104,nan
1741050988.4098256,-2.601275781380142,1.5934239172100906,-3.2349007110349297,1.4653118944963734,nan
1741050988.413731,-1.2774787991909091,2.3366148155558646,-2.567635526366456,0.5136716016485624,nan
1741050988.4176364,1.2320756360699876,1.965440301709717,-0.43457532089603473,-0.32824652020901807,nan
1741050988.421542,3.3802644303892455,0.8482646252105838,2.1030881997858333,-0.8613711876028596,nan
1741050988.4254475,3.7384752484110226,-0.4441611358023162,3.615215837648249,-1.064569869076709,nan
1741050988.4293618,1.9664274401960204,-1.4346474755310765,3.182849224205482,-0.9660615766301448,nan
1741050988.4332674,-0.9668418142100994,-1.8409886733912253,1.0199879172953055,-0.5970369108437987,nan
1741050988.437173,-3.4227140343488553,-1.5563165159845376,-1.617973360165703,-0.042838949216591406,nan
1741050988.4410782,-4.106916077230592,-0.6521775965908277,-3.2131165644684865,0.5109448086306033,nan
1741050988.4449837,-2.772505001370974,0.5692689664282836,-2.9366593813665816,0.8331103299403628,nan
1741050988.4488893,-0.2231955371278439,1.5929797528227594,-1.1295880353959906,0.7851413798672562,nan
1741050988.4527946,2.2599707954618946,1.8914837879932824,0.9976436663932333,0.42602742014844763,nan
1741050988.4567,3.6150083058775966,1.24739440771158,2.204396077434541,-0.020234515335752535,nan
1741050988.4606056,3.410789088525414,-0.035461498037449475,1.9947872281893464,-0.32131953402792024,nan
1741050988.464511,1.8662589126533125,-1.247673654742477,0.8122812562822925,-0.39222407180283997,nan
1741050988.4684165,-0.3657215177811891,-1.699975884922376,-0.4117321742812193,-0.32243901017301985,nan
1741050988.472322,-2.4509908929647324,-1.1786293524260787,-0.9603452760217814,-0.259183988165044,nan
1741050988.4762359,-3.5969403665294126,-0.08891076819842313,-0.7581791459945393,-0.25729871692595313,nan
1741050988.4801414,-3.2892598481751882,0.8374647207978488,-0.2634829154487743,-0.23307047760799796,nan
1741050988.4840467,-1.54123936685708,1.0611011546695974,0.0065176270270422085,-0.06256189722144143,nan
1741050988.4879522,0.9830693926424133,0.5906007345108192,-0.10124151613608627,0.2681505864423951,nan
1741050988.4918578,3.15479806663929,-0.08648634037029924,-0.32342450713031706,0.6033975899265432,nan
1741050988.495763,3.8984129659945617,-0.42375047614343736,-0.2852356343224904,0.7133058362644024,nan
1741050988.4996686,2.7954849489484315,-0.24185873632327257,0.1331725946397646,0.4713414786560586,nan
1741050988.5035741,0.3822979777058118,0.1738725613472749,0.6795039178110164,-0.03343227074020387,nan
1741050988.5074794,-2.1062479322696053,0.3601360396879449,0.9374509896867883,-0.5437720129380939,nan
1741050988.511385,-3.429556477816788,0.0900293180716366,0.6660000185036333,-0.8029455995869557,nan
1741050988.5152905,-3.0380878986598225,-0.43266863361275204,-0.010820550883995314,-0.7104318605566426,nan
1741050988.5191958,-1.3260999988479225,-0.7512758538126857,-0.6989445115019783,-0.35208268509334123,nan
1741050988.5231092,0.6975457795384089,-0.5459834755187082,-1.0145785106607026,0.09427765652516512,nan
1741050988.5270145,2.0570093828000244,0.09267360855677942,-0.8236977506024553,0.47721363106998277,nan
1741050988.53092,2.322643023321351,0.7279165496658521,-0.28068870343740215,0.7151370655588826,nan
1741050988.5348256,1.6886245730617915,0.9168613788901655,0.31744502274307845,0.7588176692439829,nan
1741050988.5387309,0.6639938352113913,0.545289092181038,0.7172139077843068,0.5546963723809935,nan
1741050988.5426364,-0.31277597574740745,-0.10584788268596408,0.8044744767889451,0.08404560325679314,nan
1741050988.546542,-1.0438761779901773,-0.5964658576952425,0.5913319952343697,-0.5438053843854739,nan
1741050988.5504472,-1.479398678041297,-0.6592312983647087,0.16628468531606597,-1.0551245997639347,nan
1741050988.5543528,-1.5507794562110315,-0.36261112593730066,-0.3283229222783759,-1.1247095125447102,nan
1741050988.5582583,-1.1463899812065126,0.0012305665087800983,-0.7033245440135667,-0.6017087285023374,nan
1741050988.5621636,-0.26258682916254283,0.1806687567155285,-0.7724002152441887,0.31810015141465914,nan
1741050988.5660691,0.8408820396878505,0.1499040598295731,-0.460505650351566,1.1424802346757545,nan
1741050988.5699818,1.6815909821865493,0.07516340653980683,0.10176229561297997,1.3707291453726926,nan
1741050988.5738873,1.8183235454527567,0.1192568811317125,0.60502778321133,0.837069364432339,nan
1741050988.5777926,1.150486630588955,0.2729834198862881,0.7388593382869703,-0.14761314658617933,nan
1741050988.5816982,0.0094762285762565,0.3623766476690579,0.4140147794692654,-0.9840056826851364,nan
1741050988.5856037,-1.0427173089143744,0.21724534442884397,-0.14685237387031522,-1.1848810138976622,nan
1741050988.5895092,-1.5566235623743219,-0.15414567570643073,-0.5479708476874247,-0.699541657693664,nan
1741050988.5934145,-1.4228095683889996,-0.5399171336860226,-0.5071466518855482,0.07778168263904488,nan
1741050988.59732,-0.8387826659061989,-0.673311550932484,-0.0746435592389863,0.6170840024678517,nan
1741050988.6012256,-0.09480907909046175,-0.4341651589486128,0.3968668008182411,0.6378339508155962,nan
1741050988.605131,0.6078673479388896,0.05694307696013836,0.5222023431595806,0.2758841780478356,nan
1741050988.6090364,1.1637036601001853,0.5201457970021776,0.18804667005514863,-0.08206281556335955,nan
1741050988.612942,1.4497271211042584,0.7033742813817078,-0.3509931038748984,-0.14311731276242035,nan
1741050988.616854,1.2772978358287048,0.5338942765681229,-0.6669110555117634,0.05835996718607765,nan
1741050988.6207595,0.5238470286730105,0.13653427070719346,-0.49309010925809393,0.22555920588624223,nan
1741050988.6246648,-0.6479945938166639,-0.2701697973687577,0.06553988507514025,0.09405380517974278,nan
1741050988.6285703,-1.719689631576414,-0.507706148728184,0.6126446548634966,-0.30509019962893175,nan
1741050988.6324759,-2.050987755965185,-0.5119922491269401,0.7638733620460897,-0.6465026131531745,nan
1741050988.6363811,-1.3153886623045776,-0.3253034125189215,0.43083231821932266,-0.5821153744614209,nan
1741050988.6402867,0.18637454576409104,-0.044702086242902526,-0.13340387897427589,-0.05604358357130753,nan
1741050988.6441922,1.6247256101941154,0.2238982130449662,-0.5477041787700829,0.6081044149732968,nan
1741050988.6480975,2.1469526448998475,0.39019805880408154,-0.5899382705768448,0.9341519133438259,nan
1741050988.652003,1.4534498992684621,0.39761958184742224,-0.32799156793168965,0.6608858759405718,nan
1741050988.6559086,0.016235836718895297,0.24643913940908782,-0.010354622045787003,-0.04418511570471291,nan
1741050988.659814,-1.2421559890980178,0.006599522862963989,0.16415258115972853,-0.6998431610944936,nan
1741050988.6637251,-1.5860520089446652,-0.20641319602998182,0.18981138362271574,-0.8676516080879939,nan
1741050988.6676307,-0.9520234379728533,-0.29402426028989903,0.1985733486414883,-0.4712778369960255,nan
1741050988.6715362,0.070318555799048,-0.23632024429906007,0.28043733496863926,0.1664743151654296,nan
1741050988.6754415,0.7255639170469041,-0.10189266188630464,0.3637151265961176,0.5865588474234007,nan
1741050988.679347,0.656586327907475,0.00891750229453783,0.2764446049673772,0.53982085913663,nan
1741050988.6832526,0.11391431976898102,0.04442044257483393,-0.06470518948145143,0.14602765502343087,nan
1741050988.6871579,-0.3226355757271387,0.03715511469077448,-0.5188689999894688,-0.24190522439937645,nan
1741050988.6910634,-0.25335076060311607,0.06146129200713004,-0.7820307842370359,-0.33742828310374745,nan
1741050988.694969,0.22436093435839535,0.14928218029200238,-0.6155370131597475,-0.1331763305142397,nan
1741050988.6988745,0.634092997432803,0.2422443732990518,-0.056896937456896626,0.13382757453974542,nan
1741050988.7027798,0.5497000253972272,0.2308675815656191,0.5719683278933438,0.21203837141424908,nan
1741050988.7066853,-0.03530500561294778,0.05487741400042727,0.8818664481528001,0.052220108894945244,nan
1741050988.710601,-0.7010118093380757,-0.22139066352466685,0.6939104884328033,-0.16989027252843555,nan
1741050988.7145066,-0.9472413823572823,-0.4316633750907413,0.15938121349157702,-0.2296586462831284,nan
1741050988.7184122,-0.5938381304718735,-0.4221307924872235,-0.36845726276303303,-0.06278611081403536,nan
1741050988.7223175,0.0926592974733366,-0.17112172352179503,-0.5999132821986439,0.1782227166212341,nan
1741050988.726223,0.6322993543494799,0.18317616524375435,-0.49627376814525925,0.2658368167684524,nan
1741050988.7301285,0.7126674761049895,0.4333982776320117,-0.24046532232891765,0.10766069387840649,nan
1741050988.7340338,0.39939153216307355,0.44403171035820027,-0.04068998321641561,-0.16338277553338695,nan
1741050988.7379394,0.021822989382137854,0.23553185726050274,0.04732211024363537,-0.3007816816140548,nan
1741050988.741845,-0.13933546605318078,-0.047422433053433154,0.1250767452017952,-0.1626727696853285,nan
1741050988.7457502,-0.07967413853274122,-0.24880762174451465,0.29455739207151954,0.15360654689966335,nan
1741050988.7496557,-0.025010275652486487,-0.3009021234041084,0.5020160804596946,0.3816253643816718,nan
1741050988.7535613,-0.17321887992762378,-0.23839243348798106,0.5448889391095674,0.3072753295950347,nan
1741050988.7574766,-0.4706823337119098,-0.1341444574040055,0.253318408553179,-0.04311246656951935,nan
1741050988.761382,-0.6325492041356334,-0.028285786432785197,-0.3111023554079781,-0.40904852979158984,nan
1741050988.7652876,-0.3952061450378285,0.08369635447689781,-0.8307600069419576,-0.4979698279989235,nan
1741050988.769193,0.21919536738613657,0.20397626682267578,-0.9348376193751168,-0.22139097425288767,nan
1741050988.7730985,0.8628009502789913,0.2876627260827149,-0.4856208642570065,0.22752016660663973,nan
1741050988.777004,1.0960902506898529,0.2591312874255787,0.28256224613952446,0.5202308032349583,nan
1741050988.7809093,0.7156740973737375,0.08461673445632201,0.8990403586541936,0.44712617577781544,nan
1741050988.7848148,-0.08332387435434378,-0.16759369033614097,0.9792785348514159,0.07699145050125629,nan
1741050988.7887204,-0.8360904735380954,-0.34847374670921616,0.4942200513033553,-0.30375663723234614,nan
1741050988.7926257,-1.1241136054659633,-0.331062534001971,-0.21699432256377138,-0.42004537420250554,nan
1741050988.7965312,-0.8375865090124084,-0.11599909684614142,-0.6973545364472987,-0.22003652251698091,nan
1741050988.8004367,-0.20303019964356267,0.1536733934208284,-0.6919272022144115,0.09782608744767929,nan
1741050988.804351,0.4118147651512884,0.2926382204488583,-0.2991124944429278,0.2586928511368775,nan
1741050988.8082566,0.7421766463328102,0.21477058679266234,0.1448310286033403,0.14053808562179082,nan
1741050988.8121622,0.7401525486356895,0.0010032334485331603,0.33843876724993266,-0.12854974276548503,nan
1741050988.8160675,0.5135044680189573,-0.16607788917387648,0.2259342854233571,-0.2826722617321454,nan
1741050988.819973,0.1901786061845514,-0.15127266678263893,-0.004998649968882644,-0.14689733029719435,nan
1741050988.8238785,-0.15674838421130535,0.02201158915890051,-0.11138297952531956,0.20499856711758713,nan
1741050988.827784,-0.4791563280037226,0.19144417059961266,-0.0011200062693944065,0.4947450879276073,nan
1741050988.8316894,-0.6903811105327005,0.19207921354816143,0.20672909917749777,0.45542393397153563,nan
1741050988.835595,-0.6693185476684177,-0.002450221022612742,0.299509267414044,0.05107010749524551,nan
1741050988.8395004,-0.3539540739297994,-0.2511067382059961,0.15521192815109824,-0.47365065800683176,nan
1741050988.8434057,0.1602667468318449,-0.3543841118079988,-0.1581528207014842,-0.7577455159523242,nan
1741050988.8473113,0.6281247239883074,-0.21334063882537732,-0.4370114125652191,-0.5825972964602862,nan
1741050988.8512254,0.7943265069037875,0.08949059398070053,-0.4936510434372123,-0.033652969550204095,nan
1741050988.855131,0.5693777690310695,0.3510127517226735,-0.28269427703262145,0.553295145876027,nan
1741050988.8590364,0.09959403619393296,0.3993054120535749,0.08213877390297601,0.8199317686292427,nan
1741050988.8629417,-0.33358444545766525,0.2152947747738375,0.41232535907259793,0.6213857466571887,nan
1741050988.8668473,-0.5112227471685333,-0.0666012089449893,0.5543114392386791,0.1058118839608676,nan
1741050988.8707528,-0.41661903425425717,-0.2691293274977424,0.454155424972391,-0.406325407606291,nan
1741050988.874658,-0.21018556332847038,-0.29873427288831367,0.16016846632013254,-0.6426062800156442,nan
1741050988.8785636,-0.07015092198899676,-0.19030969051604138,-0.20925943505670994,-0.5371884174050353,nan
1741050988.8824692,-0.04010711346093372,-0.0489676760375613,-0.5051575968169244,-0.22766885327514172,nan
1741050988.8863745,-0.013612041031071739,0.046936755942308735,-0.5929020919115964,0.08118544555267936,nan
1741050988.89028,0.13600360737665795,0.09484218064641296,-0.4095621081954131,0.2652260120862107,nan
1741050988.8941855,0.4007770154885966,0.13604760343358654,-0.01605114079856156,0.3285777232970413,nan
1741050988.898099,0.6028308791518144,0.18644373744084855,0.4018608600585601,0.33552501215986164,nan
1741050988.9020045,0.5224404916785576,0.2039559570179771,0.6166864468324623,0.30934057851918567,nan
1741050988.90591,0.09172389750353621,0.1268017976351912,0.49751873170716815,0.20064346619316822,nan
1741050988.9098155,-0.5069851990249854,-0.053799340734969725,0.11174913032278518,-0.04358188392879744,nan
1741050988.9137208,-0.9302489032211865,-0.2582794808692682,-0.2995614109841115,-0.37808560677912995,nan
1741050988.9176264,-0.8964913536823451,-0.3610704263130432,-0.477899045669704,-0.6317965830939186,nan
1741050988.921532,-0.3831095963191022,-0.28158190693977503,-0.3316893259065272,-0.6044044770524507,nan
1741050988.9254372,0.3454783563854045,-0.04983394950645852,-0.006019302546371207,-0.22723364434683113,nan
1741050988.9293427,0.8985954306494432,0.2080838567926293,0.2285806528648828,0.3412119560341555,nan
1741050988.9332483,0.9953941705800009,0.3538583737802362,0.1918694385301499,0.7802938953743035,nan
1741050988.9371536,0.6184317777858304,0.32442047719428785,-0.05616028311469387,0.8085687389926125,nan
1741050988.941059,-0.0039013395671404134,0.15914594886123873,-0.26051797865128334,0.38382045230849954,nan
1741050988.944972,-0.5530453076202109,-0.04388723024276181,-0.18690040491343693,-0.2495661493595699,nan
1741050988.9488773,-0.7986652815090618,-0.1974922336700377,0.16324837689432264,-0.7126895490971079,nan
1741050988.9527829,-0.6921533745917666,-0.2645889663298228,0.5229241631626147,-0.7426644756305053,nan
1741050988.9566884,-0.34362479919644495,-0.24845696923028107,0.5581014923353381,-0.36314910500541403,nan
1741050988.9605937,0.0710681303943406,-0.1623483710829228,0.14844615244971035,0.14758894349022803,nan
1741050988.9644992,0.4001600297828462,-0.018665570057761257,-0.47775131542272,0.46371207920705243,nan
1741050988.9684048,0.5585178799674498,0.15298031495397002,-0.8808073669412051,0.4371906333922867,nan
1741050988.97231,0.5261720905586545,0.2887835862434034,-0.7323114150228112,0.17588516345948063,nan
1741050988.9762156,0.33141082594433835,0.3103567315042319,-0.07985680428448147,-0.07322641456480977,nan
1741050988.9801211,0.03885443382838333,0.18008436453101923,0.6590966185732551,-0.1318319680357235,nan
1741050988.9840267,-0.2596054027654411,-0.05226098770487724,0.9850490750821569,-0.020187768667197428,nan
1741050988.987932,-0.4641502858108829,-0.2616626949612887,0.6774820067735113,0.08854517963325045,nan
1741050988.991844,-0.5005000364226571,-0.3244363678520314,-0.04264079018008042,0.03995875465394356,nan
1741050988.9957495,-0.3537416880846864,-0.20664329471525936,-0.6741198645800162,-0.1555446607007624,nan
1741050988.9996548,-0.08100082685373208,0.007104342239724488,-0.8005981411682218,-0.3276135125393548,nan
1741050989.0035603,0.2091146367554106,0.17337865050784249,-0.3854216981548762,-0.2960802377834531,nan
1741050989.0074658,0.4031362926931707,0.1954347863431038,0.22171969473405967,-0.03581252044629644,nan
1741050989.0113711,0.4328384370421825,0.09155558443319237,0.5629053978455965,0.2875585729618267,nan
1741050989.0152767,0.30361591111947867,-0.028646463052471892,0.41691958362172216,0.4450164013339599,nan
1741050989.0191822,0.08658946813284145,-0.05979860436909152,-0.050282855959217845,0.32867588193712743,nan
1741050989.0230877,-0.12165892632964659,0.011471172480169316,-0.4345321742294939,0.037116764886111514,nan
1741050989.026993,-0.24982658159335844,0.09942271323014208,-0.4163188983823946,-0.21112779722047464,nan
1741050989.0308986,-0.283170996181846,0.09754851694394544,-0.005710427901604623,-0.2611709440907274,nan
1741050989.034804,-0.2549910735744744,-0.02468529739292979,0.472997888552599,-0.14327776816475896,nan
1741050989.0387206,-0.20422136272448757,-0.1887931759745895,0.6350872901728327,-0.02656117520289098,nan
1741050989.0426261,-0.13299682177502314,-0.26607844761518956,0.3279268834844799,-0.04706615884107202,nan
1741050989.0465317,-0.004434716727843453,-0.17987577891773943,-0.2567990681762864,-0.16711798893686075,nan
1741050989.050437,0.20743154451841322,0.031944774938496054,-0.725440925591749,-0.200943712040817,nan
1741050989.0543425,0.45208493584933507,0.24277548932172396,-0.7631386403781223,0.004110297050803841,nan
1741050989.058248,0.5870965775629687,0.3275280007246572,-0.34474458923596524,0.38784207135428944,nan
1741050989.0621536,0.45384512842681224,0.2449315772252546,0.2660368214642049,0.6719553431774815,nan
1741050989.0660589,0.011916485217611942,0.052777618983467195,0.7089475750619422,0.5632055409637359,nan
1741050989.0699644,-0.5688631194338828,-0.14419657519183948,0.7596110568700059,0.014711175131379758,nan
1741050989.07387,-0.9577092299718518,-0.26310575336320496,0.44249584454686924,-0.6762065659322858,nan
1741050989.0777752,-0.8600586495276504,-0.2759980730821201,-0.02979875692158104,-1.0420255803759033,nan
1741050989.0816808,-0.24407371892737117,-0.19678256882252843,-0.41746907739782985,-0.7823353606484995,nan
1741050989.085597,0.5781875696500851,-0.05346808507692203,-0.5871999394588251,-0.010115240293811625,nan
1741050989.0895023,1.111415179540349,0.11990586439342471,-0.5388358874373627,0.7956129807016187,nan
1741050989.0934079,1.0009279219537988,0.2712214150663218,-0.34201204337162916,1.1141533395698804,nan
1741050989.0973134,0.29743013425889425,0.32941901429111664,-0.06316086518997759,0.7504622384194437,nan
1741050989.1012187,-0.547195235432209,0.23933509462391014,0.2512696330052437,-0.029671278300290347,nan
1741050989.1051242,-0.9797041387527714,0.015232159754066613,0.5384304092671844,-0.6985991413469845,nan
1741050989.1090298,-0.7394914768719529,-0.2380600874522661,0.6899904983418623,-0.8478816404655071,nan
1741050989.112935,-0.05237202353007222,-0.373873108577443,0.5862187525043075,-0.4636567577943035,nan
1741050989.1168406,0.5375423549953361,-0.3019494947802066,0.18748977463774075,0.10312379200972473,nan
1741050989.1207461,0.5859710841229074,-0.06318070519813083,-0.3870349358251733,0.4311271781535912,nan
1741050989.1246517,0.09907590357549527,0.18710875072046412,-0.8735771228493346,0.3472683341675765,nan
1741050989.128557,-0.46627366408313725,0.2870636295706812,-0.9914607055853736,0.0245014450977113,nan
1741050989.1324582,-0.5700587303317561,0.18887626491115783,-0.6177902562920795,-0.19929368088708774,nan
1741050989.1363635,-0.04498907375107346,-0.005679422992129497,0.1065628042419842,-0.11685665825059616,nan
1741050989.140269,0.7279615786361919,-0.12905921845647003,0.8244714895589655,0.18293939238389653,nan
1741050989.1441746,1.0881278270486208,-0.08701527068074347,1.1524866482565568,0.40500816607317897,nan
1741050989.1480799,0.6206295886233932,0.06182400072490727,0.9043102130338435,0.30629389152408626,nan
1741050989.1519854,-0.4695887943062749,0.15611403194029547,0.20764158411003492,-0.09544257142292746,nan
1741050989.155891,-1.448534353511951,0.0744360000667949,-0.5646320464822007,-0.5288118612053611,nan
1741050989.1597962,-1.5705610712136358,-0.1485149512349445,-1.0109643486676834,-0.6773269755839668,nan
1741050989.1637018,-0.6448951566819707,-0.3351683849547459,-0.931309250582495,-0.4169228949351726,nan
1741050989.1676073,0.7829340363509605,-0.30546424127178745,-0.42717446291856365,0.10018728561910516,nan
1741050989.1715126,1.788466975481678,-0.03300425651177161,0.1864194423292983,0.5647185662761136,nan
1741050989.1754181,1.7114308220679217,0.3145180279638574,0.5905136940558319,0.7240555321951196,nan
1741050989.1793377,0.6131250679174415,0.4920422929167458,0.6487304981324123,0.5267481988521401,nan
1741050989.1832433,-0.7832202113653868,0.363634941638807,0.44948806913645895,0.11212012346897803,nan
1741050989.1871486,-1.611239954761643,0.010451480896082103,0.1910341178535559,-0.31060642668080585,nan
1741050989.191054,-1.445838575533171,-0.32823843749685616,0.011116021453479855,-0.5806483476806694,nan
1741050989.1949596,-0.5327608887463622,-0.43554126160208767,-0.10135276490516434,-0.6264407209641916,nan
1741050989.198865,0.467110300408994,-0.27527563380277403,-0.2469045943400664,-0.44422832918253136,nan
1741050989.2027705,0.980969936747385,-0.003369058424047078,-0.4675079131563392,-0.07907412652418554,nan
1741050989.206676,0.8790959179589084,0.171460382107479,-0.6484446721176137,0.3608137969137221,nan
1741050989.2105815,0.4455076854266367,0.15842154832716623,-0.5746013955608383,0.695613744429811,nan
1741050989.2144868,0.05441826511548458,0.04445095523680286,-0.1178525669311301,0.7323759940771206,nan
1741050989.2183924,-0.13870586051353193,-0.0032008616363233574,0.5910267570261153,0.39045349121220624,nan
1741050989.222298,-0.23966946574849726,0.09657842175559979,1.1667580669342519,-0.19546082547623583,nan
1741050989.2262115,-0.4019092342587016,0.25124075073885377,1.1907786405813372,-0.7056859979220619,nan
1741050989.230117,-0.5958349375615938,0.2678761957369078,0.5168091750091975,-0.8217025671554146,nan
1741050989.2340226,-0.5990291531738746,0.031299194940505995,-0.5632411590673855,-0.45375410704401764,nan
1741050989.237928,-0.2247969148462246,-0.36384456970175955,-1.4435687792566434,0.16794556088191973,nan
1741050989.2418334,0.4293796106945336,-0.6483671481053772,-1.5696557998631537,0.6335662124689561,nan
1741050989.245739,0.9682694036351691,-0.5698116877612358,-0.8102884888768422,0.6423325456142774,nan
