timestamps,TP9,AF7,AF8,TP10,Right AUX
1741044005.845428,-0.222832821777979,-0.5592156362867056,0.49083628301424526,-0.07445350931930447,nan
1741044005.8493338,0.37263201736089335,-0.34632132626647905,0.8361117739536422,0.29365234889167124,nan
1741044005.8532398,0.7473516943542223,0.0020155480615746567,0.6995393893746084,0.4645026671836455,nan
1741044005.8571455,0.6300078269348436,0.18805987174294536,0.14940402502309721,0.3204356696981353,nan
1741044005.8610513,0.08996333226291123,0.11099231736110615,-0.4825148622558803,-0.025179649661444977,nan
1741044005.864957,-0.5092838539101012,-0.0729556131433299,-0.8222245451955771,-0.3217591520617917,nan
1741044005.868863,-0.7682186115030912,-0.11858788034558844,-0.6943945151370949,-0.3754922856914782,nan
1741044005.8727689,-0.530902299400186,0.06837343357678657,-0.21597741497025014,-0.18912185995940106,nan
1741044005.8766747,0.01734545205507973,0.3342884620599516,0.3087302629881415,0.06014376746390848,nan
1741044005.8805804,0.49815512769523557,0.41033663762515427,0.5988784558908417,0.17923884477766805,nan
1741044005.8844864,0.6146437188567483,0.1593614557109526,0.5580854939820987,0.11824236387645352,nan
1741044005.8883922,0.34588124455070923,-0.2809528196742783,0.2872822930505511,-0.00352055448418906,nan
1741044005.8923018,-0.07264354566255275,-0.5897492367994498,-0.028263196753873857,-0.022826891072846776,nan
1741044005.8962076,-0.3476097247673469,-0.5192852972219343,-0.25056455380727205,0.10334847489319353,nan
1741044005.9001133,-0.34040443011649374,-0.10218005989341755,-0.3428830219621097,0.24395632983282536,nan
1741044005.9040194,-0.13509104342107103,0.3661207402552321,-0.33277390545872604,0.2064636729192853,nan
1741044005.9079251,0.06872134728044678,0.5578346534976941,-0.2474444891097059,-0.07453656907444714,nan
1741044005.911831,0.1298398311994813,0.36663477149020524,-0.09181122563729312,-0.439239158897216,nan
1741044005.9157367,0.05988604256827884,-0.022477890968285348,0.11831321131929655,-0.5968453420964418,nan
1741044005.9196427,-0.024248247385723308,-0.29839960357469764,0.3175850900537692,-0.35480384797958103,nan
1741044005.9235485,-0.02671524621582687,-0.2797325638893366,0.4038172154058616,0.19771434144401678,nan
1741044005.9274542,0.04345846693974814,-0.04688311088823139,0.30631833681309817,0.7131650381971284,nan
1741044005.93136,0.0994677456208797,0.1518976244159578,0.05376345925331202,0.8203207090477228,nan
1741044005.935266,0.07509375227671124,0.1287493438617205,-0.2243684205078661,0.4025739192685413,nan
1741044005.9391754,-0.00791027130570378,-0.08240202696257494,-0.37614688660948975,-0.2951553914210297,nan
1741044005.9430811,-0.06825015205090323,-0.2666054028922548,-0.3292913459272788,-0.8233646041258804,nan
1741044005.946987,-0.056120466446011236,-0.2270211262841519,-0.13685914214258343,-0.8402992488875991,nan
1741044005.950893,-0.01002006656171061,0.03648320653212991,0.06956110205160747,-0.34952709052389175,nan
1741044005.9547987,-0.01551335101075451,0.324401210845111,0.17984187098919155,0.31222758638553605,nan
1741044005.9587045,-0.10196361566317505,0.4082167745150785,0.1770134279306846,0.7221529329618297,nan
1741044005.9626102,-0.18414749387173085,0.22216778031652523,0.1260765726019698,0.6631722685564816,nan
1741044005.9665163,-0.12400544122405904,-0.08927874042907201,0.0974421737789981,0.2459837634254006,nan
1741044005.970422,0.12580862258711256,-0.30225350783497207,0.09729683948380811,-0.21231322819239595,nan
1741044005.9743278,0.4280473371020609,-0.300326692550479,0.06783068842873279,-0.4376410522160263,nan
1741044005.9782338,0.5266177570512957,-0.1521696775040735,-0.04417440900888457,-0.3752303311544778,nan
1741044005.9821396,0.24946223977853624,-0.019983750709024573,-0.21478050270610843,-0.1707762166259531,nan
1741044005.9860435,-0.3088746106821321,0.005995112004323473,-0.3370418368965993,-0.0037394730703249955,nan
1741044005.9899495,-0.7953247867735379,-0.012775345374464408,-0.29612446081485544,0.06554135125219289,nan
1741044005.9938552,-0.8289597092448887,0.055341898298571904,-0.06824968785031814,0.1054639442398009,nan
1741044005.997761,-0.2988379433959281,0.24917224008871985,0.2392001335300663,0.19194234811391442,nan
1741044006.0016668,0.5059040502656073,0.43323756341135466,0.44609420255655213,0.29036267465070204,nan
1741044006.0055728,1.0605180009580775,0.3923616859794341,0.41895156458636756,0.2674873906230898,nan
1741044006.0094786,0.9666755345467843,0.034272892305797616,0.16457113551921257,0.031926452849091506,nan
1741044006.0133843,0.25019658125616256,-0.4793497039317389,-0.1710556190649118,-0.33005003467609284,nan
1741044006.01729,-0.6353997425612323,-0.8079607834418938,-0.3975291855368284,-0.5687604412406242,nan
1741044006.0211961,-1.1152113675097393,-0.6772951206187681,-0.4003215263466879,-0.45426816551692567,nan
1741044006.025102,-0.8905664952753777,-0.10607599473069229,-0.20406587888153666,0.011691272047464769,nan
1741044006.0290077,-0.13809968149742471,0.5745295326200183,0.05806307825070218,0.5438874220378253,nan
1741044006.0329168,0.6305319188117012,0.9387155090303717,0.23851733119818577,0.7549122976070856,nan
1741044006.0368226,0.9354375080326573,0.7617870931870434,0.2640271926691802,0.449296152531248,nan
1741044006.0407283,0.6471320545581686,0.17100405547153105,0.16324625306492213,-0.1997992308327017,nan
1741044006.044634,0.033430707961865945,-0.4570974179974655,0.026807094299779288,-0.7472938904330804,nan
1741044006.04854,-0.47348523884529553,-0.764741484599921,-0.061877425696548076,-0.7927978435775334,nan
1741044006.052446,-0.592034245191707,-0.639325411342448,-0.07549400833717909,-0.2835670524446481,nan
1741044006.0563517,-0.3512330043654593,-0.24106692334879865,-0.0449932334522917,0.43182847936578833,nan
1741044006.0602574,-0.0028839541317408654,0.1581571687353823,-0.023579640440627846,0.8497064984094719,nan
1741044006.0641634,0.2078944502537534,0.3741010715353591,-0.042839211505660724,0.6774804415543441,nan
1741044006.0680692,0.21514851543579755,0.3932639307160481,-0.09003088031737619,0.045359069498270135,nan
1741044006.071975,0.12494020496558807,0.30632524706231845,-0.11813649654750714,-0.59425526467335,nan
1741044006.075881,0.0704534863170547,0.1876268031423927,-0.08018626653647973,-0.8002279382487155,nan
1741044006.0797894,0.07932060016644692,0.04243667461047135,0.033441942581803816,-0.45649585390819164,nan
1741044006.0836954,0.07036718513638579,-0.14376781882387368,0.17788947413760994,0.16347392696884033,nan
1741044006.0876012,-0.034325000929899305,-0.32821084696957187,0.27067484817749465,0.6159898169612773,nan
1741044006.091507,-0.20250358052496015,-0.4048346650535406,0.23817450752181127,0.612714194844807,nan
1741044006.095413,-0.29923144718888794,-0.2897287821207097,0.06732596495853012,0.20825736273132514,nan
1741044006.0993187,-0.20612290627092725,-0.016993793089168197,-0.17145262480482348,-0.2742498656199578,nan
1741044006.1032245,0.057314435390908226,0.2579551497393151,-0.3525257769672956,-0.5003844421379019,nan
1741044006.1071303,0.3250837264502036,0.3680903850104841,-0.3656829350450682,-0.35899044735281105,nan
1741044006.1110363,0.404416728163831,0.26748870864024354,-0.18800435596802612,-0.007686747535157659,nan
1741044006.114942,0.22606413404660314,0.06597651527516188,0.09259019707416861,0.2785620570568546,nan
1741044006.1188478,-0.09953076361007848,-0.07159350845976319,0.3242962034713181,0.3184646265736545,nan
1741044006.1227536,-0.3641593650789952,-0.07341990432133678,0.3829994730626744,0.13381241234694136,nan
1741044006.126664,-0.41118174728961276,-0.01878996811470006,0.24830190691737938,-0.10422330655379645,nan
1741044006.1305697,-0.23284680508891978,-0.04728143200277854,0.011551046189041996,-0.22339640102018235,nan
1741044006.1344755,0.049613940983000315,-0.20048705517894141,-0.18921904742367915,-0.16817740190477376,nan
1741044006.1383815,0.2864766736078047,-0.3501131514525151,-0.2598488830568786,-0.009778306082899837,nan
1741044006.1422873,0.38737877342558624,-0.2968316392327161,-0.20122116485740907,0.13241878041164545,nan
1741044006.146193,0.3364495315949808,0.03319319404751066,-0.0882939003510944,0.1786139567288529,nan
1741044006.1500988,0.15561065727828613,0.47182950565076476,-0.0005919075171968804,0.12194406219889979,nan
1741044006.1540048,-0.11827668031747943,0.6989643251889005,0.03680655316510043,0.005256500774557077,nan
1741044006.1579106,-0.41125594413474054,0.49046468496888634,0.05620743407575287,-0.11673229852415674,nan
1741044006.1618164,-0.5873568589169607,-0.07460809775479085,0.09849784245732318,-0.19541191549495326,nan
1741044006.1657224,-0.49119544995281955,-0.6338615101496443,0.16076830173813292,-0.19034843394880283,nan
1741044006.1696281,-0.06855887050012811,-0.796883577706387,0.18952843723767138,-0.08101098310942881,nan
1741044006.1735382,0.5233737054648282,-0.44433026469949244,0.12699142355202772,0.10529724510541963,nan
1741044006.177444,0.9405696994466486,0.1710045269662827,-0.029905620977628472,0.2785423645417689,nan
1741044006.18135,0.8511049130696378,0.611590392993293,-0.2106442753757401,0.3205011672006266,nan
1741044006.1852558,0.19503404678888106,0.5879971594481045,-0.31208646695635917,0.16572356644597983,nan
1741044006.1891615,-0.6987186697926324,0.17250164034126614,-0.2687788919352772,-0.12771005631931048,nan
1741044006.1930673,-1.2711982738900454,-0.2761765591067273,-0.09799134281121001,-0.38684851322626007,nan
1741044006.1969733,-1.0989083911487676,-0.41103847030217616,0.11359624222230387,-0.42858868768394776,nan
1741044006.200879,-0.2164863113952847,-0.17119642814482156,0.26734829933824805,-0.19551215004059483,nan
1741044006.2047849,0.856098587147796,0.18946341248410986,0.3079405842220847,0.18232469855029954,nan
1741044006.208691,1.4351794155738662,0.3333425711765237,0.23883332177359004,0.46056055522702855,nan
1741044006.2125967,1.1355127565162633,0.12876973978950454,0.0985891467217779,0.44769675343710635,nan
1741044006.2165024,0.14375666602414833,-0.2450987527110118,-0.06997417999563597,0.1459497341021694,nan
1741044006.2204123,-0.9015477054466933,-0.45901972946179054,-0.22881403408066778,-0.24318929899414843,nan
1741044006.2243183,-1.3440923714340338,-0.315687406336553,-0.33391672054538324,-0.4587099483627587,nan
1741044006.228224,-0.9483348311650722,0.08769419532592615,-0.3327252642568002,-0.36418489762116074,nan
1741044006.2321298,-0.032725491011885155,0.4470809759322539,-0.19080568616978488,-0.04029958050578114,nan
1741044006.2360356,0.7828260321249636,0.504389180196813,0.06577276372520056,0.2805267380945907,nan
1741044006.2399416,1.0145169600982733,0.24615673279951425,0.33383728452754435,0.38444655214065915,nan
1741044006.2438474,0.6164733888943211,-0.11239316555058514,0.4736618275045082,0.22284180108070797,nan
1741044006.2477531,-0.050804142565478085,-0.32571780765667563,0.3925740378770678,-0.06855329996084207,nan
1741044006.251659,-0.5244088696769393,-0.31323549682443297,0.11455701050853408,-0.28110285125902057,nan
1741044006.255565,-0.5649523039117001,-0.18421492047636884,-0.22109834069803655,-0.28321189660158697,nan
1741044006.2594707,-0.2701339888496222,-0.09068721108224598,-0.4399842325607909,-0.09881107330491282,nan
1741044006.2633765,0.06968567705051434,-0.06485056792569875,-0.43879470893063416,0.1305386554310114,nan
1741044006.267286,0.2216865717510226,-0.003346032705898484,-0.24270297476167424,0.2556785055104363,nan
1741044006.2711918,0.1607099289121706,0.18839953686860741,0.024411006195902068,0.21467518218008438,nan
1741044006.2750976,0.026818971020320725,0.4418735727354311,0.22893518043334962,0.05293128655166653,nan
1741044006.2790036,-0.03453290214699004,0.5325511776517423,0.3059408557012649,-0.12612162258644008,nan
1741044006.2829094,0.0049501980185410605,0.27177503172622725,0.2731740214020926,-0.22935618770658514,nan
1741044006.2868152,0.06510046922714824,-0.2787323276687333,0.18436993709060182,-0.21500614543677957,nan
1741044006.290721,0.0615722943729391,-0.7805665085953178,0.07414082058949623,-0.09630020931436195,nan
1741044006.294627,-0.007750303693905431,-0.8444724945526584,-0.05481229506280767,0.07404969332334024,nan
1741044006.2985327,-0.07269306296126629,-0.34759976233037776,-0.1982802752678147,0.22170006538813272,nan
1741044006.3024385,-0.0733663308986933,0.42301592676074595,-0.3142653884826266,0.2723177546726408,nan
1741044006.3063445,-0.023725685921851685,0.9457216824703517,-0.33059576463907686,0.1844586095396385,nan
1741044006.3102503,0.00855326367831515,0.8457119708058418,-0.1996461478336032,-0.016066956133472043,nan
1741044006.3141596,-0.018568029826305652,0.18840064099101797,0.04631729884567962,-0.23020402746669225,nan
1741044006.3180654,-0.06859997516205128,-0.5558434844754131,0.29401834141962524,-0.33103071584640237,nan
1741044006.3219712,-0.05938883230976856,-0.8604909586374029,0.4138762911185471,-0.24463998930737768,nan
1741044006.325877,0.04650944170663772,-0.5376641725576915,0.3445776993573724,-0.011119013804654593,nan
1741044006.329783,0.18464832122640082,0.12951210582549283,0.1315341184571846,0.2287736621978788,nan
1741044006.3336887,0.22977340430855608,0.6182761361987178,-0.10999720046472723,0.32418555154514667,nan
1741044006.3375945,0.10756959818822444,0.5743816442985681,-0.27444719873033335,0.22056145893338078,nan
1741044006.3415003,-0.123434729717348,0.07440993222155458,-0.32301397439446244,-0.000533216606156683,nan
1741044006.3454063,-0.3018401484732124,-0.4565488458014442,-0.27843932631294593,-0.18338151205595352,nan
1741044006.349312,-0.2894397045555814,-0.5927385747301896,-0.17635565802277867,-0.21580674485968604,nan
1741044006.3532178,-0.08784132691433004,-0.23736116127312604,-0.029407370535012585,-0.10892642331299834,nan
1741044006.3571239,0.15776723423911146,0.3207501739187478,0.15854785134085353,0.025041572027048417,nan
1741044006.3610327,0.27498551690319506,0.6499922952651859,0.3476337727906272,0.0757254906898895,nan
1741044006.3649387,0.2020080040329045,0.5104252426978233,0.44494574321335545,0.028257258998407645,nan
1741044006.3688445,0.028197612960936487,0.017293225591710905,0.35354043056697443,-0.0339395192734598,nan
1741044006.3727503,-0.09529026128202377,-0.4738958171628801,0.06036018098659552,-0.018027077817265647,nan
1741044006.376656,-0.09169345796069044,-0.6444336288343122,-0.31425428803016403,0.08028679719703184,nan
1741044006.380562,-0.01754218047196363,-0.42609710996424255,-0.5657530548821028,0.16318757386766947,nan
1741044006.3844678,0.007543534867171112,-0.004877074067638612,-0.535232139465659,0.12033211783645154,nan
1741044006.3883736,-0.06877234262720033,0.350601716778126,-0.22689939227250044,-0.05626386096130132,nan
1741044006.3922794,-0.16820026278092542,0.47609373390283427,0.18281816498211695,-0.2409512902005407,nan
1741044006.3961854,-0.15232777295371758,0.37679373511069864,0.46087216776758777,-0.26807307686711224,nan
1741044006.4000912,0.033086287017218746,0.1598827480260344,0.47427783767026055,-0.0795946721453449,nan
1741044006.403997,0.2771229948051324,-0.06929894252471719,0.2685578413008965,0.20240760986538953,nan
1741044006.4079077,0.37486494747486837,-0.25205520687568655,0.01071420512519354,0.35448335522836977,nan
1741044006.4118135,0.20300201862103556,-0.3528154673191806,-0.15027524305178352,0.23119217208753037,nan
1741044006.4157193,-0.15164741497051945,-0.33195438000984995,-0.18708198586842,-0.0998004611233376,nan
1741044006.4196253,-0.4349144140633089,-0.16882342630579797,-0.17937376796637894,-0.3884296289663028,nan
1741044006.423531,-0.42043422116531043,0.08609801663519355,-0.2049921983796065,-0.38992476143925975,nan
1741044006.4274368,-0.10061877357569408,0.302992402513662,-0.24485223616552,-0.06717649364212797,nan
1741044006.4313428,0.29167437131946367,0.34836903057465235,-0.1955711447617115,0.35826837091965313,nan
1741044006.4352486,0.46008488491454036,0.19469581850905124,0.017126626425304603,0.5599519078506583,nan
1741044006.4391544,0.28105489023602304,-0.03942811527894023,0.32987093201507645,0.3553176432350429,nan
1741044006.4430602,-0.09576982376435383,-0.17451990525397063,0.5492699473550746,-0.14216072757686568,nan
1741044006.4469662,-0.3692320568382827,-0.1219055649775209,0.48898180800693286,-0.5909547015841408,nan
1741044006.450872,-0.33155869139420524,0.03218187020704988,0.13049047955198292,-0.6650294829838589,nan
1741044006.4547822,-0.03344916369096809,0.09849639526638204,-0.33194658325083765,-0.2924078455528072,nan
1741044006.4586883,0.26671581016232987,-0.03659973390176391,-0.6141495458322314,0.28910716537413456,nan
1741044006.462594,0.32346764614265416,-0.28310717371839383,-0.5452483143214587,0.6985874157744822,nan
1741044006.4664998,0.10641686511012385,-0.3990668023880992,-0.19129674097546037,0.675498129913795,nan
1741044006.4704058,-0.18513752662813743,-0.19804369743563086,0.2008508063144888,0.24905557561060884,nan
1741044006.4743116,-0.30149304442283265,0.25956541156515667,0.3938487135493027,-0.2991154551186536,nan
1741044006.4782174,-0.15675232404963815,0.669182658343847,0.3293541036120243,-0.6367386196097428,nan
1741044006.4821231,0.10656709739588276,0.7013183453821227,0.14202118018341728,-0.5940222255499508,nan
1741044006.4860291,0.252880672092254,0.2703941784518564,0.016817586639022716,-0.2452041377017726,nan
1741044006.489935,0.16424417238462943,-0.37146627980209246,0.02092806056208875,0.17502122189426628,nan
1741044006.4938407,-0.06081103436613543,-0.8059826432296778,0.05872960107711741,0.43747922546204154,nan
1741044006.4977465,-0.20468316058650113,-0.7568004686329867,-0.014406708912712597,0.4455753985633203,nan
1741044006.5016568,-0.13303321228595208,-0.2879902456027529,-0.22764999990712892,0.25445118469480743,nan
1741044006.5055625,0.08171631886912714,0.2643745528570405,-0.43570843870950526,0.00013484380158076552,nan
1741044006.5094683,0.22729501751557352,0.5627456541313993,-0.429274967586766,-0.19205450923013853,nan
1741044006.5133743,0.14864099930523003,0.5108151611449944,-0.12577574065448657,-0.26152462224997564,nan
1741044006.51728,-0.10321171868880262,0.27303892901172516,0.3278720344149774,-0.21607206907218146,nan
1741044006.5211859,-0.30729443620355584,0.07773437248685705,0.6410847311719726,-0.10656842731532498,nan
1741044006.5250916,-0.26602597796276733,-0.00016271554130821357,0.594887362967333,0.003910663892564799,nan
1741044006.5289977,0.014056212505610871,-0.07339826765118568,0.2129324068233923,0.06778402438310521,nan
1741044006.5329034,0.3161425310279557,-0.2709332485850057,-0.25389898984505627,0.07463637444382015,nan
1741044006.5368092,0.39167354213347066,-0.5399727972514339,-0.5180273772291755,0.05636774959299586,nan
1741044006.5407152,0.17107727801007558,-0.6348497033485406,-0.46450959371130146,0.06309729553362126,nan
1741044006.544621,-0.17542994728134353,-0.33303848215493403,-0.21052015616488362,0.1162760202928022,nan
1741044006.548531,-0.3794275044765493,0.30819458708226855,0.023174443984136654,0.1741459528403502,nan
1741044006.5524368,-0.2956551169037012,0.9085250922950171,0.10709563121912272,0.14986858587782198,nan
1741044006.5563426,-0.013753016221228305,1.019009965318138,0.09212366750169242,-0.014470335563527132,nan
1741044006.5602484,0.2303167357304646,0.48926655773042554,0.12187637646004049,-0.27086213831731676,nan
1741044006.5641544,0.258715224284083,-0.3657454011086088,0.2594835012609137,-0.4606150292290628,nan
1741044006.5680602,0.09123137048186934,-0.9692062587895676,0.3977773332683671,-0.41185928948296346,nan
1741044006.571966,-0.0956478974740951,-0.917512595927106,0.34543016655714126,-0.08178143630325922,nan
1741044006.5758717,-0.14099997425393693,-0.2970343400148618,0.017944914184703127,0.3706832103651654,nan
1741044006.5797777,-0.039952111423163024,0.3878081295803335,-0.44160793583918195,0.6615645163759262,nan
1741044006.5836835,0.07282275888347763,0.6272263257284645,-0.7352093376902872,0.5748322395832508,nan
1741044006.5875893,0.0705503869829174,0.31968310642621894,-0.6320969336341705,0.13364146030681745,nan
1741044006.5914953,-0.03586285948007825,-0.16367370107944734,-0.16019936990584446,-0.3912207857883373,nan
1741044006.595405,-0.11372972397422285,-0.32205803581161135,0.39739862481875615,-0.6609708757379723,nan
1741044006.5993109,-0.05408410001287116,0.017679886140571338,0.7056073737846411,-0.5116563440082653,nan
1741044006.6032166,0.10004937441934243,0.5301737005550212,0.6174904977722719,-0.07422882047093392,nan
1741044006.6071227,0.1794290698365159,0.6687647532045672,0.258647999674652,0.3269723515623947,nan
1741044006.6110284,0.05769081670250504,0.16359182131340252,-0.10327696149395729,0.42286461121995134,nan
1741044006.6149342,-0.19561133113429832,-0.6916995426427129,-0.2815422945936496,0.2005233977091867,nan
1741044006.61884,-0.34096253591798936,-1.2324679307983002,-0.2918032699468942,-0.10354602598068866,nan
1741044006.622746,-0.17841014096150912,-0.9580477969359693,-0.27775690645951,-0.21050868120036298,nan
1741044006.6266518,0.23731012890649983,0.030641308516494343,-0.3266634131185728,-0.035246715484687226,nan
1741044006.6305575,0.587027959447405,1.0674384384385305,-0.3592079483946422,0.24438448681499364,nan
1741044006.6344635,0.5287741448917118,1.4211770785246183,-0.20602547118600573,0.3425400997186397,nan
1741044006.6383693,0.006798175101050659,0.8609377041548065,0.19552094681838436,0.11482254090004346,nan
1741044006.6422787,-0.6443289948405138,-0.17357931002241764,0.6734944470901715,-0.30720590784557034,nan
1741044006.6461847,-0.9230375836772186,-0.9332595595883434,0.9026278763498095,-0.6103150701875321,nan
1741044006.6500905,-0.5575152096040032,-0.9507728440296203,0.6510305508829827,-0.5459603102657444,nan
1741044006.6539962,0.24601513322985177,-0.3753435726519627,-0.008651150828376383,-0.1266432585164272,nan
1741044006.657902,0.9269837082257212,0.21198749811356726,-0.7116569835932036,0.38514648528736184,nan
1741044006.661808,0.9904968926766352,0.325556544191835,-1.0450064346923889,0.6785173157603842,nan
1741044006.6657138,0.39403549885585165,-0.014932894805461214,-0.8355896285300128,0.6152005615473622,nan
1741044006.6696196,-0.41664250909045536,-0.33869210075604456,-0.2549896956456594,0.2945633852807761,nan
1741044006.6735256,-0.8591341988355863,-0.18276408053911755,0.33418655653312734,-0.06938472437745023,nan
1741044006.6774313,-0.6697431357929778,0.45377728593951233,0.6517272998176975,-0.32972401580892957,nan
1741044006.681337,-0.089696295719673,1.0636281688134974,0.6641399020124421,-0.48089037266502926,nan
1741044006.685243,0.36688385123733463,1.0432307527907942,0.5212091081348587,-0.5748774551203175,nan
1741044006.6891522,0.36049754781875515,0.21835184863613444,0.3549239986010357,-0.5867986175515562,nan
1741044006.693058,0.005008275543055055,-0.960799822789114,0.14868332176135,-0.3888619926424419,nan
1741044006.696964,-0.2602132004339512,-1.7232161104057457,-0.1953054209811362,0.11467369945128382,nan
1741044006.7008698,-0.09026761409200895,-1.536794288451569,-0.6653173782453717,0.8082263818548528,nan
1741044006.7047756,0.42418961791279663,-0.48266999101543817,-1.0352139849091415,1.3304206201424387,nan
1741044006.7086813,0.803138671444276,0.8279964923406886,-0.9870365156093281,1.2700414455816575,nan
1741044006.7125874,0.5864736415475228,1.6908834387278155,-0.38609125871229855,0.4769258955467734,nan
1741044006.7164931,-0.23685365987752913,1.7378463602236187,0.5339803798456374,-0.7527822815539605,nan
1741044006.720399,-1.1528279336658074,1.0605616346959439,1.270677427706853,-1.78848980087759,nan
1741044006.724305,-1.4832251909530971,0.024151387562623902,1.3923706967314415,-2.027026736953637,nan
1741044006.7282107,-0.9025427046347695,-0.9908596610028638,0.850983932933035,-1.264188771978408,nan
1741044006.7321165,0.3008085825440807,-1.6967241756171692,0.002349988245109417,0.1750002531520766,nan
1741044006.7360256,1.4202174187855967,-1.8591084128116435,-0.68733664226976,1.6205898739149132,nan
1741044006.7399316,1.8160195615082124,-1.2932503723636701,-0.9922822517491482,2.412652606853262,nan
1741044006.7438374,1.3091603105345868,-0.019791781815301803,-1.0217477426755692,2.1978964132700805,nan
1741044006.7477431,0.21361180798826174,1.537005335996005,-0.9803701920117551,1.032599969401688,nan
1741044006.751649,-0.9439968771005236,2.5857119656290752,-0.8437887691477309,-0.6812228023715433,nan
1741044006.755555,-1.7351035042666285,2.3819296925724602,-0.31194430142629404,-2.3232264842352435,nan
1741044006.7594607,-1.9361000178202055,0.8060039483774436,0.8381182655176768,-3.200733809612948,nan
1741044006.7633665,-1.453602217360257,-1.3664917006733803,2.28872833171368,-2.7592135039907024,nan
1741044006.7672722,-0.28359273598063295,-2.8369736534636796,3.1017394418528865,-0.8831915655143651,nan
1741044006.7711782,1.3551928237373922,-2.6443967668614516,2.2747245362454196,1.8398341009845676,nan
1741044006.775084,2.8472848897651315,-0.9009128717936179,-0.3675887165237887,4.155381433921751,nan
1741044006.7789898,3.2777164266068524,1.2127782050008653,-3.6607263763015117,4.660373630093002,nan
1741044006.782899,1.9540503394386155,2.2761140397984594,-5.545970081711984,2.6544002452519218,nan
1741044006.7868047,-0.9145405255028188,1.689994885496199,-4.375489967351311,-1.189327693239936,nan
1741044006.7907104,-3.961191013991628,0.12888667696318934,-0.2371180536055401,-4.906252554090485,nan
1741044006.7946165,-5.252853811985489,-1.0209406719108705,4.733898168479884,-6.2427330644560035,nan
1741044006.7985222,-3.5391979406203524,-0.8230400452771737,7.483773539259638,-4.0813772891762365,nan
1741044006.802428,0.6605590736098944,0.39609845163329294,6.002591465550077,0.6444415131356461,nan
1741044006.8063338,5.037018530095293,1.2994402406486703,0.8069196164531335,5.287926343784849,nan
1741044006.8102398,6.786950346787586,0.7118414442452597,-5.166106181558769,7.028117263216213,nan
1741044006.8141456,4.490583170798909,-1.2396992358741823,-8.315606593371056,4.6862866217022585,nan
1741044006.8180513,-0.7353017094773079,-3.026599505264155,-6.676617368068895,-0.40939171340911656,nan
1741044006.821957,-5.746839563243543,-2.8650032246519204,-1.2169078881410942,-5.178258575367082,nan
1741044006.8258631,-7.351100921180821,-0.26184790564820076,4.76743107105185,-6.735754972889862,nan
1741044006.8297734,-4.4574638022121515,3.3142496645797848,7.760871215067357,-4.252600852687315,nan
1741044006.8336792,1.1157704875996473,5.308096265488996,6.221611054386927,0.5414857592373723,nan
1741044006.8375852,5.809118112440343,3.955240652927517,1.4139746322150681,4.556101518794104,nan
1741044006.841491,6.698042789290492,-0.24944416268277614,-3.5917654027646857,5.405830010950928,nan
1741044006.8453968,3.4288227344909905,-4.689954049107228,-5.9700276392075375,2.9153154286669163,nan
1741044006.8493028,-1.6347235404999356,-6.38574516559654,-4.816617241201338,-0.939901503080114,nan
1741044006.8532085,-5.122996957976071,-4.118128845089807,-1.4078412371112032,-3.53378154855189,nan
1741044006.8571143,-4.978931066913374,0.6588824362822577,1.9420280037344593,-3.406333138607403,nan
1741044006.86102,-1.738210259463247,4.826477778374006,3.474081047834211,-1.1139420114217227,nan
1741044006.864926,2.0666485117797673,5.791965101413598,2.9123693709795013,1.4005873087557248,nan
1741044006.8688319,3.835745167561289,3.2426924733567106,1.2410558442475697,2.3406405925119658,nan
1741044006.8727376,2.7016652587487906,-0.8018995281482404,-0.2766703158662841,1.3124483391296478,nan
1741044006.8766496,-0.06873031837090948,-3.595645227193786,-0.9902625287508078,-0.5725215563378472,nan
1741044006.8805556,-2.232423625295334,-3.6478846388330273,-1.0543522514192,-1.7073657365335413,nan
1741044006.8844614,-2.303625312369712,-1.5914244059329843,-0.9608788352085337,-1.2550896347978722,nan
1741044006.8883672,-0.5435330997935548,0.6126759839875628,-0.9514015566629016,0.2971529138877296,nan
1741044006.892273,1.444445489608999,1.368048393765571,-0.8369784387890291,1.6397589228801144,nan
1741044006.896179,2.070567955256161,0.628631011225857,-0.31116722384382844,1.7170443489496423,nan
1741044006.9000847,0.9568057743380832,-0.3197788393666466,0.6088499468303904,0.5088070291529571,nan
1741044006.9039905,-0.9037779891834843,-0.1825214963271165,1.4595716192464816,-1.0452216052641754,nan
1741044006.9078963,-2.0369787195023603,1.1060594710919334,1.6547133796950757,-1.8339037389119544,nan
1741044006.9118023,-1.6444897753512995,2.2936781846335488,0.9713805464052838,-1.404593016980873,nan
1741044006.915708,-0.12692193047973027,1.931238283826722,-0.22818239867119694,-0.20390511387503824,nan
1741044006.9196138,1.348601570032029,-0.2642809073403541,-1.2345929704191922,0.8783940983883777,nan
1741044006.923524,1.7955350616522485,-2.9807277799762244,-1.4948877797167381,1.2211818356997879,nan
1741044006.9274297,1.0909033665729344,-4.219535729508442,-0.976985636853633,0.8567504570933031,nan
1741044006.9313357,-0.08330538669673476,-2.8426554658133893,-0.12452436935458058,0.28162423435848205,nan
1741044006.9352415,-0.8841620919031853,0.4735975583792437,0.5229685832860627,-0.05914911679731937,nan
1741044006.9391472,-0.9503295512631411,3.6457353266435613,0.7129974885375364,-0.1315399826224986,nan
1741044006.943053,-0.5446666349793775,4.649156216989024,0.5712082980560178,-0.22620176526737196,nan
1741044006.946959,-0.17297822085855724,2.9275346069672703,0.379795435689783,-0.5587355432116944,nan
1741044006.9508648,-0.08591180718746774,-0.2943088396362492,0.2833378181651382,-0.9639503068218704,nan
1741044006.9547706,-0.11049572333123626,-2.9634288255265986,0.1911859235904052,-0.9904536743661427,nan
1741044006.9586763,0.08375454581885104,-3.63622166824753,-0.06147319295762281,-0.32782015924731,nan
1741044006.9625823,0.5756862515268687,-2.326043543910918,-0.47532038344233435,0.8156325170791741,nan
1741044006.9664881,1.0403963484028607,-0.22950845753935112,-0.8155241980754617,1.7470748571074601,nan
1741044006.970398,1.003365302544616,1.3090841670274043,-0.7875034016612013,1.7594058951980323,nan
1741044006.9743037,0.27843281382450047,1.7175150705791713,-0.3060940700043833,0.687675982581452,nan
1741044006.9782097,-0.7991837298965923,1.3412947679616813,0.38747825814533854,-0.8944019306172514,nan
1741044006.9821155,-1.561245590672602,0.8609925822512541,0.8768262678276858,-2.0192199060152602,nan
1741044006.9860213,-1.4799113896484681,0.6001380433299336,0.8729416676847025,-1.9769304768808467,nan
1741044006.989927,-0.5570488201332567,0.3350201029529189,0.4206962426242319,-0.8013776276190553,nan
1741044006.993833,0.6678644987291391,-0.30156723790924644,-0.15496969628334673,0.7598135393530302,nan
1741044006.9977388,1.486078004944478,-1.2742562533975672,-0.5077757897206203,1.7591955200928004,nan
1741044007.0016446,1.479588338635657,-2.0093067409727836,-0.5141295816231428,1.6703399205527656,nan
1741044007.0055506,0.7464525760701615,-1.8233161536737676,-0.31114694990777864,0.6838448326962444,nan
1741044007.0094564,-0.23134660190142692,-0.5470320845111726,-0.12423471982456624,-0.49481512732959027,nan
1741044007.0133622,-0.9341206216523339,1.212626717822201,-0.05666706121639518,-1.1584585128203175,nan
1741044007.0172718,-1.100103329065545,2.4283436673866308,-0.028880029885313917,-1.0411927646061048,nan
1741044007.0211775,-0.7951042337817436,2.3632803335065793,0.09476585254260297,-0.40462279765745574,nan
1741044007.0250833,-0.27480224441183454,1.0821006570094798,0.3281535552550227,0.23578418843574192,nan
1741044007.028989,0.20888694285456186,-0.623031712673446,0.5128627809928408,0.49945710961812506,nan
1741044007.032895,0.5181742914814591,-1.8046422452779702,0.44982143505059,0.3592077332989353,nan
1741044007.0368009,0.6259387202028822,-1.96976152843875,0.09487053885998742,0.07036469950236045,nan
1741044007.0407066,0.5600428322773805,-1.2857498462489432,-0.36495096600479526,-0.08413992513299659,nan
1741044007.0446126,0.3643828576151458,-0.303441642707813,-0.635317107922781,-0.014257974484923882,nan
1741044007.0485184,0.09239186427148025,0.5007698315315163,-0.541551943972118,0.14728480641683367,nan
1741044007.0524242,-0.19340629640095092,0.9760574634470641,-0.16651004740266842,0.1959008725636206,nan
1741044007.05633,-0.43409508081287096,1.1985028204050725,0.21932276836129233,0.04328571495566203,nan
1741044007.060236,-0.5855865675500559,1.2096390571705404,0.37628012035067004,-0.2096524951163466,nan
1741044007.064145,-0.6094592343966639,0.8981501460584376,0.2764859806132716,-0.36190323736866464,nan
1741044007.068051,-0.45749419020118093,0.15200795266954806,0.09630433628874323,-0.2814053707258059,nan
1741044007.0719569,-0.09140716094147892,-0.8835469981106603,0.034868184621360716,-0.016200913560342717,nan
1741044007.0758626,0.44692998600229983,-1.7345355952515147,0.12454791544501292,0.2389808588873903,nan
1741044007.0797684,0.9689139961435793,-1.849866228749369,0.20417520323249258,0.29419013331568883,nan
1741044007.0836744,1.1707871064583997,-1.0134148492224115,0.08043883050484044,0.11691857442083047,nan
1741044007.0875802,0.8041770380052904,0.41913824246843434,-0.2660487711543748,-0.1339703873822417,nan
1741044007.091486,-0.10137940751943625,1.6818494051812078,-0.6185337313335433,-0.2267493501056498,nan
1741044007.095392,-1.1445377876198728,2.071966729982427,-0.67476958980866,-0.04608798617078026,nan
1741044007.0992978,-1.7197493509799584,1.3992694964813683,-0.2964181556960707,0.2906874555002248,nan
1741044007.1032035,-1.3925151089383232,0.09013734975376894,0.3479295112411816,0.49303337429190514,nan
1741044007.1071093,-0.23792516422351923,-1.1128820353102322,0.8720623720535204,0.3107859975724156,nan
1741044007.1110187,1.127441766572321,-1.6220322255011852,0.9351086728565585,-0.2439079158587126,nan
1741044007.1149244,1.8963517350646009,-1.3149959464848024,0.48101268760230376,-0.842135657239126,nan
1741044007.1188302,1.5942325334281344,-0.5090170568097057,-0.22364645121152668,-1.0255440345877618,nan
1741044007.1227362,0.4090548770502587,0.31812266537877243,-0.7746717841149283,-0.5341205461612282,nan
1741044007.126642,-0.9228686224436713,0.8225362045824861,-0.8935692734068665,0.45294196798914493,nan
1741044007.1305478,-1.6085111384041435,0.9152696690142343,-0.579604226842589,1.3618463925529742,nan
1741044007.1344535,-1.3190576922494717,0.6955903111841649,-0.0619263098590635,1.567427027607519,nan
1741044007.1383595,-0.368439502297663,0.31846875134887526,0.38187195119244244,0.8258123588403805,nan
1741044007.1422653,0.5634715705105117,-0.08332762159697216,0.5908129258685911,-0.5069060164177741,nan
1741044007.146171,0.934611339136897,-0.4032111103742956,0.5622224217486116,-1.6517060851168504,nan
1741044007.150077,0.6858999654798609,-0.5535755267674584,0.37976642243163516,-1.891403844620949,nan
1741044007.1539829,0.18842037302977746,-0.496601470555626,0.12236195103190387,-1.0460285676334689,nan
1741044007.1578918,-0.12238829170327273,-0.2861610305467931,-0.1633003836133622,0.3921679096014261,nan
1741044007.1617975,-0.10276639411844889,-0.05271302407653908,-0.4260749679079756,1.5687966103957751,nan
1741044007.1657033,0.039737799774607216,0.08838414848979025,-0.5771168600107596,1.8162213698141643,nan
1741044007.169609,0.001955605538067088,0.13364610607515973,-0.5192919154543665,1.0658293195863147,nan
1741044007.173515,-0.2929831528337299,0.19055255745273117,-0.22722247869718204,-0.1516133941476854,nan
1741044007.1774209,-0.6009458302930978,0.35487362736287403,0.19605065008080622,-1.096115878580476,nan
1741044007.1813266,-0.5736476254661841,0.5681657567656261,0.5513199912546555,-1.3053361184026908,nan
1741044007.1852324,-0.09362760111791224,0.6058932397704638,0.6566010669359204,-0.8369410463662975,nan
1741044007.1891384,0.573248867224117,0.25059576137828576,0.46162120184547656,-0.12889855368922667,nan
1741044007.1930442,0.95450830465106,-0.46903179645849025,0.07727638719615536,0.3707825802327521,nan
1741044007.19695,0.7416696538892189,-1.1884211653103747,-0.300108761161932,0.5029192883153516,nan
1741044007.200856,0.049710882907874426,-1.3945069241980523,-0.5091213402542984,0.415996221043362,nan
1741044007.2047663,-0.6531572898531224,-0.7956882938880208,-0.5002018419509358,0.3414492292846146,nan
1741044007.208672,-0.8945557124742373,0.3982830539314532,-0.32622822079409575,0.3519875710819642,nan
1741044007.212578,-0.5482215356936068,1.5306537283250228,-0.07709392466031956,0.31545171821632406,nan
1741044007.2164838,0.08945957260827148,1.8940932810915434,0.17490127265608663,0.06556518727986121,nan
1741044007.2203896,0.5464900555127263,1.2085125950928528,0.3796781245810766,-0.38455274669449785,nan
1741044007.2242954,0.537967021702246,-0.16471107745958455,0.4840198257925396,-0.7927972715466363,nan
1741044007.2282014,0.1565927630974359,-1.4386022812301402,0.4274999530562533,-0.8577836910375755,nan
1741044007.2321072,-0.24268233084232355,-1.9018124991990442,0.18439885533442787,-0.46586543590319257,nan
1741044007.236013,-0.3466408225814138,-1.3551576919041326,-0.18106462518637984,0.19676317314170186,nan
1741044007.239919,-0.1203219069738864,-0.19049260739413088,-0.5089219785566778,0.7640589157495082,nan
1741044007.2438247,0.20241470966756747,0.9119102756687294,-0.6183052042384953,0.9431237020869808,nan
1741044007.2477305,0.3387136536663421,1.4230896925342398,-0.4242206811835236,0.6953587303516563,nan
1741044007.2516408,0.18684779114332511,1.2320598163999932,-0.01058804113720957,0.21360168089964363,nan
1741044007.2555468,-0.118198486482911,0.5971590977186417,0.4045521338582599,-0.25680040782215474,nan
1741044007.2594526,-0.34371172953503365,-0.11162628162195523,0.5979912136519362,-0.5806805354641525,nan
1741044007.2633584,-0.35116218271515864,-0.645501735518294,0.47824136459647193,-0.7465119021653416,nan
1741044007.2672641,-0.17673360471165356,-0.9278511210440796,0.13586383000147156,-0.7566343795421531,nan
1741044007.2711701,0.043688639348704865,-0.9551134126378765,-0.22417181048544596,-0.5445607044087181,nan
1741044007.275076,0.20710078014465647,-0.7043412166593455,-0.41524884302331216,-0.03756826442035554,nan
1741044007.2789817,0.30090184368961403,-0.16325995757050224,-0.3736569669758261,0.679367604182839,nan
1741044007.2828875,0.346904669742722,0.5541403873290958,-0.1717620897533738,1.2787185149429507,nan
1741044007.2867935,0.3165882683186205,1.1549690521471925,0.05243342273873943,1.331805610161322,nan
1741044007.2906992,0.13158155586374293,1.2864928887098876,0.18746700123829865,0.6272788326875409,nan
1741044007.294605,-0.23069874496479445,0.7765890402606477,0.20001829914189187,-0.5762206998018515,nan
1741044007.298515,-0.6314589237738517,-0.18878052540748952,0.12659565970306147,-1.610820793644264,nan
1741044007.302421,-0.798820127469268,-1.1172919295890704,0.030669178353632205,-1.8000592972620402,nan
1741044007.3063269,-0.5146570062171121,-1.4905497950908166,-0.03672578042761447,-0.9417005218084339,nan
1741044007.3102326,0.1723975727694986,-1.0903031587607117,-0.05390315107890593,0.4934306377818649,nan
1741044007.3141384,0.8994337021955905,-0.14113286542562517,-0.02797065962794605,1.6322665425632485,nan
1741044007.3180444,1.1903048130486862,0.8309703399246051,0.012080398252618087,1.7769389876215917,nan
1741044007.3219502,0.7877023922894821,1.3218517129353473,0.02734179905043801,0.8793658490195173,nan
1741044007.325856,-0.12861104732908546,1.1323967147605623,-0.009411412261351719,-0.4366563667009529,nan
1741044007.3297617,-1.0203314264754864,0.43769933849600606,-0.0882903274123636,-1.3234680760966926,nan
1741044007.3336678,-1.3335187320053146,-0.3675100682159181,-0.1544549553796784,-1.2947755483251366,nan
1741044007.3375735,-0.869935490647111,-0.910708099674977,-0.13703997057574485,-0.5197095805640315,nan
1741044007.3414793,0.0789189447571945,-1.0095516275258771,-0.005868732148778783,0.369998313680811,nan
1741044007.3453894,0.9301128535543675,-0.6961816964678488,0.18570126243292834,0.7813930774421718,nan
1741044007.3492951,1.1946093870211778,-0.1411730175968139,0.31633805514567587,0.5719244129980006,nan
1741044007.353201,0.7773495018662477,0.4367313113056884,0.2752334830116523,0.07275407373125087,nan
1741044007.3571067,-0.0035609654331878113,0.8296359803509856,0.05234915267301969,-0.24956525844473088,nan
1741044007.3610127,-0.6630766468224959,0.8837070492747099,-0.23317311481755637,-0.1859535986220103,nan
1741044007.3649185,-0.8654505131806438,0.5541566227965683,-0.4014982092945367,0.08872666082660961,nan
1741044007.3688242,-0.5942563339913298,-0.04386372275966217,-0.33684384456320315,0.22939736028365074,nan
1741044007.3727303,-0.09365258983517846,-0.6459227526519188,-0.07597270200338022,0.05920342614876871,nan
1741044007.376636,0.3328156734258402,-0.9484059630718558,0.21219597852380487,-0.2717570890186105,nan
1741044007.3805418,0.5039627076022035,-0.7779252087647822,0.34630759394825433,-0.4368799113645535,nan
1741044007.3844476,0.416056249837953,-0.21139680124068644,0.2618875255775692,-0.24481803955619036,nan
1741044007.3883536,0.18031830544911043,0.44995664180273154,0.04988358996856499,0.17301903417721134,nan
1741044007.392263,-0.07254073319485484,0.8526132795141675,-0.1245039327291088,0.4686042215091275,nan
1741044007.396169,-0.2484035921052427,0.7997967420476656,-0.15486057639879583,0.3835663441188346,nan
1741044007.4000747,-0.29803671817873123,0.3573953197472079,-0.06903650206572197,-0.015932099721584846,nan
1741044007.4039805,-0.21307351559984125,-0.2086151968711976,0.01261124409120804,-0.3861291667298108,nan
1741044007.4078865,-0.03320725270671696,-0.6071901078910654,-0.004257426710339686,-0.3991470104011892,nan
1741044007.4117923,0.15198732174576304,-0.6821884684077468,-0.09863335777613334,-0.03137868187892208,nan
1741044007.415698,0.23702860656192606,-0.4600017784932552,-0.15391853424872134,0.4044426097899001,nan
1741044007.4196038,0.1672305385704826,-0.0845842164792645,-0.0703567009869834,0.5172913669069485,nan
1741044007.4235098,-0.011031722843761726,0.28269635030358553,0.13000861013897755,0.17147235730712532,nan
1741044007.4274156,-0.17006818243908017,0.5223975941533989,0.30327112060401384,-0.38594164111094764,nan
1741044007.4313214,-0.19113034733324913,0.5634281388215117,0.2965808600780903,-0.7145963859757294,nan
1741044007.4352272,-0.0590308116448778,0.37975923033267006,0.08180736447767556,-0.5337752367427507,nan
1741044007.4391365,0.12029513802973253,0.012910953345293704,-0.2060367763754248,0.049865518573254726,nan
1741044007.4430423,0.20197176428547461,-0.4006184685910223,-0.36519253459826195,0.6232270315586165,nan
1741044007.4469483,0.12055403926810737,-0.6554208855724433,-0.28410340524812183,0.785938701866285,nan
1741044007.450854,-0.05535644419148159,-0.5828023466332984,-0.030319973283748948,0.4478485425106798,nan
1741044007.4547598,-0.18137186106664493,-0.18014516249040927,0.20372621395319332,-0.12655641767819176,nan
1741044007.4586658,-0.1601392451003345,0.34403838144058385,0.2548734819434555,-0.5438862382838867,nan
1741044007.4625716,-0.022199477278473306,0.6759597412029423,0.11634943345197668,-0.579333841000907,nan
1741044007.4664774,0.10623202950115494,0.6029986071952771,-0.06678985591981042,-0.30755683298944564,nan
1741044007.4703832,0.11932209957028363,0.17322827269338575,-0.12799386908175353,0.014284889568525737,nan
1741044007.4742892,0.02612835634062823,-0.3244781610340329,-0.023614696398029537,0.18256976288841817,nan
1741044007.478195,-0.06338292856520597,-0.5616620197650428,0.1317235362002555,0.19039295920752292,nan
1741044007.4821007,-0.048594109705442375,-0.40785057687521414,0.16882949808804223,0.17041651595742832,nan
1741044007.4860098,0.05845109469248555,-0.020362202121352476,0.017910050993490086,0.21815155725663418,nan
1741044007.4899156,0.1376273494260574,0.28749157221007693,-0.21990067548492565,0.2778089253451065,nan
1741044007.4938216,0.07612664832150132,0.29700038981804877,-0.34752985831326194,0.20190708559556828,nan
1741044007.4977274,-0.10952094214161587,0.052076856041073864,-0.23403230433208927,-0.0759016692552765,nan
1741044007.5016332,-0.2649014955347753,-0.19165108839873093,0.07018107789118566,-0.42774514866129837,nan
1741044007.505539,-0.2256175617562439,-0.19348088065048133,0.3617679913004395,-0.60073480368616,nan
1741044007.509445,0.02357951877916285,0.0600848172497569,0.43588523379122596,-0.4230364454937146,nan
1741044007.5133507,0.30577444873852433,0.33781857808901866,0.2400934314674495,0.031568926265010594,nan
1741044007.5172565,0.3814250949598118,0.3599063528929201,-0.09011473466955405,0.4741272042638,nan
1741044007.5211623,0.1542635352709648,0.04597181723610584,-0.33770382564796136,0.6142334678796714,nan
1741044007.5250683,-0.22335016659058354,-0.3951785960825279,-0.36328781901413043,0.3836201033626709,nan
1741044007.528974,-0.45168205836950576,-0.6171793650280681,-0.1921005530099851,-0.018183084583495688,nan
1741044007.5328867,-0.32503665874564025,-0.41266257875578244,0.03015443611529827,-0.2948275327733023,nan
1741044007.5367925,0.08283727145363542,0.10872780219052816,0.16306935841703685,-0.2945568414900365,nan
1741044007.5406983,0.45472655945413376,0.5889918677528001,0.17003155963759364,-0.11613825891113091,nan
1741044007.5446043,0.4758442673402013,0.6877928348574183,0.11543533109503418,0.0076006043772920496,nan
1741044007.54851,0.09776566797401985,0.3379440046987617,0.07938705877947146,-0.059822952080092806,nan
1741044007.5524158,-0.4006195197223705,-0.20857918773539683,0.07669927345883543,-0.223829593013213,nan
1741044007.5563216,-0.6198359369646128,-0.5754817384632017,0.053837060669368275,-0.24590002772872685,nan
1741044007.5602276,-0.35903379367990895,-0.5404912730052494,-0.039915042921024005,0.01941903780941951,nan
1741044007.5641334,0.2091571769405907,-0.1814116202406253,-0.18049929868172382,0.4501192129877837,nan
1741044007.5680392,0.6579847232477091,0.2120349321074002,-0.2697680694278485,0.714234752174059,nan
1741044007.571945,0.6350785632065156,0.37451158186398625,-0.2143500291810043,0.5323269136345699,nan
1741044007.575851,0.14210372564043983,0.2549147710326571,-0.014627891547293222,-0.06625834717062151,nan
1741044007.5797613,-0.4594591868960047,0.01811934224968857,0.21736867624965436,-0.7165742459573161,nan
1741044007.583667,-0.7251204940331651,-0.12136404587678516,0.3330163861737285,-0.965452912911606,nan
1741044007.587573,-0.4693308502484885,-0.08122287705335608,0.25708216094036407,-0.6119507655024996,nan
1741044007.5914788,0.0973412551384221,0.041778058328800265,0.043677895261221726,0.12639353409474424,nan
1741044007.5953846,0.5414583396397502,0.08476076962968922,-0.16641237589575986,0.7596651836970829,nan
1741044007.5992904,0.5481938525806171,-0.020215787957198222,-0.25068443848960775,0.8785279815506716,nan
1741044007.6031964,0.15781447503442225,-0.18186280186858828,-0.18729382490300203,0.44556227548302507,nan
1741044007.6071022,-0.28625439391413937,-0.234929598876429,-0.05334301201229752,-0.19495765763352546,nan
1741044007.611008,-0.42651360017074674,-0.09518427820383525,0.050162947045107924,-0.5885666603760478,nan
1741044007.614914,-0.1785372397431785,0.154556909942153,0.07788032399870425,-0.5075918365148963,nan
1741044007.6188197,0.21390084007242433,0.323996322368929,0.05933269843226612,-0.09616498843708868,nan
1741044007.6227255,0.39235339058924973,0.27107593407958974,0.051007839539407386,0.27493427068996956,nan
1741044007.6266358,0.18534448844388413,0.022686565482683486,0.07314621917097253,0.31389381042467895,nan
1741044007.6305416,-0.24815311241780189,-0.24086939029586982,0.09120595762156651,0.02848586428157446,nan
1741044007.6344473,-0.5461461261499574,-0.3254297499090986,0.05607003088340763,-0.302964492511484,nan
1741044007.6383533,-0.43536150108102484,-0.17343614751190092,-0.03874069393853095,-0.371446596514429,nan
1741044007.6422591,0.04671820610210413,0.09414485551974995,-0.13944720101704058,-0.08853164544496424,nan
1741044007.646165,0.5720081402884772,0.2743381665515103,-0.1725992131430938,0.34641504013989444,nan
1741044007.6500707,0.7632101122050559,0.23757229136863192,-0.10788296870373595,0.6044091560535341,nan
1741044007.6539767,0.46782641533157376,0.02080818098328997,0.01378716339283543,0.4772552262312899,nan
1741044007.6578825,-0.13793831071541707,-0.20820252412545165,0.1125428570138883,0.027409784212250245,nan
1741044007.6617882,-0.679178280378165,-0.28043808503264966,0.13351143392762552,-0.4649468095629489,nan
1741044007.6656942,-0.8362234892091281,-0.14685352771612029,0.08601058132504551,-0.7020712995634409,nan
1741044007.6696,-0.5374388740889868,0.09532620602803363,0.02522301583821378,-0.5608859275766384,nan
1741044007.67351,0.027073586630579828,0.2803645675918641,-0.0035783996948141428,-0.14774173819660347,nan
1741044007.6774158,0.5491488453305315,0.2900243731545504,-0.004777989459481327,0.298832522979295,nan
1741044007.6813219,0.7836505632158176,0.12438411134676043,-0.01919758604795059,0.5656604616627752,nan
1741044007.6852276,0.653254460491766,-0.11219828832184411,-0.0720412401550278,0.5697402733836169,nan
1741044007.6891334,0.24482021957344424,-0.286162873339019,-0.13436736971049404,0.36042890458315285,nan
1741044007.6930392,-0.2588423406851255,-0.3125654526577665,-0.13968616999211114,0.05188391870347265,nan
1741044007.6969452,-0.6539738918063074,-0.18964861104919445,-0.045964742624809124,-0.24547954884885606,nan
1741044007.700851,-0.7758820788960635,0.016804791187136216,0.11224567383177769,-0.4525068534787601,nan
1741044007.7047567,-0.5532836930965355,0.21503092668686027,0.23382602129834137,-0.5168498522693107,nan
1741044007.7086625,-0.05554242183979528,0.3260683087105238,0.22365596956685685,-0.41090763831961885,nan
1741044007.7125685,0.5024390407024991,0.30669602993007955,0.07151054165161184,-0.14920346345680985,nan
1741044007.7164743,0.8378997641225059,0.15894864723860538,-0.12988016414766676,0.1923848653597958,nan
1741044007.720379,0.750024649888166,-0.06885667031754193,-0.24784321877653726,0.4869261798876663,nan
1741044007.724285,0.25894722523767283,-0.2914667769602762,-0.2072732467851646,0.6065676369323956,nan
1741044007.728191,-0.37334148473768963,-0.4118821063023996,-0.04581231781254762,0.4873776278750791,nan
1741044007.7320967,-0.7833295434605583,-0.3608045509790131,0.11731446333635398,0.167170423352747,nan
1741044007.7360024,-0.73332132840902,-0.13566606270143625,0.17346951440166125,-0.22869468908387225,nan
1741044007.7399082,-0.27212074553238264,0.18305692386753497,0.10396612559238527,-0.5438878444321449,nan
1741044007.7438142,0.29296088592954567,0.4545506807866643,-0.014970563541378695,-0.6565314357776733,nan
1741044007.74772,0.6038087789666913,0.5374006565983895,-0.08140916824300072,-0.5224774950539184,nan
1741044007.7516258,0.49513364043647945,0.36287288923352173,-0.051364582976485704,-0.18565240558789256,nan
1741044007.7555318,0.09810960302469723,-0.015044714400121421,0.03131166296251591,0.23821110205693796,nan
1741044007.7594376,-0.2707989416498162,-0.4259868395427187,0.07954458784030743,0.5955202219004088,nan
1741044007.7633433,-0.3504605533702539,-0.6558388944178117,0.040862009841236835,0.7424136290296101,nan
1741044007.767253,-0.12346998447418826,-0.5593823330174043,-0.057820070385817934,0.6000378332474181,nan
1741044007.7711587,0.18698500863017956,-0.15507373736889815,-0.13397073502081258,0.1992578410044763,nan
1741044007.7750645,0.30305922217834697,0.36036993446378646,-0.1190936840220987,-0.3129787381906635,nan
1741044007.7789702,0.11365289998225843,0.7039957819974301,-0.015213713550432554,-0.7234481524861767,nan
1741044007.7828763,-0.23901425632210604,0.6672371084176785,0.10691599080060185,-0.8457562914016125,nan
1741044007.786782,-0.47051846808363645,0.25246481447426916,0.1634236362606054,-0.6121939212837509,nan
1741044007.7906878,-0.37402737355631765,-0.30879931364435814,0.1198227024828979,-0.11289418089218868,nan
1741044007.7945938,0.01949084057923155,-0.684541314680136,0.01185359727345942,0.4421492496422135,nan
1741044007.7984996,0.45865222790239163,-0.6480590514752983,-0.08698925845633651,0.8187012354977939,nan
1741044007.8024054,0.6488429621024109,-0.22819342176125712,-0.12073309015862277,0.8612451726257784,nan
1741044007.8063111,0.4559798854982535,0.30339653290184354,-0.08515372350089924,0.554443424667376,nan
1741044007.8102171,-0.007604523305201886,0.6087210674560358,-0.019541795453057256,0.022134012634978835,nan
1741044007.8141263,-0.4662981677714503,0.507804729551844,0.029913794745184092,-0.5257419529549721,nan
1741044007.8180323,-0.6633112374621035,0.09523200768868535,0.04255343196915735,-0.8720556373448292,nan
1741044007.821938,-0.5121439643842152,-0.3338811510603961,0.02908332882198713,-0.8716263780620476,nan
1741044007.8258438,-0.12487372922718822,-0.4946342259249026,0.01367332200176199,-0.5097812553239128,nan
1741044007.8297498,0.2806742312605329,-0.3067325288340031,0.012140236372470076,0.07963313250625076,nan
1741044007.8336556,0.5154648659435414,0.06598043823262979,0.023032928150179616,0.6537902046438215,nan
1741044007.8375614,0.5066678719092779,0.3511436475252995,0.033223327090312026,0.9573596142087988,nan
1741044007.8414671,0.30069330432850117,0.36846779269849766,0.028588689695045594,0.842646869803047,nan
1741044007.8453732,0.007624699232694308,0.1434878302826911,0.0017034261433634145,0.35281511300255175,nan
1741044007.849279,-0.2600899701040895,-0.14035372599445778,-0.04399759027498992,-0.2867666033497735,nan
1741044007.8531847,-0.42048548968801963,-0.2961721634265611,-0.09150659655985251,-0.7770614953453924,nan
1741044007.8570905,-0.42888630157600266,-0.2630858895636074,-0.1118329503509962,-0.8989398645579891,nan
1741044007.8609998,-0.28019275709561947,-0.11497291357965315,-0.07642056867765573,-0.6229869712371163,nan
1741044007.8649056,-0.01743081348157373,0.03590902417248685,0.019981782371817285,-0.11092632911665978,nan
1741044007.8688114,0.2657884821540868,0.1377711067982222,0.14081545982934243,0.3867274946454894,nan
1741044007.8727171,0.4494459347897484,0.20973196322740084,0.21499211751613104,0.666793255963961,nan
1741044007.8766232,0.4406245386944457,0.26836551887813404,0.1773894030466716,0.6592052423748094,nan
1741044007.880529,0.22991140916936226,0.2624429114362565,0.021244607177082552,0.42326475712593525,nan
1741044007.8844347,-0.08924191702047701,0.10266675185997044,-0.17839021357987875,0.08106026629099833,nan
1741044007.8883405,-0.36060796037633275,-0.2244493455544209,-0.29892949588460477,-0.2505298071291592,nan
1741044007.8922465,-0.4483461211481412,-0.5694917943190482,-0.24960584780106992,-0.48706057642818495,nan
1741044007.8961523,-0.3146339021716896,-0.6725421122777464,-0.04259272632106868,-0.5697304887063349,nan
1741044007.900058,-0.04211375850647007,-0.35385143647592415,0.2012589789948583,-0.46228356579098595,nan
1741044007.903964,0.2154522939027983,0.29676853605082487,0.326287774729056,-0.17466771104783987,nan
1741044007.907873,0.32501012660477324,0.9069169711205979,0.24886388917492566,0.20633486933834866,nan
1741044007.9117787,0.25110027950457414,1.0418661433272263,0.019822031923919438,0.5246466572626686,nan
1741044007.9156845,0.0693526260382666,0.5240954341312553,-0.20728072506293732,0.6230951328638833,nan
1741044007.9195902,-0.09088355337571075,-0.3894552328554182,-0.2830425658354472,0.4395099532653135,nan
1741044007.9234962,-0.13565228395790457,-1.1346316415086632,-0.16726140668751538,0.06020191749114724,nan
1741044007.927402,-0.06679381534343427,-1.211583553548845,0.04553429687353128,-0.31998238368432624,nan
1741044007.9313078,0.02766632475834107,-0.542567852317124,0.1987109437233431,-0.5136745191145453,nan
1741044007.9352138,0.04616853094928282,0.4528835318508046,0.18907196869258996,-0.4535244868578953,nan
1741044007.9391196,-0.04305349578076723,1.1360865344960576,0.03866703487851923,-0.2199425856656125,nan
1741044007.9430254,-0.1705154795875465,1.0880861192966444,-0.12869217433362581,0.032918890805072695,nan
1741044007.9469311,-0.21347945178193226,0.3914942559867194,-0.18448428633587166,0.19058884060375902,nan
1741044007.9508371,-0.09277570985169961,-0.4486150808101744,-0.09037721602471599,0.24076025183995697,nan
1741044007.9547458,0.15243062390123235,-0.8794737873176524,0.07889898005880909,0.24198119246167715,nan
1741044007.9586515,0.37303775237262526,-0.6875422990373391,0.19653938357442088,0.23816512675850854,nan
1741044007.9625573,0.4052593316172231,-0.1140276151075296,0.1776433167780944,0.20430750003167733,nan
1741044007.966463,0.19033991861450567,0.369742303874884,0.03576046134378294,0.07721566764690409,nan
1741044007.970369,-0.16868166609434496,0.4363064543733199,-0.13408720669538612,-0.15671494782069814,nan
1741044007.9742749,-0.4614723337940584,0.13179227328817608,-0.22529279845908065,-0.4035992154265423,nan
1741044007.9781806,-0.5055032097500217,-0.20440882428826607,-0.18777815256962918,-0.5017110310825975,nan
1741044007.9820864,-0.2693898365910539,-0.24556727023116504,-0.050093209519460564,-0.3414818003683087,nan
1741044007.9859924,0.10406848994204983,0.047574404092402836,0.10909479873323595,0.02931921101845223,nan
1741044007.9898982,0.3935231057115277,0.4023714824767256,0.2107842629727988,0.4104989362115711,nan
1741044007.993804,0.44563641302617557,0.47048928414120356,0.21266291408807778,0.5756286587720647,nan
1741044007.99771,0.2678310107464626,0.1261942249523417,0.1192234277150231,0.4296764868007801,nan
1741044008.00162,0.003913143096202,-0.4157825885507529,-0.02785613985125844,0.0761790677815346,nan
1741044008.0055258,-0.18195841686385464,-0.7561315700565258,-0.16668932485620835,-0.2602944723922983,nan
1741044008.0094318,-0.2200434263548903,-0.6161756324822224,-0.23527356252639106,-0.3962544741455237,nan
1741044008.0133376,-0.16209499925238907,-0.05441735116613839,-0.1959302978081345,-0.3090328962753,nan
1741044008.0172434,-0.10869582227475395,0.569321947926874,-0.058571115620099666,-0.1242285961788887,nan
1741044008.0211494,-0.10644422468513005,0.8497287368278623,0.11358370713689031,0.008705150463910053,nan
1741044008.0250552,-0.1067014143444299,0.6170722583112559,0.2301456491246275,0.04132597519132575,nan
1741044008.028961,-0.022078810545932324,0.04078039708485675,0.22488696068412847,0.045309238184529456,nan
1741044008.0328667,0.1701128797855791,-0.5056779585420735,0.10078805442162408,0.11588011451489966,nan
1741044008.0367727,0.37321503593690564,-0.7051203761440101,-0.06675051151746483,0.2535948624885367,nan
1741044008.0406785,0.42427507480117244,-0.49174711282133965,-0.1774376372455863,0.3391797273744666,nan
1741044008.0445843,0.2229728902993255,-0.05715880207302577,-0.17362163746788045,0.23381002318680796,nan
1741044008.0484943,-0.16551801190379833,0.3107848478390575,-0.07767121141076574,-0.07811884072220987,nan
1741044008.0524,-0.524796118491805,0.4235843414463647,0.030356986838183882,-0.4338776479268067,nan
1741044008.056306,-0.6222360352804777,0.2873609992957001,0.07742651183442793,-0.5889086946468823,nan
1741044008.060212,-0.371959632520514,0.05411120134165847,0.052329132588007164,-0.4010538892837486,nan
1741044008.0641177,0.09498180292231061,-0.10975250581332302,0.006103643678771123,0.043462739718542226,nan
1741044008.0680234,0.5090284930114901,-0.1332397205144413,-0.0006054404277584661,0.4716173126391806,nan
1741044008.0719292,0.6359061425254824,-0.06131262399638153,0.04370683376400259,0.6116568051580035,nan
1741044008.0758352,0.4232069471465431,0.007031113828350713,0.0891856185316361,0.38731095200359245,nan
1741044008.079741,0.01992810909873285,0.0030425499285661344,0.07103493203228907,-0.03148505419680952,nan
1741044008.0836468,-0.3356651618382552,-0.06625214044900028,-0.02577192087484673,-0.36008778964484667,nan
1741044008.0875525,-0.4714553030590913,-0.1335091995891594,-0.1422076453032967,-0.4089716101871042,nan
1741044008.0914586,-0.3703595169542347,-0.1263292015270408,-0.18678435499872614,-0.2088336611426717,nan
1741044008.0953684,-0.14358966684261693,-0.02118947758459846,-0.1110604738394601,0.04049262172964045,nan
1741044008.0992742,0.07124620745581355,0.1368560065376207,0.044704221884258794,0.14593760996133906,nan
1741044008.10318,0.1994097792984177,0.25790386896698436,0.17681732365633193,0.07337052511286607,nan
1741044008.107086,0.24439170691129647,0.2597313359166455,0.19627160852930706,-0.045960386896896195,nan
1741044008.1109917,0.2385071977512518,0.11995796902393274,0.09640614587864868,-0.051140645490218205,nan
1741044008.1148975,0.18983725024540268,-0.10240956822956576,-0.045176511209201714,0.09305579558622311,nan
1741044008.1188033,0.07891884314422322,-0.29234810138226053,-0.13072295736681372,0.25739129010317857,nan
1741044008.1227093,-0.09629969996507147,-0.34176236046499486,-0.11781385848688448,0.2607314000573337,nan
1741044008.126615,-0.2787109896289959,-0.2153809302153103,-0.04386153837445295,0.03808028817364149,nan
1741044008.1305208,-0.36499453391088565,0.02250523639977316,0.0170565939170657,-0.28180362548250687,nan
1741044008.1344268,-0.2751557094336719,0.2420895893615316,0.023012166084077648,-0.4621325870990836,nan
1741044008.1383326,-0.025532626395311543,0.3252558084384373,-0.0035544057136194904,-0.34406413806037883,nan
1741044008.1422422,0.2592284273610808,0.23683737392716947,-0.007005671107158332,0.016756581690035723,nan
1741044008.146148,0.41554015976955483,0.0422444289848006,0.038925257047371986,0.37767101782215257,nan
1741044008.1500537,0.3473268986855114,-0.13981734611070562,0.09814696639206982,0.48546728251833066,nan
1741044008.1539595,0.09300694517992729,-0.21514424955876643,0.10244654504038707,0.26694801503718657,nan
1741044008.1578655,-0.19694641889381936,-0.16775214969986346,0.01923789340217936,-0.11478741232463381,nan
1741044008.1617713,-0.35688556005403826,-0.055641521170604676,-0.10637054140054128,-0.3828626473738695,nan
1741044008.165677,-0.30932074751558203,0.040767226189337084,-0.1786476450331912,-0.3537289535506572,nan
1741044008.1695828,-0.10502863098721657,0.07437739367573251,-0.12967155838891128,-0.07030376783490312,nan
1741044008.1734889,0.12153978544268682,0.05195137107485585,0.01738522967622008,0.238236317957694,nan
1741044008.1773946,0.24360270025113356,0.01317767037713023,0.15803899236954472,0.33507760137381143,nan
1741044008.1813004,0.21529465980529183,-0.005933759221834517,0.18634735923821238,0.15388917431450766,nan
1741044008.1852064,0.08311459958800597,0.0054417828405913865,0.08048995249612095,-0.15738824998470508,nan
1741044008.1891155,-0.06024857955120703,0.03600709446457242,-0.0779542156219512,-0.35468955891204096,nan
1741044008.1930215,-0.13874653997118322,0.06610329709928028,-0.16869438564644057,-0.2830876727360104,nan
1741044008.1969273,-0.12976881687260639,0.07543225647433553,-0.12838181929507902,0.011051905866515612,nan
1741044008.200833,-0.0599114449875722,0.04441376434994196,0.001912377788318849,0.31970203635686384,nan
1741044008.204739,0.02434426283557336,-0.03774617850547329,0.11533757859717045,0.4272482283500254,nan
1741044008.2086449,0.08416295145691298,-0.15334210055577166,0.12891497524407317,0.26106933506990265,nan
1741044008.2125506,0.0991819890794128,-0.24263953892869863,0.047324013054631006,-0.06760016306070521,nan
1741044008.2164564,0.06575775962382337,-0.22406322721415978,-0.050929883219711994,-0.3511332956132031,nan
1741044008.2203624,-0.005249903003860742,-0.052716506272629915,-0.08777699595480502,-0.42765156148580796,nan
1741044008.2242682,-0.0866957398267766,0.2201117806644625,-0.051553382553850995,-0.2750521267309277,nan
1741044008.228174,-0.13722781599640033,0.44442766988875115,0.0030692025282357464,-0.001879580014273229,nan
1741044008.2320797,-0.11724865467723883,0.452895849528105,0.01653621350856749,0.24019677579643262,nan
1741044008.2359889,-0.016475265668934366,0.18439667555567685,-0.014041534893704277,0.3487053246290941,nan
1741044008.2398949,0.12541532641280279,-0.242462893489566,-0.033538296122531966,0.3071539189502284,nan
1741044008.2438006,0.22730661158312102,-0.5786939178870638,0.010021787835123508,0.16052616465624037,nan
1741044008.2477064,0.21013228429528386,-0.6024410712059638,0.10113297550756599,-0.03012910058897833,nan
1741044008.2516124,0.0536577524385559,-0.2785831678674545,0.15585628420982828,-0.2114511694304135,nan
1741044008.2555182,-0.17286554338014368,0.2025082388720799,0.09402443278209696,-0.33283032377355515,nan
1741044008.259424,-0.3364881666245005,0.5475551667357952,-0.07654653078916313,-0.3407162026191674,nan
1741044008.2633297,-0.31805524848678574,0.5609948675889849,-0.2442031776051994,-0.20018945077590464,nan
1741044008.2672358,-0.09702824729598007,0.27447917134141236,-0.2717453295784549,0.06270252780136279,nan
1741044008.2711415,0.21580089817591633,-0.09284992408751437,-0.11071109537672047,0.3391827472217738,nan
1741044008.2750473,0.43127530486463145,-0.3090393142928627,0.14546010255577543,0.4757325771723395,nan
1741044008.278953,0.3984411464633857,-0.2974060540997098,0.32183220029682585,0.36617487302258483,nan
1741044008.2828639,0.11274840803355606,-0.16464730454573984,0.29394469352226954,0.03901385760817253,nan
1741044008.2867696,-0.2622160770513537,-0.07514606080316014,0.08531552296900327,-0.33254276462828203,nan
1741044008.2906756,-0.4875525610984576,-0.0889853168595629,-0.15144335821182114,-0.524323151469877,nan
1741044008.2945814,-0.4058162593765876,-0.11124406471600334,-0.25632330019488797,-0.4074872618247297,nan
1741044008.2984872,-0.05758311451634638,-8.728534763344872e-05,-0.18588498055048425,-0.04633055544949366,nan
1741044008.3023932,0.33072965154855966,0.26473411574924205,-0.03607459367601447,0.3308605020680915,nan
1741044008.306299,0.4929373531016584,0.5145905160663903,0.05335393502299245,0.47977818604764505,nan
1741044008.3102047,0.3102048976533683,0.5065573487983572,0.027383871855613758,0.3087949328689455,nan
1741044008.3141105,-0.09409400789216305,0.13881216484294623,-0.03801538826742977,-0.05342704884145805,nan
1741044008.3180165,-0.4299671421960544,-0.4174155936169958,-0.015682338378551826,-0.3464221947544345,nan
1741044008.3219223,-0.44495687270837736,-0.8014734727946629,0.1365103432382839,-0.3642938311773969,nan
1741044008.325828,-0.1144565526072395,-0.7205971365347316,0.30898630202688554,-0.10569787533976659,nan
1741044008.3297367,0.3259859936964764,-0.18537901650752997,0.31552953875763007,0.22516977012942468,nan
1741044008.3336425,0.5424497082095269,0.47147196418548687,0.05922910515365332,0.37100231636068953,nan
1741044008.3375483,0.34972163648725296,0.8235468578481328,-0.3498784556617328,0.21570723844814374,nan
1741044008.3414543,-0.1380868151778763,0.6580023749447658,-0.6384362710029197,-0.1257846988810936,nan
1741044008.34536,-0.5741036467073233,0.124338246230967,-0.5610576083916207,-0.3924239930567928,nan
1741044008.3492658,-0.6253132615976313,-0.3905309266289116,-0.09940663002904805,-0.37456759798600975,nan
