timestamps,TP9,AF7,AF8,TP10,Right AUX
1740797092.8463495,-41.9921875,-44.43359375,-36.1328125,-26.85546875,0.0
1740797092.8502555,-35.64453125,-36.1328125,-37.59765625,-29.296875,0.0
1740797092.8541615,-22.4609375,-41.9921875,-30.2734375,-20.01953125,0.0
1740797092.8580673,-43.45703125,-43.9453125,-30.2734375,-26.85546875,0.0
1740797092.8619733,-48.33984375,-32.2265625,-38.57421875,-45.41015625,0.0
1740797092.865879,-41.50390625,-27.34375,-42.48046875,-56.640625,0.0
1740797092.869785,-38.0859375,-33.69140625,-41.50390625,-54.19921875,0.0
1740797092.873691,-26.85546875,-41.9921875,-41.50390625,-41.015625,0.0
1740797092.8775969,-48.33984375,-40.0390625,-44.921875,-45.8984375,0.0
1740797092.8815029,-70.80078125,-35.64453125,-43.9453125,-61.03515625,0.0
1740797092.8854086,-56.15234375,-37.109375,-47.36328125,-74.70703125,0.0
1740797092.8893147,-49.31640625,-40.0390625,-52.734375,-74.70703125,0.0
1740797092.8932219,-46.875,-36.62109375,-49.31640625,-51.7578125,0.0
1740797092.8971279,-58.59375,-41.50390625,-45.8984375,-60.546875,0.0
1740797092.9010336,-54.6875,-46.875,-46.875,-75.68359375,0.0
1740797092.9049397,-44.43359375,-46.38671875,-44.921875,-61.5234375,0.0
1740797092.9088454,-60.05859375,-49.8046875,-47.36328125,-62.98828125,0.0
1740797092.9127514,-62.98828125,-45.41015625,-47.36328125,-53.7109375,0.0
1740797092.9166572,-45.8984375,-42.96875,-42.96875,-39.0625,0.0
1740797092.9205632,-34.1796875,-39.0625,-41.015625,-37.59765625,0.0
1740797092.9244692,-31.25,-25.390625,-44.921875,-29.78515625,0.0
1740797092.928375,-34.1796875,-33.203125,-42.96875,-21.97265625,0.0
1740797092.932281,-22.94921875,-38.57421875,-37.59765625,-16.6015625,0.0
1740797092.9361868,-18.06640625,-30.2734375,-40.0390625,-1.953125,0.0
1740797092.9400938,-26.85546875,-24.90234375,-37.109375,2.44140625,0.0
1740797092.9439998,-15.625,-29.296875,-33.69140625,-1.46484375,0.0
1740797092.9479058,-8.7890625,-32.71484375,-37.59765625,-2.44140625,0.0
1740797092.9518116,-4.8828125,-27.83203125,-35.64453125,-3.90625,0.0
1740797092.9557176,-0.9765625,-31.73828125,-29.296875,-2.9296875,0.0
1740797092.9596233,0.0,-41.9921875,-28.80859375,1.953125,0.0
1740797092.9635293,-2.44140625,-44.921875,-29.296875,-2.9296875,0.0
1740797092.9674354,-8.30078125,-40.0390625,-31.25,-0.9765625,0.0
1740797092.9713411,-0.48828125,-41.015625,-33.69140625,7.32421875,0.0
1740797092.9752471,-1.46484375,-47.8515625,-25.87890625,2.44140625,0.0
1740797092.979153,-4.39453125,-41.50390625,-24.90234375,4.8828125,0.0
1740797092.983059,0.0,-43.45703125,-32.2265625,-3.41796875,0.0
1740797092.9869673,-13.18359375,-55.17578125,-28.3203125,-14.16015625,0.0
1740797092.9908733,-10.7421875,-53.7109375,-25.390625,-13.671875,0.0
1740797092.9947793,-24.90234375,-46.38671875,-31.73828125,-21.97265625,0.0
1740797092.9986851,-43.45703125,-46.875,-34.66796875,-30.2734375,0.0
1740797093.0025911,-41.015625,-55.17578125,-35.64453125,-36.1328125,0.0
1740797093.006497,-48.828125,-62.01171875,-35.15625,-42.96875,0.0
1740797093.010403,-58.10546875,-57.12890625,-31.25,-48.33984375,0.0
1740797093.014309,-60.546875,-56.15234375,-32.71484375,-50.78125,0.0
1740797093.0182147,-46.875,-57.6171875,-35.64453125,-52.24609375,0.0
1740797093.0221207,-35.64453125,-54.19921875,-33.69140625,-48.33984375,0.0
1740797093.0260265,-45.41015625,-46.38671875,-37.109375,-47.8515625,0.0
1740797093.0299325,-56.15234375,-47.36328125,-35.15625,-45.8984375,0.0
1740797093.0338407,-51.26953125,-49.31640625,-31.25,-35.64453125,0.0
1740797093.0377467,-38.0859375,-51.7578125,-34.66796875,-45.41015625,0.0
1740797093.0416527,-47.36328125,-53.7109375,-38.57421875,-45.8984375,0.0
1740797093.0455585,-58.59375,-53.7109375,-38.57421875,-42.96875,0.0
1740797093.0494645,-53.7109375,-61.03515625,-37.59765625,-45.8984375,0.0
1740797093.0533702,-58.59375,-68.359375,-41.9921875,-51.26953125,0.0
1740797093.0572762,-62.98828125,-62.98828125,-43.9453125,-58.59375,0.0
1740797093.0611823,-58.10546875,-44.921875,-47.36328125,-69.82421875,0.0
1740797093.065088,-62.98828125,-51.7578125,-44.43359375,-59.08203125,0.0
1740797093.068994,-60.05859375,-58.10546875,-41.50390625,-43.9453125,0.0
1740797093.0728998,-62.01171875,-42.96875,-44.43359375,-47.8515625,0.0
1740797093.0768058,-67.3828125,-54.6875,-40.52734375,-49.31640625,0.0
1740797093.080714,0.0,-60.05859375,-34.66796875,-43.9453125,0.0
1740797093.08462,0.0,-47.36328125,-36.1328125,-28.3203125,0.0
1740797093.0885258,0.0,-41.50390625,-37.109375,-28.3203125,0.0
1740797093.0924318,0.0,-45.41015625,-35.15625,-35.15625,0.0
1740797093.0963376,0.0,-52.734375,-37.59765625,-41.50390625,0.0
1740797093.1002436,0.0,-59.08203125,-41.015625,-41.9921875,0.0
1740797093.1041493,0.0,-59.5703125,-41.015625,-24.4140625,0.0
1740797093.1080554,0.0,-48.828125,-37.59765625,-3.90625,0.0
1740797093.1119614,0.0,-48.33984375,-35.15625,-2.44140625,0.0
1740797093.1158671,0.0,-41.9921875,-36.1328125,-17.08984375,0.0
1740797093.1197731,0.0,-24.4140625,-32.2265625,-10.25390625,0.0
1740797093.123679,0.0,-20.99609375,-28.3203125,-1.46484375,0.0
1740797093.1275868,-27.34375,-30.76171875,-36.1328125,-16.11328125,0.0
1740797093.1314929,-15.13671875,-35.15625,-31.73828125,-7.8125,0.0
1740797093.1353986,-6.34765625,-37.59765625,-22.94921875,7.32421875,0.0
1740797093.1393046,-8.7890625,-38.57421875,-23.92578125,-3.90625,0.0
1740797093.1432104,-19.53125,-36.62109375,-24.90234375,-10.7421875,0.0
1740797093.1471164,-18.06640625,-39.0625,-20.01953125,-1.46484375,0.0
1740797093.1510224,-13.671875,-41.015625,-16.11328125,-6.8359375,0.0
1740797093.1549282,-15.13671875,-49.8046875,-17.08984375,-14.16015625,0.0
1740797093.1588342,-31.25,-51.26953125,-21.484375,-9.27734375,0.0
1740797093.16274,-47.8515625,-33.69140625,-25.390625,-11.23046875,0.0
1740797093.166646,-32.2265625,-37.59765625,-28.3203125,-23.4375,0.0
1740797093.170552,-8.7890625,-48.828125,-31.25,-25.87890625,0.0
1740797093.1744595,-10.7421875,-46.875,-30.2734375,-27.34375,0.0
1740797093.1783655,-12.6953125,-36.62109375,-31.25,-22.94921875,0.0
1740797093.1822715,-16.11328125,-33.203125,-29.78515625,-16.11328125,0.0
1740797093.1861773,-32.2265625,-42.96875,-31.73828125,-27.34375,0.0
1740797093.1900833,-25.87890625,-48.828125,-34.66796875,-33.203125,0.0
1740797093.193989,-26.3671875,-45.41015625,-34.66796875,-38.57421875,0.0
1740797093.197895,-31.25,-38.0859375,-33.69140625,-38.0859375,0.0
1740797093.2018008,-20.99609375,-50.29296875,-35.15625,-38.57421875,0.0
1740797093.2057068,-27.83203125,-48.33984375,-34.66796875,-43.9453125,0.0
1740797093.2096128,-42.96875,-39.55078125,-39.0625,-53.7109375,0.0
1740797093.2135186,-49.8046875,-47.8515625,-40.0390625,-61.03515625,0.0
1740797093.2174246,-43.9453125,-52.24609375,-37.59765625,-62.01171875,0.0
1740797093.221332,-52.24609375,-52.734375,-46.38671875,-79.58984375,0.0
1740797093.2252378,-53.22265625,-45.41015625,-48.828125,-76.66015625,0.0
1740797093.2291439,-63.4765625,-46.38671875,-47.8515625,-52.24609375,0.0
1740797093.2330499,-69.3359375,-55.6640625,-52.24609375,-49.8046875,0.0
1740797093.2369556,-60.05859375,-55.17578125,-54.6875,-64.94140625,0.0
1740797093.2408617,-84.9609375,-58.59375,-55.6640625,-72.265625,0.0
1740797093.2447674,-76.66015625,-67.3828125,-55.17578125,-61.5234375,0.0
1740797093.2486734,-70.3125,-69.82421875,-53.7109375,-51.26953125,0.0
1740797093.2525795,-66.89453125,-49.31640625,-51.7578125,-47.8515625,0.0
1740797093.2564852,-59.08203125,-48.33984375,-49.8046875,-49.8046875,0.0
1740797093.2603912,-74.21875,-59.08203125,-49.8046875,-51.7578125,0.0
1740797093.264297,-67.87109375,-57.6171875,-52.734375,-41.9921875,0.0
1740797093.2682045,-53.22265625,-55.6640625,-53.7109375,-40.0390625,0.0
1740797093.2721105,-57.6171875,-63.4765625,-51.7578125,-44.921875,0.0
1740797093.2760162,-49.31640625,-72.265625,-54.19921875,-30.2734375,0.0
1740797093.2799222,-47.8515625,-65.4296875,-50.78125,-31.73828125,0.0
1740797093.283828,-55.17578125,-62.01171875,-47.36328125,-45.41015625,0.0
1740797093.287734,-41.50390625,-65.91796875,-48.828125,-38.57421875,0.0
1740797093.29164,-38.0859375,-68.359375,-44.921875,-22.94921875,0.0
1740797093.2955458,-47.36328125,-55.17578125,-42.48046875,-15.13671875,0.0
1740797093.2994518,-36.62109375,-38.57421875,-39.55078125,-5.37109375,0.0
1740797093.3033576,-29.78515625,-45.8984375,-37.59765625,-8.7890625,0.0
1740797093.3072636,-41.015625,-50.78125,-32.2265625,-17.08984375,0.0
1740797093.3111696,-37.109375,-44.921875,-29.296875,-20.01953125,0.0
1740797093.3150766,-27.83203125,-41.50390625,-29.296875,-12.20703125,0.0
1740797093.3189824,-25.390625,-49.8046875,-29.78515625,-12.6953125,0.0
1740797093.3228884,-24.90234375,-60.05859375,-37.109375,-21.97265625,0.0
1740797093.3267941,-42.96875,-60.546875,-37.59765625,-22.94921875,0.0
1740797093.3307002,-51.26953125,-48.828125,-34.66796875,-25.87890625,0.0
1740797093.3346062,-32.71484375,-44.921875,-36.1328125,-26.85546875,0.0
1740797093.338512,-11.71875,-40.52734375,-35.15625,-32.2265625,0.0
1740797093.342418,-22.4609375,-30.76171875,-33.69140625,-31.25,0.0
1740797093.3463237,-32.2265625,-28.80859375,-34.1796875,-33.69140625,0.0
1740797093.3502297,-20.99609375,-28.3203125,-26.85546875,-36.1328125,0.0
1740797093.3541358,-31.73828125,-22.4609375,-25.390625,-32.71484375,0.0
1740797093.3580415,-35.15625,-14.6484375,-24.90234375,-28.80859375,0.0
1740797093.3619502,-31.25,-14.16015625,-23.4375,-15.625,0.0
1740797093.365856,-20.5078125,-23.4375,-29.296875,-23.4375,0.0
1740797093.369762,-36.1328125,-28.3203125,-30.2734375,-14.6484375,0.0
1740797093.3736677,-45.41015625,-14.6484375,-32.2265625,-8.7890625,0.0
1740797093.3775737,-33.203125,-10.25390625,-39.55078125,-31.25,0.0
1740797093.3814795,-41.50390625,-25.87890625,-36.62109375,-15.625,0.0
1740797093.3853855,-29.78515625,-25.87890625,-39.55078125,-39.55078125,0.0
1740797093.3892915,-37.109375,-19.04296875,-50.29296875,-51.26953125,0.0
1740797093.3931973,-60.546875,-20.5078125,-58.10546875,-41.9921875,0.0
1740797093.3971033,-61.03515625,-32.2265625,-63.96484375,-53.7109375,0.0
1740797093.401009,-59.08203125,-36.62109375,-60.05859375,-63.96484375,0.0
1740797093.404915,-49.31640625,-32.71484375,-57.12890625,-83.0078125,0.0
1740797093.4088235,-32.2265625,-39.0625,-53.22265625,-65.91796875,0.0
1740797093.4127293,-16.11328125,-31.25,-46.38671875,-51.26953125,0.0
1740797093.4166353,-44.921875,-24.4140625,-44.43359375,-47.8515625,0.0
1740797093.4205413,-62.01171875,-33.69140625,-42.48046875,-60.546875,0.0
1740797093.424447,-58.10546875,-44.43359375,-39.0625,-57.6171875,0.0
1740797093.428353,-47.36328125,-48.33984375,-33.203125,-43.45703125,0.0
1740797093.4322588,-25.87890625,-44.921875,-35.15625,-47.8515625,0.0
1740797093.4361649,-9.27734375,-45.41015625,-41.015625,-47.8515625,0.0
1740797093.4400709,-19.53125,-52.24609375,-37.109375,-59.08203125,0.0
1740797093.4439766,-47.8515625,-48.828125,-35.64453125,-60.05859375,0.0
1740797093.4478827,-36.62109375,-41.015625,-43.45703125,-55.6640625,0.0
1740797093.4517884,-3.90625,-45.8984375,-44.921875,-44.921875,0.0
1740797093.4556966,9.27734375,-50.78125,-39.0625,-41.50390625,0.0
1740797093.4596026,-13.671875,-55.17578125,-35.15625,-33.69140625,0.0
1740797093.4635086,0.0,-48.33984375,-28.80859375,-13.18359375,0.0
1740797093.4674144,26.85546875,-41.50390625,-21.97265625,-0.9765625,0.0
1740797093.4713204,4.39453125,-53.22265625,-26.3671875,-24.90234375,0.0
1740797093.4752262,-2.9296875,-53.7109375,-23.92578125,-29.296875,0.0
1740797093.4791322,6.34765625,-44.43359375,-17.08984375,3.41796875,0.0
1740797093.4830382,-2.44140625,-49.31640625,-15.13671875,0.9765625,0.0
1740797093.486944,7.32421875,-59.08203125,-17.08984375,-25.390625,0.0
1740797093.49085,17.578125,-50.29296875,-26.3671875,4.39453125,0.0
1740797093.4947557,1.953125,-41.50390625,-27.83203125,15.625,0.0
1740797093.4986618,13.18359375,-41.50390625,-22.94921875,7.8125,0.0
1740797093.5025697,31.73828125,-41.50390625,-20.99609375,19.04296875,0.0
1740797093.5064754,22.4609375,-37.109375,-24.4140625,17.08984375,0.0
1740797093.5103815,30.2734375,-31.25,-26.85546875,17.08984375,0.0
1740797093.5142872,0.9765625,-40.0390625,-27.83203125,18.5546875,0.0
1740797093.5181932,-1.46484375,-41.9921875,-30.2734375,6.8359375,0.0
1740797093.5220993,9.27734375,-31.73828125,-34.66796875,8.7890625,0.0
1740797093.526005,-20.01953125,-34.1796875,-38.57421875,0.9765625,0.0
1740797093.529911,-22.94921875,-42.48046875,-39.0625,4.8828125,0.0
1740797093.5338168,1.953125,-39.55078125,-36.62109375,1.953125,0.0
1740797093.5377228,-3.41796875,-35.64453125,-40.52734375,-11.71875,0.0
1740797093.5416286,-29.78515625,-43.45703125,-42.96875,-27.83203125,0.0
1740797093.5455346,-41.50390625,-49.31640625,-38.57421875,-26.85546875,0.0
1740797093.5494423,-46.875,-50.29296875,-42.96875,-29.296875,0.0
1740797093.553348,-42.48046875,-41.50390625,-44.921875,-34.1796875,0.0
1740797093.557254,-53.7109375,-41.9921875,-46.875,-29.78515625,0.0
1740797093.56116,-61.5234375,-52.734375,-48.33984375,-37.109375,0.0
1740797093.5650659,-46.38671875,-47.8515625,-43.9453125,-44.43359375,0.0
1740797093.5689719,-50.78125,-48.828125,-41.50390625,-31.25,0.0
1740797093.5728776,-42.96875,-57.12890625,-39.55078125,-21.484375,0.0
1740797093.5767837,-29.78515625,-62.98828125,-39.55078125,-17.578125,0.0
1740797093.5806897,-46.38671875,-58.59375,-38.0859375,-4.8828125,0.0
1740797093.5845954,-44.43359375,-45.41015625,-40.52734375,-1.953125,0.0
1740797093.5885015,-31.73828125,-49.8046875,-44.43359375,-5.859375,0.0
1740797093.5924072,-40.0390625,-45.41015625,-47.36328125,-7.8125,0.0
1740797093.5963147,-18.06640625,-36.1328125,-42.48046875,6.8359375,0.0
1740797093.6002207,-7.32421875,-36.1328125,-42.96875,-10.7421875,0.0
1740797093.6041267,-15.625,-37.59765625,-43.45703125,-20.99609375,0.0
1740797093.6080325,-6.34765625,-39.55078125,-39.0625,-3.90625,0.0
1740797093.6119385,-31.73828125,-36.1328125,-39.55078125,-3.41796875,0.0
1740797093.6158442,-16.11328125,-32.2265625,-39.55078125,-0.48828125,0.0
1740797093.6197503,14.6484375,-36.1328125,-32.71484375,9.27734375,0.0
1740797093.6236563,-3.90625,-43.9453125,-23.4375,31.73828125,0.0
1740797093.627562,-20.99609375,-33.203125,-21.97265625,41.015625,0.0
1740797093.631468,-3.41796875,-27.83203125,-26.3671875,34.66796875,0.0
1740797093.6353738,22.4609375,-30.2734375,-27.83203125,9.765625,0.0
1740797093.6392798,-0.48828125,-41.50390625,-23.4375,17.08984375,0.0
1740797093.643187,-18.5546875,-45.8984375,-18.06640625,20.5078125,0.0
1740797093.647093,-24.90234375,-44.921875,-20.99609375,13.18359375,0.0
1740797093.6509988,-17.08984375,-40.0390625,-28.80859375,20.5078125,0.0
1740797093.6549048,-3.41796875,-36.1328125,-27.83203125,3.41796875,0.0
1740797093.6588106,-18.06640625,-35.15625,-29.78515625,-18.5546875,0.0
1740797093.6627166,-3.90625,-23.92578125,-34.1796875,-12.20703125,0.0
1740797093.6666226,9.27734375,-20.5078125,-30.76171875,6.34765625,0.0
1740797093.6705284,1.953125,-19.04296875,-30.2734375,-3.41796875,0.0
1740797093.6744344,-15.13671875,-11.23046875,-37.109375,-11.23046875,0.0
1740797093.6783402,-34.66796875,-18.06640625,-33.69140625,-4.39453125,0.0
1740797093.6822462,-33.69140625,-27.34375,-34.66796875,-17.578125,0.0
1740797093.686152,-26.3671875,-27.83203125,-40.0390625,-41.9921875,0.0
1740797093.6900592,-25.390625,-27.34375,-46.38671875,-41.50390625,0.0
1740797093.6939652,-35.64453125,-29.296875,-47.8515625,-20.99609375,0.0
1740797093.697871,-23.92578125,-30.76171875,-46.875,-43.9453125,0.0
1740797093.701777,0.48828125,-36.62109375,-43.45703125,-48.33984375,0.0
1740797093.705683,-39.0625,-40.52734375,-33.69140625,-22.94921875,0.0
1740797093.7095888,-72.265625,-45.8984375,-37.59765625,-30.2734375,0.0
1740797093.7134948,-64.453125,-46.38671875,-44.43359375,-41.015625,0.0
1740797093.7174006,-52.734375,-38.57421875,-38.57421875,-42.48046875,0.0
1740797093.7213066,-43.9453125,-34.1796875,-42.96875,-39.0625,0.0
1740797093.7252126,-40.52734375,-33.203125,-45.41015625,-44.921875,0.0
1740797093.7291183,-40.52734375,-30.2734375,-36.1328125,-32.71484375,0.0
1740797093.7330244,-20.99609375,-32.71484375,-41.50390625,-8.30078125,0.0
1740797093.7369328,-3.41796875,-36.62109375,-46.875,-30.76171875,0.0
1740797093.7408388,-15.625,-37.109375,-48.828125,-62.01171875,0.0
1740797093.7447445,-11.71875,-41.50390625,-43.45703125,-23.92578125,0.0
1740797093.7486506,-12.20703125,-37.59765625,-41.9921875,-13.18359375,0.0
1740797093.7525566,-21.484375,-39.55078125,-41.015625,-27.34375,0.0
1740797093.7564623,-28.80859375,-45.41015625,-35.15625,-12.6953125,0.0
1740797093.7603683,-31.73828125,-48.828125,-41.9921875,-4.39453125,0.0
1740797093.7642741,6.34765625,-26.3671875,-37.59765625,1.953125,0.0
1740797093.7681801,37.59765625,-19.53125,-31.25,-3.41796875,0.0
1740797093.7720861,44.921875,-36.1328125,-29.296875,5.859375,0.0
1740797093.775992,-7.8125,-30.2734375,-31.73828125,-3.41796875,0.0
1740797093.779898,-36.62109375,-23.92578125,-37.59765625,-18.5546875,0.0
1740797093.783806,-4.8828125,-30.2734375,-39.55078125,-7.8125,0.0
1740797093.787712,0.0,-35.15625,-43.45703125,10.7421875,0.0
1740797093.791618,-2.9296875,-31.73828125,-37.59765625,8.7890625,0.0
1740797093.795524,-9.765625,-28.3203125,-34.1796875,-5.859375,0.0
1740797093.79943,-3.41796875,-30.76171875,-37.59765625,-0.48828125,0.0
1740797093.8033357,32.71484375,-33.69140625,-36.62109375,0.0,0.0
1740797093.8072417,13.671875,-28.3203125,-34.1796875,-16.6015625,0.0
1740797093.8111475,-33.203125,-28.80859375,-32.2265625,-23.4375,0.0
1740797093.8150535,-6.8359375,-38.0859375,-34.66796875,-20.99609375,0.0
1740797093.8189595,2.44140625,-38.57421875,-36.1328125,-9.27734375,0.0
1740797093.8228652,-33.69140625,-26.85546875,-35.64453125,-19.04296875,0.0
1740797093.8267713,-30.2734375,-25.390625,-36.62109375,-26.3671875,0.0
1740797093.8306794,19.04296875,-32.2265625,-35.64453125,-8.7890625,0.0
1740797093.8345854,17.08984375,-31.73828125,-38.0859375,-21.484375,0.0
1740797093.8384912,-12.6953125,-31.25,-41.50390625,-34.66796875,0.0
1740797093.8423972,-26.3671875,-31.73828125,-42.96875,-20.5078125,0.0
1740797093.846303,-30.76171875,-27.34375,-45.8984375,-20.99609375,0.0
1740797093.850209,-28.80859375,-29.296875,-49.8046875,-24.90234375,0.0
1740797093.8541148,-23.92578125,-29.296875,-50.78125,-33.203125,0.0
1740797093.8580208,-40.52734375,-25.390625,-48.828125,-41.015625,0.0
1740797093.8619268,-29.78515625,-28.80859375,-55.17578125,-37.109375,0.0
1740797093.8658326,-7.32421875,-26.3671875,-60.05859375,-40.52734375,0.0
1740797093.8697386,-17.578125,-16.6015625,-53.22265625,-35.15625,0.0
1740797093.8736444,-36.62109375,-26.3671875,-45.8984375,-27.83203125,0.0
1740797093.8775523,-53.7109375,-31.25,-56.15234375,-51.26953125,0.0
1740797093.8814583,-49.31640625,-20.5078125,-55.17578125,-62.98828125,0.0
1740797093.885364,-45.8984375,-27.83203125,-39.0625,-47.36328125,0.0
1740797093.88927,-29.296875,-30.2734375,-43.9453125,-57.12890625,0.0
1740797093.893176,-5.859375,-26.3671875,-50.29296875,-35.64453125,0.0
1740797093.8970819,-41.50390625,-33.203125,-45.41015625,-31.25,0.0
1740797093.9009879,-36.1328125,-22.94921875,-48.33984375,-45.41015625,0.0
1740797093.9048936,-12.20703125,-20.5078125,-43.9453125,-3.41796875,0.0
1740797093.9087996,-35.15625,-31.73828125,-38.0859375,-21.97265625,0.0
1740797093.9127057,6.8359375,-22.4609375,-41.9921875,-39.55078125,0.0
1740797093.9166114,3.90625,-17.08984375,-39.55078125,-36.1328125,0.0
1740797093.9205174,-20.5078125,-26.3671875,-37.109375,-23.92578125,0.0
1740797093.9244251,-4.8828125,-29.78515625,-34.1796875,-4.39453125,0.0
1740797093.928331,-26.3671875,-23.4375,-38.57421875,-42.96875,0.0
1740797093.932237,-32.71484375,-31.73828125,-41.50390625,-54.6875,0.0
1740797093.9361427,-10.7421875,-35.64453125,-39.0625,-29.78515625,0.0
1740797093.9400487,5.859375,-30.76171875,-37.109375,-25.390625,0.0
1740797093.9439547,2.9296875,-36.62109375,-37.109375,-35.15625,0.0
1740797093.9478605,-27.83203125,-33.69140625,-34.1796875,-27.83203125,0.0
1740797093.9517665,10.25390625,-41.50390625,-27.34375,-9.765625,0.0
1740797093.9556723,20.5078125,-38.0859375,-38.57421875,-11.71875,0.0
1740797093.9595783,-0.9765625,-25.390625,-46.875,-28.3203125,0.0
1740797093.963484,13.18359375,-42.48046875,-32.2265625,-5.859375,0.0
1740797093.96739,3.41796875,-40.0390625,-36.62109375,-27.83203125,0.0
1740797093.9712975,1.953125,-25.390625,-41.9921875,-47.36328125,0.0
1740797093.9752035,-10.7421875,-30.2734375,-32.71484375,-21.484375,0.0
1740797093.9791093,22.94921875,-35.64453125,-30.2734375,-3.90625,0.0
1740797093.9830153,6.8359375,-37.59765625,-26.3671875,15.13671875,0.0
1740797093.9869213,-25.87890625,-35.64453125,-36.62109375,-26.3671875,0.0
1740797093.990827,-11.71875,-37.59765625,-38.0859375,-40.52734375,0.0
1740797093.994733,-2.44140625,-43.9453125,-26.3671875,-25.390625,0.0
1740797093.9986389,11.71875,-42.96875,-25.390625,-27.34375,0.0
1740797094.0025449,-18.06640625,-35.64453125,-31.73828125,-31.25,0.0
1740797094.006451,-15.625,-37.59765625,-38.0859375,-45.8984375,0.0
1740797094.0103567,-16.11328125,-36.62109375,-38.0859375,-44.43359375,0.0
1740797094.0142627,-43.9453125,-36.1328125,-36.62109375,-27.34375,0.0
1740797094.0181699,-21.484375,-34.66796875,-40.0390625,-42.48046875,0.0
1740797094.022076,30.2734375,-33.69140625,-34.1796875,-50.29296875,0.0
1740797094.025982,3.90625,-38.0859375,-33.203125,-46.38671875,0.0
1740797094.0298877,-39.55078125,-33.203125,-38.0859375,-41.015625,0.0
1740797094.0337937,-39.55078125,-39.55078125,-34.1796875,-41.50390625,0.0
1740797094.0376995,-4.39453125,-39.0625,-35.64453125,-61.03515625,0.0
1740797094.0416055,-1.953125,-38.57421875,-38.57421875,-48.33984375,0.0
1740797094.0455115,-25.87890625,-40.52734375,-43.45703125,-40.52734375,0.0
1740797094.0494173,23.92578125,-32.71484375,-47.36328125,-33.69140625,0.0
1740797094.0533233,38.57421875,-36.62109375,-44.921875,-36.62109375,0.0
1740797094.057229,-10.25390625,-39.0625,-41.50390625,-36.62109375,0.0
1740797094.061135,5.37109375,-36.62109375,-46.875,-37.59765625,0.0
1740797094.065042,18.06640625,-44.921875,-47.36328125,-55.17578125,0.0
1740797094.068948,-16.6015625,-55.17578125,-45.8984375,-45.8984375,0.0
1740797094.0728538,-1.46484375,-40.52734375,-43.45703125,-20.99609375,0.0
1740797094.0767598,13.671875,-30.76171875,-43.45703125,-31.73828125,0.0
1740797094.0806656,1.953125,-33.69140625,-42.96875,-31.73828125,0.0
1740797094.0845716,15.13671875,-42.48046875,-34.66796875,-1.46484375,0.0
1740797094.0884776,45.41015625,-43.9453125,-32.71484375,-6.34765625,0.0
1740797094.0923834,24.4140625,-30.76171875,-31.73828125,-16.6015625,0.0
1740797094.0962894,-16.11328125,-45.8984375,-30.2734375,-19.53125,0.0
1740797094.1001952,-14.6484375,-54.6875,-34.66796875,-28.80859375,0.0
1740797094.1041012,7.32421875,-39.55078125,-34.1796875,-20.5078125,0.0
1740797094.1080072,24.90234375,-32.71484375,-29.296875,-13.671875,0.0
1740797094.1119156,32.2265625,-45.8984375,-23.92578125,0.9765625,0.0
1740797094.1158216,49.8046875,-51.7578125,-27.83203125,-1.46484375,0.0
1740797094.1197274,41.9921875,-44.921875,-33.69140625,-25.87890625,0.0
1740797094.1236334,-0.9765625,-38.0859375,-34.66796875,-27.83203125,0.0
1740797094.1275392,-23.4375,-44.43359375,-33.203125,-21.97265625,0.0
1740797094.1314452,-6.8359375,-53.22265625,-29.78515625,-1.953125,0.0
1740797094.1353512,-15.625,-42.48046875,-29.296875,-20.5078125,0.0
1740797094.139257,-19.53125,-35.64453125,-35.64453125,-54.6875,0.0
1740797094.143163,26.85546875,-42.96875,-34.66796875,-40.52734375,0.0
1740797094.1470687,21.484375,-51.7578125,-33.203125,-48.828125,0.0
1740797094.1509748,-23.4375,-47.36328125,-32.71484375,-63.96484375,0.0
1740797094.1548808,-46.875,-43.9453125,-35.64453125,-80.078125,0.0
1740797094.158789,-46.875,-52.24609375,-38.0859375,-71.77734375,0.0
1740797094.162695,-35.15625,-54.6875,-36.1328125,-37.59765625,0.0
1740797094.166601,-21.484375,-47.8515625,-42.96875,-54.19921875,0.0
1740797094.1705067,-21.97265625,-45.41015625,-44.43359375,-75.1953125,0.0
1740797094.1744127,-20.99609375,-34.66796875,-49.31640625,-78.125,0.0
1740797094.1783185,36.1328125,-33.69140625,-46.38671875,-62.5,0.0
1740797094.1822245,26.3671875,-33.203125,-48.33984375,-46.875,0.0
1740797094.1861305,-31.73828125,-18.06640625,-51.7578125,-74.21875,0.0
1740797094.1900363,-34.66796875,-34.1796875,-44.43359375,-84.9609375,0.0
1740797094.1939423,-29.296875,-42.48046875,-42.48046875,-60.05859375,0.0
1740797094.197848,3.41796875,-24.4140625,-47.36328125,-40.0390625,0.0
1740797094.201754,26.3671875,-30.76171875,-54.19921875,-53.22265625,0.0
1740797094.2056623,-18.5546875,-36.62109375,-51.26953125,-48.828125,0.0
1740797094.209568,-47.36328125,-31.25,-48.33984375,-47.36328125,0.0
1740797094.213474,-18.5546875,-37.109375,-45.8984375,-40.0390625,0.0
1740797094.21738,-12.6953125,-49.31640625,-39.55078125,-34.66796875,0.0
1740797094.2212858,-32.71484375,-44.43359375,-41.50390625,-62.98828125,0.0
1740797094.2251918,-13.671875,-51.7578125,-32.71484375,-39.55078125,0.0
1740797094.2290976,-19.53125,-59.08203125,-28.3203125,-12.20703125,0.0
1740797094.2330036,-7.8125,-52.734375,-38.57421875,-35.15625,0.0
1740797094.2369094,20.5078125,-58.59375,-33.69140625,-28.80859375,0.0
1740797094.2408154,8.7890625,-45.41015625,-29.296875,2.9296875,0.0
1740797094.2447214,-13.671875,-37.109375,-32.71484375,-4.8828125,0.0
1740797094.2486272,-8.7890625,-50.29296875,-34.1796875,-29.296875,0.0
1740797094.252535,4.8828125,-40.52734375,-30.76171875,-31.73828125,0.0
1740797094.256441,15.13671875,-32.2265625,-26.85546875,-14.6484375,0.0
1740797094.260347,-11.71875,-40.52734375,-26.85546875,-29.296875,0.0
1740797094.264253,-23.4375,-39.0625,-35.64453125,-41.015625,0.0
1740797094.2681587,10.25390625,-32.2265625,-40.0390625,-29.296875,0.0
1740797094.2720647,17.08984375,-36.1328125,-39.55078125,-21.484375,0.0
1740797094.2759707,-6.34765625,-36.62109375,-37.59765625,-41.015625,0.0
1740797094.2798765,-21.484375,-42.48046875,-32.71484375,-13.18359375,0.0
1740797094.2837825,11.23046875,-45.8984375,-35.15625,-15.13671875,0.0
1740797094.2876883,9.765625,-37.109375,-35.15625,-39.55078125,0.0
1740797094.2915943,-5.37109375,-34.1796875,-42.96875,-32.2265625,0.0
1740797094.2955,21.484375,-41.50390625,-44.43359375,-33.69140625,0.0
1740797094.2994077,-11.71875,-47.8515625,-36.62109375,-42.48046875,0.0
1740797094.3033137,-32.2265625,-42.48046875,-40.52734375,-52.24609375,0.0
1740797094.3072195,-1.953125,-49.31640625,-34.1796875,-42.96875,0.0
1740797094.3111255,-31.25,-46.875,-38.0859375,-50.29296875,0.0
1740797094.3150315,-39.0625,-44.921875,-49.31640625,-69.82421875,0.0
1740797094.3189373,-6.34765625,-64.94140625,-39.55078125,-37.109375,0.0
1740797094.3228433,27.83203125,-56.640625,-36.62109375,-21.484375,0.0
1740797094.326749,14.16015625,-51.26953125,-41.015625,-25.87890625,0.0
1740797094.330655,-3.90625,-40.0390625,-48.33984375,-35.64453125,0.0
1740797094.334561,-41.015625,-19.04296875,-42.96875,-67.87109375,0.0
1740797094.338467,-12.6953125,-5.859375,-40.52734375,-65.4296875,0.0
1740797094.342373,43.9453125,-21.97265625,-41.015625,-29.78515625,0.0
1740797094.3462803,-8.30078125,-40.0390625,-35.15625,-29.78515625,0.0
1740797094.3501863,-54.6875,-36.1328125,-37.109375,-50.78125,0.0
1740797094.3540921,-51.26953125,-45.41015625,-39.55078125,-52.24609375,0.0
1740797094.3579981,-35.15625,-88.8671875,-33.203125,-48.33984375,0.0
1740797094.3619041,-38.57421875,-66.40625,-38.0859375,-41.015625,0.0
1740797094.36581,-41.015625,-35.64453125,-41.9921875,-33.69140625,0.0
1740797094.369716,-27.34375,-38.57421875,-41.50390625,-30.76171875,0.0
1740797094.3736217,-49.8046875,-2.44140625,-50.29296875,-62.98828125,0.0
1740797094.3775277,-45.8984375,-22.4609375,-46.875,-48.828125,0.0
1740797094.3814337,-4.8828125,-31.73828125,-42.96875,-28.3203125,0.0
1740797094.3853395,-57.12890625,-41.9921875,-35.15625,-64.94140625,0.0
1740797094.3892455,-125.9765625,-75.1953125,-33.203125,-43.9453125,0.0
1740797094.3931544,-61.03515625,-74.70703125,-35.15625,-6.34765625,0.0
1740797094.3970604,-3.41796875,-50.78125,-38.0859375,-32.2265625,0.0
1740797094.4009664,-40.52734375,-34.1796875,-38.0859375,-57.6171875,0.0
1740797094.4048722,-257.32421875,115.234375,-54.19921875,-131.34765625,0.0
1740797094.4087782,-260.25390625,32.71484375,-45.8984375,-134.765625,0.0
1740797094.412684,10.25390625,-135.7421875,-9.765625,-138.671875,0.0
1740797094.41659,-53.7109375,-107.91015625,-8.7890625,-132.8125,0.0
1740797094.420496,-204.1015625,-112.3046875,-10.25390625,-122.55859375,0.0
1740797094.4244018,-283.69140625,59.5703125,-37.59765625,-311.03515625,0.0
1740797094.4283078,-324.21875,114.74609375,-23.4375,-230.95703125,0.0
1740797094.4322135,-203.125,-81.54296875,8.30078125,-227.05078125,0.0
1740797094.4361196,-175.78125,-158.69140625,62.98828125,-333.49609375,0.0
1740797094.4400265,-116.69921875,-110.83984375,3.41796875,-145.01953125,0.0
1740797094.4439325,25.87890625,-39.55078125,-62.98828125,-126.953125,0.0
1740797094.4478383,-119.62890625,0.48828125,-58.10546875,-10.25390625,0.0
1740797094.4517443,-253.41796875,-23.4375,-62.01171875,29.296875,0.0
1740797094.45565,-199.70703125,-51.26953125,-16.11328125,-249.0234375,0.0
1740797094.459556,-38.0859375,-22.4609375,-34.66796875,-258.30078125,0.0
1740797094.463462,-120.60546875,-64.94140625,17.578125,-69.82421875,0.0
1740797094.467368,-95.21484375,-62.5,-5.859375,37.109375,0.0
1740797094.471274,74.21875,-16.11328125,-83.0078125,-52.734375,0.0
1740797094.4751797,13.671875,-79.1015625,-55.6640625,77.1484375,0.0
1740797094.4790857,43.45703125,-77.1484375,-34.66796875,157.2265625,0.0
1740797094.4829917,40.52734375,-2.44140625,23.92578125,-126.46484375,0.0
1740797094.4868984,-17.578125,-59.08203125,-15.13671875,102.05078125,0.0
1740797094.4908042,261.71875,-146.97265625,-86.9140625,368.65234375,0.0
1740797094.4947102,397.94921875,-102.5390625,-30.76171875,218.26171875,0.0
1740797094.4986162,233.3984375,-5.859375,-28.80859375,39.0625,0.0
1740797094.502522,17.08984375,-5.859375,-37.59765625,23.92578125,0.0
1740797094.506428,-64.453125,-66.40625,-15.625,-32.2265625,0.0
1740797094.5103338,199.21875,-110.3515625,-69.82421875,185.546875,0.0
1740797094.5142398,574.70703125,-114.74609375,-61.5234375,421.38671875,0.0
1740797094.5181458,447.75390625,-80.078125,-45.8984375,211.42578125,0.0
1740797094.5220516,276.85546875,-65.91796875,-41.015625,58.10546875,0.0
1740797094.5259576,231.93359375,-89.84375,-40.0390625,23.92578125,0.0
1740797094.5298634,-17.578125,14.6484375,-60.05859375,-91.30859375,0.0
1740797094.5337718,-633.7890625,77.63671875,59.5703125,-648.4375,0.0
1740797094.5376778,-597.16796875,-85.9375,10.25390625,-762.20703125,0.0
1740797094.5415835,118.1640625,-37.109375,-162.59765625,-60.546875,0.0
1740797094.5454895,267.08984375,46.875,-85.9375,310.546875,0.0
1740797094.5493956,281.73828125,-124.0234375,60.546875,228.02734375,0.0
1740797094.5533013,365.72265625,-139.16015625,16.6015625,148.92578125,0.0
1740797094.5572073,184.08203125,-34.66796875,-102.05078125,226.07421875,0.0
1740797094.561113,173.828125,-23.92578125,-52.24609375,104.98046875,0.0
1740797094.5650191,39.55078125,-54.19921875,-55.17578125,87.890625,0.0
1740797094.5689251,9.765625,-63.96484375,-33.203125,74.70703125,0.0
1740797094.572831,325.1953125,-55.6640625,28.3203125,4.8828125,0.0
1740797094.576737,270.5078125,-52.24609375,-32.71484375,117.67578125,0.0
1740797094.580645,0.0,-47.8515625,-63.96484375,105.95703125,0.0
1740797094.5845509,0.0,-58.59375,19.53125,74.21875,0.0
1740797094.5884569,0.0,-71.2890625,-15.625,-22.94921875,0.0
1740797094.5923629,0.0,-73.73046875,-64.453125,27.34375,0.0
1740797094.5962687,0.0,-70.3125,-41.50390625,108.88671875,0.0
1740797094.6001747,0.0,-27.34375,-40.0390625,62.98828125,0.0
1740797094.6040804,0.0,24.90234375,-22.4609375,46.38671875,0.0
1740797094.6079865,0.0,-59.08203125,0.9765625,-33.203125,0.0
1740797094.6118925,0.0,-137.6953125,-21.484375,-10.7421875,0.0
1740797094.6157982,0.0,-61.03515625,-41.9921875,-13.18359375,0.0
1740797094.6197042,0.0,-53.7109375,-26.85546875,-27.83203125,0.0
1740797094.62361,0.0,7.8125,-62.98828125,-48.33984375,0.0
1740797094.627518,-17.578125,-51.26953125,-38.57421875,-35.15625,0.0
1740797094.631424,145.5078125,-54.6875,11.23046875,111.81640625,0.0
1740797094.6353297,55.17578125,-45.41015625,-15.625,-41.9921875,0.0
1740797094.6392357,28.80859375,-52.24609375,-74.21875,12.6953125,0.0
1740797094.6431415,142.578125,-57.6171875,-12.6953125,168.45703125,0.0
1740797094.6470475,109.375,-120.60546875,-16.6015625,50.29296875,0.0
1740797094.6509535,74.70703125,-45.41015625,-79.1015625,52.24609375,0.0
1740797094.6548593,8.30078125,-36.1328125,-40.52734375,68.359375,0.0
1740797094.6587653,54.19921875,-54.19921875,-42.96875,-19.04296875,0.0
1740797094.662671,68.84765625,-25.390625,-59.08203125,-73.73046875,0.0
1740797094.666577,-13.671875,-53.7109375,-22.4609375,-52.734375,0.0
1740797094.670483,-20.5078125,-11.23046875,-37.59765625,-21.97265625,0.0
1740797094.6743908,16.6015625,-49.31640625,-11.23046875,-69.3359375,0.0
1740797094.6782966,66.89453125,-89.35546875,-15.13671875,-42.48046875,0.0
1740797094.6822026,140.625,-72.265625,-58.10546875,91.30859375,0.0
1740797094.6861084,136.71875,-63.96484375,-19.04296875,71.77734375,0.0
1740797094.6900144,-40.52734375,16.6015625,-30.2734375,-91.796875,0.0
1740797094.6939204,-15.625,-47.36328125,-44.921875,-29.296875,0.0
1740797094.6978261,134.765625,-59.08203125,-70.3125,110.83984375,0.0
1740797094.7017322,14.6484375,-31.73828125,-36.1328125,52.24609375,0.0
1740797094.705638,-14.16015625,-79.58984375,-16.11328125,-26.3671875,0.0
1740797094.709544,-10.7421875,-58.59375,-23.92578125,-8.7890625,0.0
1740797094.71345,6.34765625,-58.10546875,-4.39453125,-6.34765625,0.0
1740797094.7173557,75.1953125,-5.859375,-14.6484375,-94.7265625,0.0
1740797094.7212632,7.32421875,-27.34375,-34.1796875,-65.91796875,0.0
1740797094.7251692,40.52734375,-55.17578125,-62.5,88.8671875,0.0
1740797094.729075,15.625,-43.9453125,-30.76171875,61.5234375,0.0
1740797094.732981,16.6015625,-46.875,-41.50390625,-15.625,0.0
1740797094.7368867,48.828125,-60.546875,-1.46484375,-22.94921875,0.0
1740797094.7407928,10.25390625,-44.43359375,22.94921875,-65.91796875,0.0
1740797094.7446988,3.41796875,-40.0390625,-50.29296875,-54.19921875,0.0
1740797094.7486045,13.18359375,-53.22265625,-55.17578125,56.640625,0.0
1740797094.7525105,-11.71875,-19.04296875,-32.71484375,62.5,0.0
1740797094.7564163,-57.6171875,1.953125,-43.45703125,-39.0625,0.0
1740797094.7603223,35.64453125,-48.828125,-34.66796875,-57.12890625,0.0
1740797094.7642283,89.35546875,-50.29296875,-21.97265625,-55.17578125,0.0
1740797094.7681355,14.6484375,-55.6640625,-34.1796875,-18.5546875,0.0
1740797094.7720416,23.92578125,-67.87109375,-19.53125,20.5078125,0.0
1740797094.7759473,5.859375,-38.57421875,-27.34375,-24.90234375,0.0
1740797094.7798533,39.0625,-21.484375,-39.0625,-50.29296875,0.0
1740797094.783759,10.7421875,-48.33984375,3.41796875,-23.4375,0.0
1740797094.7876651,-14.6484375,-66.40625,-10.25390625,-26.85546875,0.0
1740797094.7915711,41.50390625,-16.11328125,-40.0390625,-56.640625,0.0
1740797094.795477,38.57421875,-25.87890625,-50.29296875,0.9765625,0.0
1740797094.799383,-38.0859375,4.8828125,-56.640625,-21.484375,0.0
1740797094.8032887,10.25390625,56.640625,-63.96484375,-86.42578125,0.0
1740797094.8071947,53.7109375,-28.80859375,-45.41015625,13.18359375,0.0
1740797094.8111007,-52.24609375,-8.7890625,-32.2265625,-35.64453125,0.0
1740797094.8150077,14.6484375,-54.19921875,-43.45703125,-33.203125,0.0
1740797094.8189135,30.76171875,-58.59375,-45.41015625,28.3203125,0.0
1740797094.8228195,25.390625,-30.2734375,-27.83203125,-24.4140625,0.0
1740797094.8267252,-16.6015625,-23.4375,-19.53125,-58.59375,0.0
1740797094.8306313,-29.296875,-23.4375,-23.92578125,-35.15625,0.0
1740797094.8345373,67.87109375,-60.05859375,-23.4375,0.9765625,0.0
1740797094.838443,20.5078125,-60.05859375,-33.203125,21.484375,0.0
1740797094.842349,2.44140625,18.5546875,-54.19921875,-52.24609375,0.0
1740797094.8462548,-22.4609375,5.37109375,-28.3203125,-98.6328125,0.0
1740797094.8501608,19.53125,-105.46875,0.9765625,23.92578125,0.0
1740797094.8540668,94.23828125,-41.9921875,-46.875,5.859375,0.0
1740797094.8579726,32.71484375,0.9765625,-74.21875,-15.13671875,0.0
1740797094.8618796,-35.64453125,-35.15625,-36.62109375,6.8359375,0.0
1740797094.8657854,-22.4609375,-57.12890625,-42.48046875,-22.94921875,0.0
1740797094.8696914,18.5546875,-54.19921875,-21.484375,-3.41796875,0.0
1740797094.8735971,6.8359375,-30.76171875,-5.37109375,-16.6015625,0.0
1740797094.8775032,-20.01953125,3.41796875,-59.08203125,-24.90234375,0.0
1740797094.881409,-3.41796875,-46.875,-16.6015625,-41.50390625,0.0
1740797094.885315,-11.71875,-30.2734375,-17.578125,-71.2890625,0.0
1740797094.889221,-42.48046875,-11.23046875,-39.55078125,-54.6875,0.0
1740797094.8931267,14.16015625,-37.109375,-25.87890625,-60.546875,0.0
1740797094.8970327,-25.87890625,-55.6640625,-15.625,11.71875,0.0
1740797094.9009385,-46.875,-48.33984375,-40.0390625,5.37109375,0.0
1740797094.9048445,-28.80859375,-26.85546875,-48.33984375,-80.56640625,0.0
1740797094.9087546,-69.82421875,-44.921875,-0.9765625,-102.05078125,0.0
1740797094.9126606,-49.8046875,-35.15625,-33.203125,-48.33984375,0.0
1740797094.9165664,-11.71875,-75.68359375,-38.0859375,-25.87890625,0.0
1740797094.9204724,24.90234375,-44.921875,-38.57421875,-12.6953125,0.0
1740797094.9243784,12.6953125,-18.5546875,-39.0625,-20.01953125,0.0
1740797094.9282842,-7.8125,-17.08984375,-25.87890625,-58.10546875,0.0
1740797094.9321902,-21.484375,1.46484375,-48.33984375,-54.6875,0.0
1740797094.936096,-23.4375,-15.625,-39.0625,-54.6875,0.0
1740797094.940002,-37.59765625,-34.1796875,-34.1796875,-57.12890625,0.0
1740797094.943908,-54.19921875,-32.2265625,-32.2265625,-42.96875,0.0
1740797094.9478137,-39.0625,-26.85546875,-24.4140625,-45.8984375,0.0
1740797094.9517198,-34.1796875,-27.34375,-24.90234375,-35.64453125,0.0
1740797094.9556277,-20.01953125,-22.4609375,-33.203125,-80.078125,0.0
1740797094.9595337,-24.4140625,-42.48046875,-20.5078125,-96.6796875,0.0
1740797094.9634397,-48.33984375,-44.43359375,-20.01953125,-55.6640625,0.0
1740797094.9673455,-52.24609375,-25.390625,-34.66796875,-68.359375,0.0
1740797094.9712515,-41.50390625,-33.69140625,-25.87890625,-88.37890625,0.0
1740797094.9751573,-22.4609375,-28.3203125,-34.1796875,-83.0078125,0.0
1740797094.9790633,-29.296875,4.39453125,-39.55078125,-72.75390625,0.0
1740797094.9829693,-53.7109375,-25.390625,-23.92578125,-84.47265625,0.0
1740797094.986875,-5.859375,-47.8515625,-34.66796875,-58.59375,0.0
1740797094.990781,0.0,-40.0390625,-36.1328125,-54.19921875,0.0
1740797094.9946868,-48.33984375,-41.9921875,-27.83203125,-70.3125,0.0
1740797094.9985929,-52.24609375,-27.34375,-43.9453125,-79.58984375,0.0
1740797095.0025008,-44.43359375,-32.2265625,-35.64453125,-84.9609375,0.0
1740797095.0064065,-31.73828125,-41.50390625,-25.390625,-75.1953125,0.0
1740797095.0103126,-16.6015625,-26.85546875,-33.203125,-64.453125,0.0
1740797095.0142186,-9.27734375,-13.671875,-37.59765625,-52.24609375,0.0
1740797095.0181243,-21.97265625,-43.9453125,-41.015625,-63.96484375,0.0
1740797095.0220304,-67.3828125,-55.6640625,-38.0859375,-69.3359375,0.0
1740797095.0259361,-56.640625,-31.25,-35.64453125,-72.75390625,0.0
1740797095.0298421,-36.62109375,-37.59765625,-31.25,-96.6796875,0.0
1740797095.0337481,-49.8046875,-53.22265625,-36.1328125,-107.421875,0.0
1740797095.037654,-30.2734375,-36.1328125,-39.55078125,-59.5703125,0.0
1740797095.04156,-20.01953125,-24.90234375,-39.0625,-48.33984375,0.0
1740797095.0454657,-25.87890625,-27.83203125,-27.83203125,-70.80078125,0.0
1740797095.0493736,-49.31640625,-41.9921875,-21.484375,-82.51953125,0.0
1740797095.0532794,-78.61328125,-29.78515625,-35.15625,-87.890625,0.0
1740797095.0571854,-61.03515625,-26.3671875,-36.1328125,-90.33203125,0.0
1740797095.0610912,-45.41015625,-47.8515625,-22.94921875,-75.1953125,0.0
1740797095.0649972,-49.31640625,-48.33984375,-28.3203125,-75.68359375,0.0
1740797095.0689032,-31.25,-47.36328125,-41.50390625,-102.5390625,0.0
1740797095.072809,-20.5078125,-38.0859375,-33.69140625,-81.0546875,0.0
1740797095.076715,-52.24609375,-46.38671875,-29.78515625,-67.87109375,0.0
1740797095.0806208,-57.6171875,-52.734375,-41.015625,-85.9375,0.0
1740797095.0845268,-30.76171875,-34.1796875,-40.0390625,-100.5859375,0.0
1740797095.0884328,-54.6875,-31.73828125,-29.78515625,-104.98046875,0.0
1740797095.0923386,-82.51953125,-34.1796875,-28.3203125,-114.74609375,0.0
1740797095.0962462,0.0,-18.5546875,-31.25,-97.16796875,0.0
1740797095.1001523,0.0,-35.15625,-27.83203125,-62.5,0.0
1740797095.104058,0.0,-49.31640625,-29.296875,-110.3515625,0.0
1740797095.107964,0.0,-44.921875,-28.3203125,-138.18359375,0.0
1740797095.1118698,0.0,-39.55078125,-37.59765625,-104.00390625,0.0
1740797095.1157758,0.0,-41.9921875,-42.48046875,-92.28515625,0.0
1740797095.1196816,0.0,-49.31640625,-32.2265625,-104.00390625,0.0
1740797095.1235876,0.0,-49.8046875,-37.59765625,-99.609375,0.0
1740797095.1274936,0.0,-32.2265625,-36.1328125,-95.703125,0.0
1740797095.1313994,0.0,-22.94921875,-29.296875,-94.7265625,0.0
1740797095.1353054,0.0,-28.3203125,-33.203125,-77.1484375,0.0
1740797095.1392112,0.0,-31.73828125,-40.52734375,-75.68359375,0.0
1740797095.1431186,-62.01171875,-38.57421875,-36.1328125,-89.84375,0.0
1740797095.1470244,-50.78125,-45.8984375,-32.71484375,-67.3828125,0.0
1740797095.1509304,-41.50390625,-40.52734375,-36.62109375,-60.546875,0.0
1740797095.1548364,-33.69140625,-42.96875,-33.69140625,-77.63671875,0.0
1740797095.1587422,-46.875,-47.36328125,-33.203125,-66.89453125,0.0
1740797095.1626482,-81.0546875,-46.38671875,-43.9453125,-58.10546875,0.0
1740797095.166554,-58.59375,-49.31640625,-45.8984375,-50.78125,0.0
1740797095.17046,-30.2734375,-37.109375,-33.203125,-42.48046875,0.0
1740797095.174366,-45.41015625,-18.5546875,-26.85546875,-50.29296875,0.0
1740797095.1782718,-69.82421875,-22.4609375,-39.0625,-56.15234375,0.0
1740797095.1821778,-46.875,-36.62109375,-35.15625,-45.41015625,0.0
1740797095.1860836,-42.96875,-33.203125,-27.34375,-47.8515625,0.0
1740797095.1899908,-49.8046875,-31.25,-32.71484375,-58.10546875,0.0
1740797095.1938965,-55.6640625,-32.2265625,-31.25,-42.48046875,0.0
1740797095.1978025,-61.5234375,-27.34375,-37.109375,-26.3671875,0.0
1740797095.2017083,-51.26953125,-16.11328125,-41.50390625,-46.38671875,0.0
1740797095.2056143,-60.546875,-15.625,-41.015625,-62.01171875,0.0
1740797095.20952,-78.61328125,-30.76171875,-33.69140625,-53.22265625,0.0
1740797095.213426,-71.77734375,-39.55078125,-30.76171875,-45.41015625,0.0
1740797095.2173321,-69.82421875,-42.96875,-41.015625,-44.921875,0.0
1740797095.221238,-65.4296875,-32.71484375,-42.48046875,-49.31640625,0.0
1740797095.225144,-63.4765625,-31.73828125,-38.57421875,-46.38671875,0.0
1740797095.2290497,-67.3828125,-47.8515625,-42.96875,-43.9453125,0.0
1740797095.2329557,-65.4296875,-35.15625,-45.41015625,-54.6875,0.0
1740797095.2368624,-64.453125,-38.0859375,-35.64453125,-64.94140625,0.0
1740797095.2407684,-54.6875,-42.96875,-39.0625,-38.57421875,0.0
1740797095.2446742,-39.0625,-32.71484375,-41.015625,-17.08984375,0.0
1740797095.2485802,-37.59765625,-36.1328125,-36.1328125,-27.34375,0.0
1740797095.2524862,-59.5703125,-30.2734375,-39.55078125,-32.71484375,0.0
1740797095.256392,-64.453125,-29.78515625,-47.36328125,-51.7578125,0.0
1740797095.260298,-62.98828125,-36.62109375,-45.41015625,-62.01171875,0.0
1740797095.2642038,-64.453125,-38.0859375,-39.0625,-42.48046875,0.0
1740797095.2681098,-43.45703125,-39.55078125,-34.1796875,-34.66796875,0.0
1740797095.2720158,-28.3203125,-49.31640625,-33.203125,-53.22265625,0.0
1740797095.2759216,-88.37890625,-40.52734375,-36.62109375,-59.08203125,0.0
1740797095.2798276,-110.3515625,-24.90234375,-33.203125,-34.66796875,0.0
1740797095.283736,-76.66015625,-33.69140625,-34.1796875,-33.203125,0.0
1740797095.2876418,-58.10546875,-34.66796875,-33.203125,-49.31640625,0.0
1740797095.2915478,-53.22265625,-22.4609375,-32.71484375,-35.15625,0.0
1740797095.2954535,-62.01171875,-19.53125,-36.62109375,-26.3671875,0.0
1740797095.2993596,-77.1484375,-25.390625,-38.0859375,-39.55078125,0.0
1740797095.3032656,-86.42578125,-32.71484375,-44.43359375,-45.8984375,0.0
1740797095.3071713,-70.3125,-19.53125,-45.41015625,-54.6875,0.0
1740797095.3110774,-55.17578125,-20.5078125,-35.64453125,-43.45703125,0.0
1740797095.3149831,-65.4296875,-37.59765625,-40.0390625,-36.62109375,0.0
1740797095.3188891,-48.828125,-49.8046875,-40.0390625,-37.59765625,0.0
1740797095.3227952,-43.9453125,-41.9921875,-39.55078125,-37.109375,0.0
1740797095.326701,-72.265625,-33.203125,-45.8984375,-59.08203125,0.0
1740797095.330609,-73.2421875,-35.64453125,-42.48046875,-61.03515625,0.0
1740797095.334515,-70.3125,-35.64453125,-39.55078125,-40.52734375,0.0
1740797095.3384209,-60.546875,-42.96875,-39.55078125,-46.875,0.0
1740797095.3423269,-71.2890625,-33.69140625,-39.0625,-64.94140625,0.0
1740797095.346233,-87.40234375,-26.85546875,-39.55078125,-51.7578125,0.0
1740797095.3501387,-70.3125,-41.015625,-41.9921875,-46.875,0.0
