timestamps,TP9,AF7,AF8,TP10,Right AUX
1741086208.86346,-62.98828125,-52.24609375,-42.96875,-54.19921875,0.0
1741086208.8673651,-93.75,-50.29296875,-33.203125,-59.08203125,0.0
1741086208.8712702,-19.53125,-40.0390625,-33.203125,-9.27734375,0.0
1741086208.875175,19.53125,-39.0625,-38.0859375,9.27734375,0.0
1741086208.87908,-29.296875,-41.50390625,-38.57421875,-21.484375,0.0
1741086208.882985,-63.4765625,-37.109375,-39.55078125,-50.78125,0.0
1741086208.8868902,-29.296875,-23.4375,-36.62109375,-26.85546875,0.0
1741086208.8907952,11.71875,-28.3203125,-46.38671875,17.08984375,0.0
1741086208.8947,-27.34375,-35.15625,-45.8984375,-2.44140625,0.0
1741086208.898605,-83.49609375,-34.66796875,-38.57421875,-42.96875,0.0
1741086208.9025102,-51.7578125,-40.52734375,-42.48046875,-37.59765625,0.0
1741086208.9064152,8.7890625,-33.69140625,-31.25,-5.859375,0.0
1741086208.9103339,-12.20703125,-38.57421875,-26.85546875,-14.16015625,0.0
1741086208.9142387,-88.37890625,-65.4296875,-44.43359375,-71.77734375,0.0
1741086208.9181437,-90.33203125,-55.6640625,-51.26953125,-77.63671875,0.0
1741086208.9220488,10.25390625,-28.3203125,-34.1796875,-24.90234375,0.0
1741086208.9259539,31.25,-26.3671875,-28.3203125,-4.8828125,0.0
1741086208.929859,-70.3125,-38.57421875,-45.41015625,-45.41015625,0.0
1741086208.9337637,-86.42578125,-48.33984375,-58.59375,-59.5703125,0.0
1741086208.9376688,-19.53125,-39.0625,-58.10546875,-27.34375,0.0
1741086208.9415739,24.4140625,-21.97265625,-45.8984375,-3.90625,0.0
1741086208.945479,-15.625,-28.3203125,-47.36328125,-38.57421875,0.0
1741086208.9493837,-87.40234375,-30.76171875,-50.78125,-72.75390625,0.0
1741086208.9532888,-66.89453125,-34.1796875,-53.22265625,-42.96875,0.0
1741086208.9572072,7.8125,-34.1796875,-45.41015625,-8.30078125,0.0
1741086208.9611123,-7.32421875,-35.64453125,-32.2265625,-20.99609375,0.0
1741086208.9650173,-72.265625,-40.52734375,-37.59765625,-61.5234375,0.0
1741086208.9689224,-63.96484375,-50.78125,-55.17578125,-65.4296875,0.0
1741086208.9728274,11.23046875,-42.48046875,-50.78125,-24.90234375,0.0
1741086208.9767323,18.5546875,-37.59765625,-42.48046875,-16.11328125,0.0
1741086208.9806373,-55.17578125,-52.734375,-48.828125,-55.17578125,0.0
1741086208.9845424,-64.94140625,-41.015625,-43.45703125,-58.59375,0.0
1741086208.9884474,20.99609375,-37.59765625,-49.8046875,-24.4140625,0.0
1741086208.9923522,28.80859375,-40.0390625,-54.19921875,-5.37109375,0.0
1741086208.9962573,-58.59375,-20.99609375,-38.0859375,-33.69140625,0.0
1741086209.0001624,-97.16796875,-19.04296875,-43.45703125,-52.24609375,0.0
1741086209.0040808,-41.50390625,-31.73828125,-51.26953125,-29.78515625,0.0
1741086209.0079856,36.1328125,-22.4609375,-29.296875,7.8125,0.0
1741086209.0118906,-26.3671875,-24.90234375,-36.62109375,-9.27734375,0.0
1741086209.0157957,-128.41796875,-48.828125,-57.6171875,-67.87109375,0.0
1741086209.0197008,-71.2890625,-47.8515625,-39.55078125,-48.33984375,0.0
1741086209.0236058,23.4375,-43.45703125,-27.34375,12.6953125,0.0
1741086209.0275106,-14.16015625,-42.48046875,-47.36328125,-3.90625,0.0
1741086209.0314157,-104.98046875,-48.33984375,-47.8515625,-64.94140625,0.0
1741086209.0353208,-87.40234375,-69.3359375,-46.38671875,-66.89453125,0.0
1741086209.0392258,-2.9296875,-57.12890625,-53.7109375,-7.32421875,0.0
1741086209.0431306,-2.44140625,-39.0625,-48.828125,-6.34765625,0.0
1741086209.0470357,-80.56640625,-41.9921875,-51.26953125,-56.640625,0.0
1741086209.0509553,0.0,-52.734375,-56.640625,-68.84765625,0.0
1741086209.0548604,0.0,-35.15625,-49.31640625,-23.4375,0.0
1741086209.0587652,0.0,-23.4375,-61.03515625,-5.37109375,0.0
1741086209.0626702,0.0,-48.33984375,-70.80078125,-47.36328125,0.0
1741086209.0665753,0.0,-58.59375,-36.62109375,-71.2890625,0.0
1741086209.0704803,0.0,-45.8984375,-37.59765625,-34.66796875,0.0
1741086209.0743854,0.0,-38.57421875,-49.31640625,7.32421875,0.0
1741086209.0782902,0.0,-33.69140625,-28.80859375,-10.25390625,0.0
1741086209.0821953,0.0,-46.875,-35.15625,-65.4296875,0.0
1741086209.0861003,0.0,-63.4765625,-39.55078125,-53.22265625,0.0
1741086209.0900054,0.0,-31.73828125,-20.5078125,0.48828125,0.0
1741086209.0939102,0.0,-24.90234375,-27.34375,-16.11328125,0.0
1741086209.0978296,-74.70703125,-60.546875,-54.19921875,-68.359375,0.0
1741086209.1017346,-61.5234375,-46.875,-47.8515625,-58.59375,0.0
1741086209.1056397,46.38671875,-22.94921875,-35.15625,2.44140625,0.0
1741086209.1095445,63.96484375,-35.64453125,-28.80859375,21.97265625,0.0
1741086209.1134496,-49.8046875,-45.8984375,-35.64453125,-21.484375,0.0
1741086209.1173546,-81.0546875,-44.921875,-63.96484375,-56.15234375,0.0
1741086209.1212597,19.04296875,-25.390625,-57.12890625,-4.8828125,0.0
1741086209.1251647,38.57421875,-9.27734375,-38.0859375,31.25,0.0
1741086209.1290696,-59.5703125,-28.3203125,-58.10546875,-11.71875,0.0
1741086209.1329746,-109.375,-42.96875,-48.828125,-39.55078125,0.0
1741086209.1368797,-33.203125,-23.4375,-31.73828125,-15.13671875,0.0
1741086209.1407847,43.45703125,-23.4375,-41.015625,7.8125,0.0
1741086209.1447039,-6.34765625,-49.8046875,-54.6875,-36.1328125,0.0
1741086209.1486087,-80.078125,-49.8046875,-43.45703125,-78.61328125,0.0
1741086209.1525137,-57.12890625,-34.1796875,-32.71484375,-42.96875,0.0
1741086209.1564188,10.7421875,-40.0390625,-32.71484375,7.32421875,0.0
1741086209.1603239,-16.11328125,-54.19921875,-29.78515625,-10.7421875,0.0
1741086209.164229,-84.47265625,-50.29296875,-41.9921875,-56.640625,0.0
1741086209.1681337,-60.546875,-25.87890625,-38.0859375,-54.19921875,0.0
1741086209.1720388,-5.37109375,-26.3671875,-34.66796875,-8.30078125,0.0
1741086209.1759439,10.7421875,-40.52734375,-43.45703125,2.44140625,0.0
1741086209.179849,-44.921875,-41.9921875,-47.8515625,-45.41015625,0.0
1741086209.1837537,-93.75,-51.7578125,-54.6875,-85.9375,0.0
1741086209.1876588,-22.4609375,-50.29296875,-51.26953125,-39.0625,0.0
1741086209.191578,0.0,-34.66796875,-47.36328125,4.8828125,0.0
1741086209.195483,0.0,-30.2734375,-54.6875,-22.94921875,0.0
1741086209.199388,0.0,-44.43359375,-59.08203125,-63.4765625,0.0
1741086209.2032928,0.0,-66.89453125,-43.9453125,-56.640625,0.0
1741086209.207198,0.0,-57.12890625,-38.57421875,-13.671875,0.0
1741086209.211103,0.0,-41.50390625,-33.203125,-18.5546875,0.0
1741086209.215008,0.0,-25.390625,-31.25,-56.15234375,0.0
1741086209.2189128,0.0,-26.3671875,-44.921875,-45.41015625,0.0
1741086209.222818,0.0,-41.9921875,-56.640625,-0.9765625,0.0
1741086209.226723,0.0,-31.25,-63.4765625,-14.16015625,0.0
1741086209.230628,0.0,-38.57421875,-66.89453125,-57.12890625,0.0
1741086209.2345328,0.0,-62.98828125,-56.640625,-61.5234375,0.0
1741086209.2384481,36.62109375,-52.734375,-49.8046875,-20.5078125,0.0
1741086209.2423532,-13.671875,-24.4140625,-52.24609375,6.8359375,0.0
1741086209.2462583,-85.44921875,-36.1328125,-36.1328125,-30.76171875,0.0
1741086209.250163,-57.12890625,-48.828125,-33.69140625,-66.40625,0.0
1741086209.2540681,19.04296875,-38.0859375,-34.66796875,-31.73828125,0.0
1741086209.2579732,1.953125,-33.69140625,-33.69140625,7.8125,0.0
1741086209.2618783,-64.94140625,-30.76171875,-34.1796875,-8.7890625,0.0
1741086209.2657833,-54.19921875,-50.78125,-39.0625,-53.22265625,0.0
1741086209.2696881,16.6015625,-56.15234375,-49.8046875,-42.48046875,0.0
1741086209.2735932,10.7421875,-42.96875,-53.22265625,0.48828125,0.0
1741086209.2774982,-75.1953125,-36.1328125,-42.96875,-13.18359375,0.0
1741086209.2814033,-78.61328125,-33.203125,-44.43359375,-59.5703125,0.0
1741086209.2853217,-77.63671875,-36.62109375,-68.359375,-77.63671875,0.0
1741086209.2892268,5.37109375,-36.1328125,-56.640625,-44.43359375,0.0
1741086209.2931318,22.94921875,-35.15625,-28.3203125,-20.99609375,0.0
1741086209.297037,-48.828125,-35.64453125,-32.2265625,-60.05859375,0.0
1741086209.300942,-92.28515625,-42.96875,-41.50390625,-89.84375,0.0
1741086209.3048468,-31.73828125,-39.0625,-49.31640625,-50.29296875,0.0
1741086209.3087518,17.08984375,-23.92578125,-45.41015625,-10.25390625,0.0
1741086209.3126569,-75.68359375,-41.50390625,-44.921875,-49.31640625,0.0
1741086209.316562,-129.8828125,-44.43359375,-48.33984375,-89.35546875,0.0
1741086209.3204668,-49.8046875,-24.4140625,-40.0390625,-61.5234375,0.0
1741086209.3243718,17.578125,-26.85546875,-35.15625,-29.296875,0.0
1741086209.3282769,-20.99609375,-44.43359375,-43.45703125,-47.36328125,0.0
1741086209.3321953,-105.95703125,-52.24609375,-55.6640625,-75.1953125,0.0
1741086209.3361003,-74.70703125,-48.828125,-57.12890625,-60.05859375,0.0
1741086209.3400054,5.859375,-35.64453125,-47.36328125,-23.92578125,0.0
1741086209.3439105,-11.71875,-24.4140625,-34.66796875,-29.78515625,0.0
1741086209.3478153,-91.30859375,-46.38671875,-52.24609375,-80.078125,0.0
1741086209.3517203,-102.05078125,-64.94140625,-59.5703125,-72.75390625,0.0
1741086209.3556254,-22.4609375,-55.6640625,-44.43359375,-11.71875,0.0
1741086209.3595304,9.765625,-41.015625,-44.921875,-4.39453125,0.0
1741086209.3634353,-69.82421875,-38.0859375,-57.12890625,-66.89453125,0.0
1741086209.3673403,-98.6328125,-46.875,-57.12890625,-80.078125,0.0
1741086209.3712454,-17.08984375,-40.52734375,-47.36328125,-22.94921875,0.0
1741086209.3751504,36.1328125,-32.2265625,-45.41015625,-1.46484375,0.0
1741086209.37907,-25.390625,-36.1328125,-55.17578125,-40.52734375,0.0
1741086209.3829749,-95.703125,-43.45703125,-56.640625,-59.08203125,0.0
1741086209.38688,-64.453125,-42.48046875,-54.6875,-36.1328125,0.0
1741086209.390785,0.0,-33.203125,-49.8046875,-5.859375,0.0
1741086209.39469,-36.62109375,-40.52734375,-51.26953125,-18.5546875,0.0
1741086209.398595,-123.53515625,-50.78125,-59.5703125,-64.94140625,0.0
1741086209.4025,-99.12109375,-41.015625,-64.94140625,-73.73046875,0.0
1741086209.406405,-10.7421875,-29.78515625,-58.10546875,-37.59765625,0.0
1741086209.41031,-22.94921875,-33.69140625,-49.8046875,-28.3203125,0.0
1741086209.414215,-103.515625,-43.45703125,-57.6171875,-67.87109375,0.0
1741086209.41812,-99.609375,-36.1328125,-54.6875,-70.3125,0.0
1741086209.422025,-7.8125,-27.83203125,-49.31640625,-22.94921875,0.0
1741086209.4259446,0.0,-30.2734375,-59.5703125,-3.90625,0.0
1741086209.4298496,0.0,-45.41015625,-72.265625,-44.921875,0.0
1741086209.4337547,0.0,-50.29296875,-66.89453125,-61.03515625,0.0
1741086209.4376595,0.0,-42.48046875,-60.05859375,1.46484375,0.0
1741086209.4415646,0.0,-44.43359375,-70.80078125,21.484375,0.0
1741086209.4454696,0.0,-59.5703125,-64.453125,-11.23046875,0.0
1741086209.4493747,0.0,-58.10546875,-59.5703125,-44.43359375,0.0
1741086209.4532795,0.0,-39.55078125,-61.5234375,-31.25,0.0
1741086209.4571846,0.0,-35.64453125,-48.33984375,22.94921875,0.0
1741086209.4610896,0.0,-58.10546875,-53.22265625,18.06640625,0.0
1741086209.4649947,0.0,-69.82421875,-58.59375,-40.0390625,0.0
1741086209.4688997,0.0,-53.7109375,-61.5234375,-46.38671875,0.0
1741086209.4728203,22.4609375,-43.45703125,-80.56640625,6.8359375,0.0
1741086209.476725,43.9453125,-45.8984375,-68.359375,14.6484375,0.0
1741086209.4806302,-25.87890625,-54.19921875,-51.7578125,-34.1796875,0.0
1741086209.4845352,-40.52734375,-57.12890625,-55.17578125,-42.96875,0.0
1741086209.4884403,46.38671875,-42.48046875,-47.36328125,20.99609375,0.0
1741086209.492345,66.40625,-38.0859375,-43.9453125,44.921875,0.0
1741086209.4962502,-14.6484375,-50.78125,-52.24609375,-1.46484375,0.0
1741086209.5001552,-73.2421875,-56.15234375,-58.10546875,-33.203125,0.0
1741086209.5040603,-18.5546875,-51.26953125,-49.8046875,-0.9765625,0.0
1741086209.5079653,50.78125,-50.29296875,-49.8046875,41.50390625,0.0
1741086209.5118701,7.8125,-56.640625,-62.01171875,19.04296875,0.0
1741086209.5157752,-63.4765625,-56.640625,-58.10546875,-29.296875,0.0
1741086209.5196943,-27.34375,-57.12890625,-46.875,-4.8828125,0.0
1741086209.5235994,62.5,-43.45703125,-41.9921875,51.7578125,0.0
1741086209.5275044,48.828125,-45.8984375,-43.9453125,36.62109375,0.0
1741086209.5314095,-47.8515625,-59.08203125,-53.22265625,-13.18359375,0.0
1741086209.5353143,-64.453125,-41.9921875,-54.6875,-27.83203125,0.0
1741086209.5392194,23.92578125,-31.25,-55.6640625,13.671875,0.0
1741086209.5431244,47.36328125,-35.64453125,-53.22265625,20.01953125,0.0
1741086209.5470295,-21.97265625,-52.24609375,-50.29296875,-37.59765625,0.0
1741086209.5509343,-32.2265625,-57.12890625,-48.33984375,-59.5703125,0.0
1741086209.5548394,33.69140625,-32.2265625,-41.9921875,-14.16015625,0.0
1741086209.5587444,70.80078125,-29.296875,-49.8046875,11.23046875,0.0
1741086209.5626495,-8.30078125,-44.921875,-57.6171875,-24.90234375,0.0
1741086209.5665686,0.0,-66.40625,-59.5703125,-60.546875,0.0
1741086209.5704734,0.0,-55.17578125,-61.5234375,-28.3203125,0.0
1741086209.5743785,0.0,-31.25,-54.19921875,17.08984375,0.0
1741086209.5782835,0.0,-39.0625,-57.12890625,-10.25390625,0.0
1741086209.5821886,0.0,-52.24609375,-65.4296875,-64.94140625,0.0
1741086209.5860934,0.0,-52.24609375,-67.87109375,-49.31640625,0.0
1741086209.5899985,0.0,-48.828125,-56.15234375,-6.8359375,0.0
1741086209.5939035,0.0,-41.015625,-48.828125,-12.20703125,0.0
1741086209.5978086,0.0,-41.9921875,-54.6875,-45.41015625,0.0
1741086209.6017137,0.0,-44.43359375,-63.4765625,-56.15234375,0.0
1741086209.6056185,0.0,-37.109375,-60.05859375,-24.4140625,0.0
1741086209.6095235,0.0,-31.25,-46.38671875,0.9765625,0.0
1741086209.6134424,-50.78125,-36.1328125,-49.31640625,-33.69140625,0.0
1741086209.6173475,-91.796875,-45.8984375,-61.03515625,-76.171875,0.0
1741086209.6212523,-1.953125,-43.9453125,-57.6171875,-28.80859375,0.0
1741086209.6251574,33.69140625,-49.8046875,-57.6171875,7.8125,0.0
1741086209.6290624,-46.38671875,-61.03515625,-53.7109375,-36.62109375,0.0
1741086209.6329675,-77.1484375,-52.24609375,-52.24609375,-70.80078125,0.0
1741086209.6368723,-26.3671875,-39.0625,-48.33984375,-34.66796875,0.0
1741086209.6407773,23.4375,-52.734375,-62.01171875,6.8359375,0.0
1741086209.6446824,4.8828125,-53.22265625,-61.03515625,-14.16015625,0.0
1741086209.6485875,-69.3359375,-51.26953125,-41.9921875,-62.98828125,0.0
1741086209.6524925,-72.75390625,-52.734375,-52.24609375,-58.59375,0.0
1741086209.6563973,8.30078125,-36.62109375,-52.24609375,-0.48828125,0.0
1741086209.660316,1.46484375,-33.69140625,-42.96875,4.8828125,0.0
1741086209.664221,-65.91796875,-38.57421875,-41.9921875,-36.62109375,0.0
1741086209.668126,-67.3828125,-39.0625,-67.3828125,-46.38671875,0.0
1741086209.6720312,-16.11328125,-51.7578125,-58.10546875,-12.6953125,0.0
1741086209.675936,12.6953125,-51.7578125,-27.83203125,27.34375,0.0
1741086209.679841,-61.5234375,-50.78125,-45.8984375,-14.16015625,0.0
1741086209.683746,-104.98046875,-54.6875,-59.08203125,-77.63671875,0.0
1741086209.6876512,-40.52734375,-51.26953125,-60.05859375,-42.48046875,0.0
1741086209.691556,-5.37109375,-34.1796875,-61.03515625,-4.8828125,0.0
1741086209.695461,-43.9453125,-34.1796875,-71.2890625,-35.64453125,0.0
1741086209.699366,-90.8203125,-47.8515625,-64.453125,-66.89453125,0.0
1741086209.7032712,-50.78125,-31.73828125,-50.78125,-46.875,0.0
1741086209.7071896,0.0,-15.13671875,-60.546875,-2.44140625,0.0
1741086209.7110946,0.0,-27.83203125,-71.2890625,-13.671875,0.0
1741086209.7149997,0.0,-42.48046875,-70.80078125,-54.6875,0.0
1741086209.7189047,0.0,-44.43359375,-65.4296875,-43.9453125,0.0
1741086209.7228098,0.0,-31.25,-62.5,-1.46484375,0.0
1741086209.7267146,0.0,-27.83203125,-62.98828125,-2.9296875,0.0
1741086209.7306197,0.0,-46.38671875,-65.4296875,-43.45703125,0.0
1741086209.7345247,0.0,-49.8046875,-81.54296875,-62.5,0.0
1741086209.7384298,0.0,-33.69140625,-75.68359375,-23.4375,0.0
1741086209.7423346,0.0,-20.5078125,-57.12890625,9.27734375,0.0
1741086209.7462397,0.0,-29.78515625,-54.6875,-31.25,0.0
1741086209.7501447,0.0,-38.57421875,-63.96484375,-63.96484375,0.0
1741086209.7540631,-28.3203125,-30.2734375,-65.91796875,-22.94921875,0.0
1741086209.7579682,48.828125,-20.5078125,-47.36328125,30.2734375,0.0
1741086209.761873,-17.578125,-37.109375,-51.7578125,-5.37109375,0.0
1741086209.765778,-109.375,-44.43359375,-65.4296875,-56.640625,0.0
1741086209.7696831,-53.22265625,-30.76171875,-60.05859375,-27.83203125,0.0
1741086209.7735882,42.48046875,-42.48046875,-49.8046875,23.4375,0.0
1741086209.7774932,28.3203125,-52.24609375,-54.6875,8.30078125,0.0
1741086209.781398,-67.3828125,-42.96875,-48.828125,-52.24609375,0.0
1741086209.785303,-64.453125,-42.48046875,-38.0859375,-53.22265625,0.0
1741086209.7892082,27.83203125,-25.390625,-44.921875,-1.953125,0.0
1741086209.7931132,19.04296875,-30.76171875,-46.875,0.9765625,0.0
1741086209.797018,-73.73046875,-45.8984375,-54.19921875,-48.33984375,0.0
1741086209.8009377,0.0,-46.875,-71.2890625,-63.4765625,0.0
1741086209.8048427,0.0,-48.828125,-51.7578125,-18.5546875,0.0
1741086209.8087478,0.0,-40.52734375,-45.41015625,7.32421875,0.0
1741086209.8126526,0.0,-40.0390625,-56.640625,-26.85546875,0.0
1741086209.8165576,0.0,-57.6171875,-62.5,-69.3359375,0.0
1741086209.8204627,0.0,-57.6171875,-58.10546875,-40.0390625,0.0
1741086209.8243678,0.0,-34.66796875,-36.62109375,12.20703125,0.0
1741086209.8282728,0.0,-35.64453125,-51.7578125,-19.04296875,0.0
1741086209.8321776,0.0,-55.6640625,-68.84765625,-65.4296875,0.0
1741086209.8360827,0.0,-56.640625,-60.546875,-43.45703125,0.0
1741086209.8399878,0.0,-43.9453125,-50.29296875,4.39453125,0.0
1741086209.8438928,0.0,-28.3203125,-44.43359375,8.7890625,0.0
1741086209.847812,-78.125,-38.57421875,-47.8515625,-48.33984375,0.0
1741086209.851717,-93.75,-66.40625,-56.640625,-80.56640625,0.0
1741086209.855622,-28.80859375,-62.5,-58.10546875,-36.62109375,0.0
1741086209.859527,-11.23046875,-54.6875,-51.26953125,-15.13671875,0.0
1741086209.863432,-72.265625,-47.8515625,-44.43359375,-52.734375,0.0
1741086209.867337,-92.28515625,-38.57421875,-42.48046875,-70.80078125,0.0
1741086209.871242,-19.04296875,-27.83203125,-40.52734375,-36.1328125,0.0
1741086209.875147,37.59765625,-29.78515625,-42.48046875,0.0,0.0
1741086209.879052,-17.08984375,-36.62109375,-46.38671875,-18.06640625,0.0
1741086209.882957,-96.19140625,-58.59375,-75.1953125,-70.3125,0.0
1741086209.886862,-56.640625,-52.734375,-82.51953125,-58.59375,0.0
1741086209.890767,19.04296875,-31.73828125,-45.8984375,-13.18359375,0.0
1741086209.8946862,-16.6015625,-28.3203125,-35.64453125,-32.2265625,0.0
1741086209.898591,-88.37890625,-26.85546875,-51.7578125,-65.4296875,0.0
1741086209.902496,-80.56640625,-30.2734375,-52.24609375,-60.05859375,0.0
1741086209.9064012,-17.08984375,-34.1796875,-54.6875,-21.484375,0.0
1741086209.9103062,-20.99609375,-38.57421875,-58.10546875,-29.296875,0.0
1741086209.9142113,-80.078125,-63.96484375,-66.40625,-64.453125,0.0
1741086209.918116,-87.40234375,-53.7109375,-70.3125,-68.84765625,0.0
1741086209.9220212,-13.671875,-32.71484375,-42.48046875,-23.92578125,0.0
1741086209.9259262,25.390625,-49.8046875,-26.3671875,16.6015625,0.0
1741086209.9298313,-48.828125,-14.6484375,-54.6875,-27.34375,0.0
1741086209.933736,-89.84375,1.46484375,-46.875,-64.94140625,0.0
1741086209.9376411,-8.7890625,-112.79296875,-51.26953125,-31.73828125,0.0
1741086209.9415603,74.21875,-104.4921875,-105.95703125,15.13671875,0.0
1741086209.945465,15.625,-12.20703125,-103.515625,-5.859375,0.0
1741086209.9493701,-31.73828125,-78.125,-21.484375,-28.80859375,0.0
1741086209.9532752,0.0,-98.14453125,1.953125,-0.48828125,0.0
1741086209.9571803,32.71484375,29.296875,-17.578125,43.45703125,0.0
1741086209.9610853,-2.44140625,65.91796875,-57.6171875,-4.8828125,0.0
1741086209.9649901,-86.9140625,48.33984375,-31.73828125,-73.73046875,0.0
1741086209.9688952,-87.40234375,22.94921875,-94.7265625,-80.078125,0.0
1741086209.9728003,24.4140625,-20.99609375,-95.21484375,0.48828125,0.0
1741086209.9767053,107.421875,-46.875,-10.7421875,89.35546875,0.0
1741086209.9806101,-12.6953125,-75.68359375,-135.7421875,3.41796875,0.0
1741086209.9845152,-61.5234375,16.6015625,-64.94140625,-53.7109375,0.0
1741086209.988434,0.0,57.12890625,107.421875,-14.6484375,0.0
1741086209.9923391,0.0,-50.29296875,8.30078125,-25.87890625,0.0
1741086209.9962442,0.0,26.85546875,-90.8203125,-45.8984375,0.0
1741086210.0001493,0.0,-106.4453125,-53.22265625,16.11328125,0.0
1741086210.004054,0.0,-139.16015625,-39.55078125,149.90234375,0.0
1741086210.0079591,0.0,163.57421875,133.30078125,311.5234375,0.0
1741086210.0118642,0.0,-20.99609375,20.01953125,262.20703125,0.0
1741086210.0157692,0.0,1.953125,67.3828125,178.7109375,0.0
1741086210.019674,0.0,538.57421875,302.734375,-25.87890625,0.0
1741086210.0235791,0.0,525.390625,192.3828125,-223.14453125,0.0
1741086210.0274842,0.0,418.9453125,418.45703125,97.65625,0.0
1741086210.0313892,0.0,824.21875,505.859375,126.953125,0.0
1741086210.0353076,174.31640625,999.0234375,511.71875,-10.7421875,0.0
1741086210.0392127,288.57421875,951.66015625,571.2890625,131.8359375,0.0
1741086210.0431178,144.53125,972.16796875,864.2578125,89.84375,0.0
1741086210.0470228,14.16015625,970.21484375,999.51171875,-88.37890625,0.0
1741086210.0509279,81.0546875,969.7265625,950.1953125,-49.31640625,0.0
1741086210.0548327,264.16015625,969.7265625,974.12109375,91.796875,0.0
1741086210.0587378,269.53125,969.7265625,969.7265625,-4.8828125,0.0
1741086210.0626428,126.46484375,969.7265625,969.7265625,-179.19921875,0.0
1741086210.0665479,171.875,969.7265625,969.7265625,-226.07421875,0.0
1741086210.0704527,205.078125,969.7265625,969.7265625,-194.3359375,0.0
1741086210.0743577,132.8125,969.7265625,969.7265625,-183.59375,0.0
1741086210.0782628,40.52734375,969.7265625,969.7265625,-236.328125,0.0
1741086210.0821812,16.11328125,969.7265625,969.7265625,-236.81640625,0.0
1741086210.0860863,195.3125,969.7265625,969.7265625,-66.89453125,0.0
1741086210.0899913,287.59765625,969.7265625,970.21484375,5.859375,0.0
1741086210.0938964,331.54296875,969.7265625,969.7265625,37.59765625,0.0
1741086210.0978012,215.8203125,969.7265625,969.7265625,-111.328125,0.0
1741086210.1017063,219.23828125,969.7265625,969.7265625,-84.9609375,0.0
1741086210.1056113,163.0859375,969.7265625,969.7265625,-145.5078125,0.0
1741086210.1095164,105.46875,969.7265625,969.7265625,-281.73828125,0.0
1741086210.1134214,269.04296875,970.21484375,970.21484375,-181.640625,0.0
1741086210.1173263,350.09765625,969.7265625,970.21484375,-90.33203125,0.0
1741086210.1212313,497.0703125,969.7265625,969.7265625,51.7578125,0.0
1741086210.1251364,403.3203125,970.21484375,969.7265625,-87.890625,0.0
1741086210.1290548,194.3359375,969.7265625,969.7265625,-234.86328125,0.0
1741086210.1329596,181.15234375,969.7265625,969.7265625,-177.24609375,0.0
1741086210.1368647,261.71875,969.7265625,969.7265625,-62.5,0.0
1741086210.1407697,483.88671875,969.7265625,969.7265625,152.34375,0.0
1741086210.1446748,385.25390625,969.7265625,969.7265625,71.2890625,0.0
1741086210.1485798,103.515625,969.7265625,969.7265625,-129.8828125,0.0
1741086210.1524847,145.5078125,970.21484375,969.7265625,-65.91796875,0.0
1741086210.1563897,275.390625,969.7265625,970.21484375,35.64453125,0.0
1741086210.1602948,275.87890625,969.7265625,969.7265625,71.2890625,0.0
1741086210.1641998,180.6640625,969.7265625,969.7265625,51.7578125,0.0
1741086210.1681046,168.45703125,969.7265625,969.7265625,62.98828125,0.0
1741086210.1720097,229.4921875,970.21484375,970.21484375,107.91015625,0.0
1741086210.1759293,229.98046875,969.7265625,970.21484375,124.0234375,0.0
1741086210.1798341,108.3984375,971.19140625,966.796875,100.5859375,0.0
1741086210.1837392,17.08984375,966.796875,973.6328125,73.2421875,0.0
1741086210.1876442,76.171875,970.21484375,929.6875,107.421875,0.0
1741086210.1915493,114.74609375,966.30859375,819.3359375,150.390625,0.0
1741086210.1954541,6.8359375,854.4921875,748.53515625,133.7890625,0.0
1741086210.1993592,-111.81640625,731.93359375,691.40625,96.6796875,0.0
1741086210.2032642,-131.34765625,667.48046875,614.2578125,104.00390625,0.0
1741086210.2071693,-117.1875,599.12109375,556.15234375,123.53515625,0.0
1741086210.2110744,-208.984375,512.6953125,504.39453125,87.40234375,0.0
1741086210.2149792,-395.01953125,432.12890625,446.2890625,-0.9765625,0.0
1741086210.2188842,-508.30078125,370.1171875,383.30078125,-37.59765625,0.0
1741086210.2228036,-513.18359375,316.89453125,325.1953125,-13.671875,0.0
1741086210.2267084,-607.91015625,252.9296875,287.109375,-62.98828125,0.0
1741086210.2306135,-802.24609375,178.22265625,229.4921875,-155.76171875,0.0
1741086210.2345185,-899.4140625,133.30078125,170.8984375,-207.51953125,0.0
1741086210.2384236,-847.65625,96.19140625,137.20703125,-198.2421875,0.0
1741086210.2423286,-807.6171875,33.203125,98.14453125,-188.4765625,0.0
1741086210.2462335,-868.65234375,-36.1328125,42.48046875,-238.28125,0.0
1741086210.2501385,-916.9921875,-88.37890625,-9.765625,-291.50390625,0.0
1741086210.2540436,-808.59375,-151.85546875,-54.6875,-257.32421875,0.0
1741086210.2579486,-668.45703125,-209.9609375,-91.30859375,-200.1953125,0.0
1741086210.2618535,-670.8984375,-262.20703125,-137.6953125,-212.40234375,0.0
1741086210.2657585,-708.49609375,-339.84375,-184.5703125,-243.1640625,0.0
1741086210.2696776,-611.328125,-391.11328125,-221.19140625,-208.984375,0.0
1741086210.2735827,-446.77734375,-409.66796875,-259.765625,-141.11328125,0.0
1741086210.2774878,-421.38671875,-453.125,-282.71484375,-130.859375,0.0
1741086210.2813928,-465.8203125,-504.39453125,-304.19921875,-160.64453125,0.0
1741086210.2852979,-411.1328125,-548.33984375,-315.91796875,-143.06640625,0.0
1741086210.2892027,-292.48046875,-597.16796875,-320.80078125,-85.9375,0.0
1741086210.2931077,-244.140625,-624.51171875,-343.75,-77.63671875,0.0
1741086210.2970128,-290.0390625,-660.64453125,-347.16796875,-103.02734375,0.0
1741086210.3009179,-276.3671875,-704.1015625,-350.5859375,-101.07421875,0.0
1741086210.3048227,-155.2734375,-706.54296875,-364.74609375,-62.01171875,0.0
1741086210.3087277,-75.1953125,-722.65625,-387.6953125,-33.203125,0.0
1741086210.3126328,-119.62890625,-748.046875,-398.4375,-67.87109375,0.0
1741086210.3165517,-145.99609375,-773.4375,-400.390625,-103.02734375,0.0
1741086210.3204567,-64.453125,-800.29296875,-410.64453125,-64.453125,0.0
1741086210.3243618,33.203125,-813.96484375,-405.76171875,-18.06640625,0.0
1741086210.3282669,39.55078125,-833.0078125,-403.3203125,-34.66796875,0.0
1741086210.3321717,-13.671875,-862.79296875,-408.203125,-74.70703125,0.0
1741086210.3360767,19.53125,-881.8359375,-412.109375,-29.78515625,0.0
1741086210.3399818,117.1875,-881.34765625,-418.9453125,38.57421875,0.0
1741086210.3438869,114.2578125,-883.30078125,-420.8984375,54.19921875,0.0
1741086210.3477917,21.484375,-911.62109375,-421.875,22.94921875,0.0
1741086210.3516967,29.78515625,-916.9921875,-413.57421875,11.71875,0.0
1741086210.3556018,130.37109375,-898.92578125,-409.1796875,68.359375,0.0
1741086210.3595068,150.390625,-895.99609375,-425.29296875,96.19140625,0.0
1741086210.3634255,74.21875,-906.73828125,-426.7578125,51.7578125,0.0
1741086210.3673306,49.31640625,-936.03515625,-423.33984375,27.83203125,0.0
1741086210.3712356,137.6953125,-916.50390625,-416.50390625,87.890625,0.0
1741086210.3751407,208.49609375,-872.0703125,-393.06640625,133.30078125,0.0
1741086210.3790457,139.6484375,-869.140625,-405.2734375,90.8203125,0.0
1741086210.3829505,68.84765625,-874.51171875,-419.43359375,45.41015625,0.0
1741086210.3868556,132.8125,-861.81640625,-408.203125,55.6640625,0.0
1741086210.3907607,215.8203125,-850.5859375,-397.4609375,103.515625,0.0
1741086210.3946657,163.57421875,-822.75390625,-389.16015625,97.65625,0.0
1741086210.3985705,68.84765625,-797.8515625,-398.92578125,42.96875,0.0
1741086210.4024756,92.28515625,-810.05859375,-406.25,34.66796875,0.0
1741086210.4063807,178.7109375,-784.1796875,-397.4609375,89.35546875,0.0
1741086210.4102993,187.98828125,-746.09375,-403.80859375,95.21484375,0.0
1741086210.4142044,105.46875,-721.6796875,-380.859375,56.15234375,0.0
1741086210.4181092,68.84765625,-705.078125,-372.55859375,57.12890625,0.0
1741086210.4220142,145.01953125,-697.75390625,-391.11328125,96.19140625,0.0
1741086210.4259193,177.24609375,-680.6640625,-384.765625,111.328125,0.0
1741086210.4298244,107.421875,-667.48046875,-378.41796875,86.42578125,0.0
1741086210.4337292,64.453125,-672.36328125,-374.51171875,57.6171875,0.0
1741086210.4376342,132.8125,-670.41015625,-366.69921875,80.078125,0.0
1741086210.4415393,190.91796875,-630.859375,-366.69921875,116.69921875,0.0
1741086210.4454443,128.90625,-609.375,-358.88671875,90.8203125,0.0
1741086210.4493494,50.78125,-617.1875,-345.703125,44.921875,0.0
1741086210.4532542,73.2421875,-615.234375,-357.421875,62.01171875,0.0
1741086210.4571729,168.9453125,-595.703125,-346.6796875,111.81640625,0.0
1741086210.4610777,165.52734375,-565.91796875,-325.1953125,102.5390625,0.0
1741086210.4649827,71.2890625,-558.59375,-344.23828125,45.8984375,0.0
1741086210.4688878,61.03515625,-554.6875,-331.0546875,41.015625,0.0
1741086210.4727929,126.46484375,-542.96875,-305.17578125,86.9140625,0.0
1741086210.4766977,136.71875,-541.015625,-318.84765625,83.984375,0.0
1741086210.4806027,38.57421875,-542.48046875,-328.61328125,30.2734375,0.0
1741086210.4845078,5.859375,-542.48046875,-315.91796875,11.71875,0.0
1741086210.4884129,84.9609375,-516.6015625,-313.96484375,58.10546875,0.0
1741086210.492318,117.1875,-482.91015625,-327.63671875,84.9609375,0.0
1741086210.4962227,38.57421875,-486.328125,-314.94140625,44.921875,0.0
1741086210.5001278,-16.6015625,-487.79296875,-288.57421875,3.90625,0.0
1741086210.5040462,46.875,-473.14453125,-280.2734375,26.3671875,0.0
1741086210.507951,106.93359375,-467.7734375,-273.4375,59.5703125,0.0
1741086210.511856,60.05859375,-467.7734375,-273.4375,31.73828125,0.0
1741086210.5157611,-31.25,-459.9609375,-277.34375,-11.71875,0.0
1741086210.5196662,-22.94921875,-449.21875,-275.87890625,0.0,0.0
1741086210.5235713,70.80078125,-449.70703125,-273.92578125,60.05859375,0.0
1741086210.527476,65.4296875,-454.58984375,-268.06640625,62.98828125,0.0
1741086210.5313811,-34.1796875,-446.77734375,-270.99609375,-13.671875,0.0
1741086210.5352862,-47.8515625,-448.73046875,-270.99609375,-26.3671875,0.0
1741086210.5391912,58.59375,-439.453125,-264.16015625,28.80859375,0.0
1741086210.543096,62.5,-420.41015625,-260.7421875,35.15625,0.0
1741086210.5470011,-30.76171875,-440.4296875,-260.25390625,-5.37109375,0.0
1741086210.5509207,-63.4765625,-444.3359375,-246.09375,-16.11328125,0.0
1741086210.5548258,15.625,-413.0859375,-245.1171875,18.06640625,0.0
1741086210.5587306,78.125,-402.83203125,-238.76953125,48.33984375,0.0
1741086210.5626357,-9.27734375,-424.8046875,-232.91015625,5.37109375,0.0
1741086210.5665407,-71.77734375,-440.91796875,-232.421875,-32.71484375,0.0
1741086210.5704458,1.46484375,-434.5703125,-242.1875,2.44140625,0.0
1741086210.5743506,63.4765625,-404.296875,-261.71875,37.59765625,0.0
1741086210.5782557,19.04296875,-373.53515625,-246.58203125,20.01953125,0.0
1741086210.5821607,-57.12890625,-379.8828125,-239.74609375,-31.25,0.0
1741086210.5860658,-38.57421875,-400.87890625,-247.0703125,-31.25,0.0
1741086210.5899708,57.6171875,-373.53515625,-227.05078125,29.78515625,0.0
1741086210.5938756,51.7578125,-356.93359375,-220.703125,38.57421875,0.0
1741086210.597795,-55.17578125,-380.37109375,-234.86328125,-2.9296875,0.0
1741086210.6017,-61.5234375,-387.20703125,-228.02734375,-14.6484375,0.0
1741086210.605605,52.734375,-368.65234375,-224.609375,20.01953125,0.0
1741086210.60951,74.21875,-367.1875,-227.5390625,38.57421875,0.0
1741086210.613415,-23.92578125,-379.8828125,-212.40234375,-2.9296875,0.0
1741086210.61732,-73.73046875,-390.625,-209.9609375,-37.109375,0.0
1741086210.6212249,11.23046875,-367.67578125,-210.9375,6.34765625,0.0
1741086210.62513,68.84765625,-325.68359375,-217.28515625,47.36328125,0.0
1741086210.629035,-7.8125,-332.51953125,-208.49609375,2.44140625,0.0
1741086210.63294,-91.796875,-354.00390625,-198.2421875,-46.875,0.0
1741086210.636845,-36.62109375,-335.9375,-204.58984375,-23.4375,0.0
1741086210.64075,55.6640625,-321.2890625,-203.61328125,24.4140625,0.0
1741086210.6446705,13.18359375,-306.15234375,-199.70703125,12.6953125,0.0
1741086210.6485755,-71.77734375,-298.33984375,-193.84765625,-43.45703125,0.0
1741086210.6524804,-47.8515625,-300.29296875,-201.66015625,-44.921875,0.0
1741086210.6563854,32.2265625,-299.8046875,-211.42578125,0.48828125,0.0
1741086210.6602905,30.76171875,-293.45703125,-206.0546875,7.32421875,0.0
1741086210.6641955,-60.546875,-293.45703125,-189.453125,-29.78515625,0.0
1741086210.6681004,-83.49609375,-295.8984375,-182.6171875,-47.8515625,0.0
1741086210.6720054,-15.13671875,-291.50390625,-192.87109375,-8.30078125,0.0
1741086210.6759105,11.23046875,-294.921875,-188.96484375,22.4609375,0.0
1741086210.6798155,-57.6171875,-291.015625,-187.98828125,-27.83203125,0.0
1741086210.6837206,-91.796875,-280.2734375,-203.61328125,-56.15234375,0.0
1741086210.6876254,-19.04296875,-280.76171875,-197.75390625,-16.11328125,0.0
1741086210.6915445,23.92578125,-264.6484375,-177.734375,9.765625,0.0
1741086210.6954494,-33.203125,-247.0703125,-170.41015625,-16.11328125,0.0
1741086210.6993544,-94.23828125,-244.62890625,-186.03515625,-45.8984375,0.0
1741086210.7032595,-47.36328125,-248.046875,-189.94140625,-32.2265625,0.0
1741086210.7071645,37.59765625,-233.3984375,-174.31640625,11.71875,0.0
1741086210.7110693,15.625,-234.375,-172.8515625,12.20703125,0.0
1741086210.7149744,-84.9609375,-252.44140625,-164.0625,-37.109375,0.0
1741086210.7188795,-95.703125,-226.07421875,-159.66796875,-42.48046875,0.0
1741086210.7227845,-15.13671875,-194.82421875,-169.921875,-8.30078125,0.0
1741086210.7266896,2.44140625,-198.73046875,-168.45703125,-13.671875,0.0
1741086210.7305944,-75.1953125,-203.61328125,-165.0390625,-57.12890625,0.0
1741086210.7344995,-105.46875,-211.9140625,-174.8046875,-64.94140625,0.0
1741086210.7384183,-27.83203125,-218.26171875,-176.7578125,-21.97265625,0.0
1741086210.7423234,3.41796875,-196.2890625,-159.1796875,-14.16015625,0.0
1741086210.7462282,-76.171875,-201.171875,-160.15625,-57.12890625,0.0
1741086210.7501333,-122.55859375,-208.0078125,-160.15625,-72.265625,0.0
1741086210.7540383,-30.2734375,-192.87109375,-149.90234375,-24.90234375,0.0
1741086210.7579434,34.1796875,-190.91796875,-155.2734375,10.25390625,0.0
1741086210.7618484,-56.15234375,-193.359375,-170.8984375,-29.78515625,0.0
1741086210.7657533,-133.7890625,-201.66015625,-160.64453125,-78.125,0.0
1741086210.7696583,-74.21875,-196.77734375,-151.85546875,-68.359375,0.0
1741086210.7735634,8.30078125,-166.015625,-140.13671875,-17.578125,0.0
1741086210.7774684,-13.671875,-156.25,-133.7890625,-10.7421875,0.0
1741086210.7813733,-101.07421875,-175.29296875,-155.2734375,-58.59375,0.0
1741086210.785292,-110.3515625,-171.875,-152.34375,-75.68359375,0.0
1741086210.789197,-33.203125,-162.109375,-146.97265625,-37.109375,0.0
1741086210.793102,-8.30078125,-162.109375,-144.53125,-12.20703125,0.0
1741086210.797007,-83.984375,-161.1328125,-135.25390625,-44.921875,0.0
1741086210.8009121,-98.14453125,-160.15625,-140.625,-62.98828125,0.0
1741086210.804817,-19.04296875,-165.0390625,-142.578125,-19.53125,0.0
1741086210.808722,9.765625,-169.43359375,-141.6015625,0.9765625,0.0
1741086210.812627,-46.875,-165.52734375,-144.04296875,-39.55078125,0.0
1741086210.8165321,-104.00390625,-149.90234375,-144.53125,-74.70703125,0.0
1741086210.820437,-70.3125,-146.484375,-151.3671875,-51.26953125,0.0
1741086210.824342,18.5546875,-144.53125,-149.90234375,-6.8359375,0.0
1741086210.828247,0.0,-145.99609375,-138.18359375,-24.4140625,0.0
1741086210.8321657,0.0,-147.4609375,-144.53125,-73.2421875,0.0
1741086210.8360705,0.0,-140.13671875,-147.94921875,-62.98828125,0.0
1741086210.8399756,0.0,-129.8828125,-109.375,-2.9296875,0.0
1741086210.8438807,0.0,-132.8125,-109.375,-10.25390625,0.0
1741086210.8477857,0.0,-142.578125,-140.625,-62.5,0.0
1741086210.8516905,0.0,-144.53125,-134.765625,-65.4296875,0.0
1741086210.8555956,0.0,-146.484375,-119.140625,-20.99609375,0.0
1741086210.8595006,0.0,-159.66796875,-115.234375,-8.7890625,0.0
1741086210.8634057,0.0,-161.1328125,-120.60546875,-47.8515625,0.0
1741086210.8673108,0.0,-144.53125,-135.25390625,-72.75390625,0.0
1741086210.8712156,0.0,-124.0234375,-125.0,-32.2265625,0.0
1741086210.8751206,0.0,-130.37109375,-125.48828125,-10.25390625,0.0
1741086210.8790355,-88.37890625,-131.8359375,-140.625,-42.96875,0.0
1741086210.8829405,-71.77734375,-125.48828125,-128.41796875,-66.89453125,0.0
1741086210.8868456,16.6015625,-132.8125,-121.09375,-44.43359375,0.0
1741086210.8907504,-6.34765625,-126.953125,-124.0234375,-20.01953125,0.0
1741086210.8946555,-95.703125,-124.0234375,-111.81640625,-37.59765625,0.0
1741086210.8985605,-89.35546875,-147.4609375,-109.86328125,-80.56640625,0.0
1741086210.9024656,-19.53125,-148.92578125,-113.28125,-73.73046875,0.0
1741086210.9063704,-14.6484375,-122.0703125,-111.81640625,-28.3203125,0.0
1741086210.9102755,-88.37890625,-125.48828125,-117.67578125,-31.25,0.0
1741086210.9141805,-138.671875,-128.41796875,-114.74609375,-76.171875,0.0
1741086210.9180856,-62.5,-125.0,-117.1875,-90.33203125,0.0
1741086210.9219906,0.48828125,-125.9765625,-117.67578125,-41.50390625,0.0
1741086210.92591,-26.85546875,-127.9296875,-121.09375,-19.04296875,0.0
1741086210.929815,-93.26171875,-139.6484375,-131.8359375,-59.08203125,0.0
1741086210.9337199,-119.62890625,-135.7421875,-124.0234375,-79.58984375,0.0
1741086210.937625,-53.22265625,-113.28125,-119.140625,-50.29296875,0.0
1741086210.94153,-1.46484375,-106.4453125,-109.375,-16.6015625,0.0
1741086210.945435,-57.6171875,-128.90625,-107.421875,-43.45703125,0.0
1741086210.94934,-114.2578125,-130.37109375,-118.1640625,-82.51953125,0.0
1741086210.953245,-61.03515625,-108.3984375,-99.609375,-59.5703125,0.0
1741086210.95715,8.30078125,-102.5390625,-89.84375,-15.13671875,0.0
1741086210.961055,-23.4375,-115.234375,-103.02734375,-21.97265625,0.0
1741086210.96496,-119.62890625,-127.44140625,-103.515625,-61.5234375,0.0
1741086210.968865,-112.79296875,-122.0703125,-100.09765625,-63.96484375,0.0
1741086210.9727843,1.46484375,-96.6796875,-89.35546875,-12.20703125,0.0
1741086210.9766893,21.484375,-89.84375,-89.35546875,20.5078125,0.0
1741086210.9805944,-58.59375,-88.37890625,-107.91015625,-24.4140625,0.0
1741086210.9844995,-97.65625,-102.05078125,-119.140625,-60.05859375,0.0
1741086210.9884043,-34.1796875,-112.79296875,-110.3515625,-23.92578125,0.0
1741086210.9923093,11.71875,-108.88671875,-94.7265625,4.39453125,0.0
1741086210.9962144,-56.15234375,-98.6328125,-91.796875,-28.3203125,0.0
1741086211.0001194,-124.0234375,-96.6796875,-93.75,-71.77734375,0.0
1741086211.0040243,-63.96484375,-97.16796875,-94.7265625,-41.50390625,0.0
1741086211.0079293,20.5078125,-94.7265625,-94.7265625,7.8125,0.0
1741086211.0118344,-27.83203125,-93.75,-101.5625,-23.92578125,0.0
1741086211.0157394,-117.1875,-100.09765625,-102.5390625,-71.2890625,0.0
1741086211.0196586,-79.1015625,-96.6796875,-90.8203125,-59.08203125,0.0
1741086211.0235636,2.9296875,-89.84375,-101.5625,-21.484375,0.0
1741086211.0274687,-28.3203125,-98.6328125,-113.76953125,-34.1796875,0.0
1741086211.0313735,-104.98046875,-108.88671875,-109.375,-72.75390625,0.0
1741086211.0352786,-83.49609375,-102.5390625,-106.93359375,-57.6171875,0.0
1741086211.0391836,-0.48828125,-110.83984375,-113.28125,-23.4375,0.0
1741086211.0430887,12.6953125,-118.65234375,-103.02734375,-20.99609375,0.0
1741086211.0469937,-72.75390625,-105.95703125,-94.23828125,-53.7109375,0.0
1741086211.0508986,-113.28125,-116.2109375,-104.4921875,-82.03125,0.0
1741086211.0548036,-44.43359375,-109.375,-102.5390625,-60.546875,0.0
1741086211.0587087,15.625,-75.1953125,-91.30859375,-25.390625,0.0
1741086211.0626137,-54.6875,-81.54296875,-93.75,-40.0390625,0.0
1741086211.0665326,0.0,-112.3046875,-111.81640625,-77.1484375,0.0
1741086211.0704377,0.0,-109.86328125,-100.5859375,-59.5703125,0.0
1741086211.0743427,0.0,-89.35546875,-84.9609375,-34.66796875,0.0
1741086211.0782478,0.0,-92.28515625,-98.6328125,-54.6875,0.0
1741086211.0821528,0.0,-101.5625,-94.23828125,-93.75,0.0
1741086211.0860577,0.0,-107.421875,-85.9375,-80.56640625,0.0
1741086211.0899627,0.0,-92.28515625,-90.33203125,-24.90234375,0.0
1741086211.0938678,0.0,-80.56640625,-99.12109375,-18.06640625,0.0
1741086211.0977728,0.0,-107.421875,-91.796875,-64.94140625,0.0
1741086211.1016777,0.0,-104.98046875,-83.49609375,-75.1953125,0.0
1741086211.1055827,0.0,-80.078125,-81.0546875,-25.390625,0.0
1741086211.1094878,0.0,-83.984375,-92.7734375,-2.9296875,0.0
1741086211.1134067,-76.66015625,-89.84375,-102.5390625,-43.45703125,0.0
1741086211.1173115,-122.55859375,-92.28515625,-90.8203125,-73.2421875,0.0
1741086211.1212165,-54.19921875,-99.609375,-92.28515625,-36.1328125,0.0
1741086211.1251216,14.16015625,-96.6796875,-112.79296875,0.48828125,0.0
1741086211.1290267,-42.48046875,-97.16796875,-98.6328125,-36.1328125,0.0
1741086211.1329315,-106.93359375,-104.98046875,-71.2890625,-83.0078125,0.0
1741086211.1368365,-75.68359375,-94.7265625,-74.70703125,-73.73046875,0.0
1741086211.1407416,-2.44140625,-87.40234375,-92.28515625,-23.92578125,0.0
1741086211.1446466,-17.08984375,-73.2421875,-96.19140625,-15.13671875,0.0
1741086211.1485517,-99.609375,-77.63671875,-89.35546875,-68.84765625,0.0
1741086211.1524565,-77.1484375,-90.8203125,-88.37890625,-76.66015625,0.0
1741086211.1563616,3.90625,-80.56640625,-85.44921875,-21.484375,0.0
1741086211.1602802,-8.7890625,-67.87109375,-85.44921875,-14.16015625,0.0
1741086211.1641853,-98.14453125,-78.61328125,-83.49609375,-72.265625,0.0
1741086211.1680903,-120.60546875,-96.19140625,-91.30859375,-96.19140625,0.0
1741086211.1719952,-24.90234375,-89.84375,-98.6328125,-44.921875,0.0
1741086211.1759002,31.25,-85.9375,-93.75,-8.30078125,0.0
1741086211.1798053,-48.33984375,-105.95703125,-91.30859375,-53.22265625,0.0
1741086211.1837103,-97.65625,-124.0234375,-102.5390625,-74.21875,0.0
1741086211.1876152,-22.94921875,-101.5625,-105.46875,-20.99609375,0.0
1741086211.1915202,36.1328125,-53.22265625,-93.26171875,5.37109375,0.0
1741086211.1954253,-17.08984375,-54.19921875,-78.61328125,-31.73828125,0.0
1741086211.1993303,-95.21484375,-82.51953125,-76.66015625,-77.1484375,0.0
1741086211.2032354,-60.546875,-75.68359375,-78.61328125,-62.5,0.0
1741086211.2071538,12.6953125,-62.5,-83.0078125,-15.13671875,0.0
1741086211.2110586,-21.97265625,-82.03125,-87.890625,-32.71484375,0.0
1741086211.2149637,-112.79296875,-98.6328125,-88.37890625,-78.125,0.0
1741086211.2188687,-102.5390625,-93.26171875,-96.19140625,-75.68359375,0.0
1741086211.2227738,-28.3203125,-79.1015625,-93.26171875,-29.296875,0.0
1741086211.2266788,-32.2265625,-74.70703125,-85.44921875,-10.25390625,0.0
1741086211.2305837,-87.890625,-88.37890625,-75.1953125,-52.24609375,0.0
1741086211.2344887,-113.28125,-102.5390625,-85.9375,-86.42578125,0.0
1741086211.2383938,-39.0625,-94.23828125,-89.84375,-45.41015625,0.0
1741086211.2422988,25.390625,-82.03125,-74.70703125,-0.48828125,0.0
1741086211.2462037,-42.96875,-81.54296875,-72.265625,-35.15625,0.0
1741086211.2501087,-115.72265625,-82.03125,-91.30859375,-68.359375,0.0
1741086211.2540271,-59.5703125,-78.61328125,-97.65625,-34.1796875,0.0
1741086211.2579322,19.04296875,-71.2890625,-82.51953125,10.25390625,0.0
1741086211.261837,-15.13671875,-75.68359375,-79.58984375,-15.625,0.0
1741086211.265742,-105.46875,-86.9140625,-85.44921875,-73.73046875,0.0
1741086211.2696471,-69.82421875,-73.73046875,-73.73046875,-51.7578125,0.0
1741086211.2735522,7.8125,-77.63671875,-84.9609375,-19.04296875,0.0
1741086211.2774572,-26.85546875,-93.75,-106.4453125,-46.875,0.0
1741086211.281362,-99.12109375,-89.84375,-102.5390625,-86.42578125,0.0
1741086211.285267,-87.890625,-85.44921875,-89.84375,-78.61328125,0.0
1741086211.2891722,-12.6953125,-82.51953125,-89.84375,-30.2734375,0.0
1741086211.2930772,-2.9296875,-89.84375,-102.5390625,-13.671875,0.0
1741086211.2969823,-67.87109375,-89.35546875,-97.65625,-56.15234375,0.0
1741086211.3009017,0.0,-81.0546875,-89.84375,-77.1484375,0.0
1741086211.3048067,0.0,-83.49609375,-90.33203125,-42.96875,0.0
1741086211.3087118,0.0,-78.61328125,-86.9140625,-16.6015625,0.0
1741086211.3126168,0.0,-77.63671875,-77.63671875,-43.9453125,0.0
1741086211.3165216,0.0,-82.03125,-85.9375,-79.1015625,0.0
1741086211.3204267,0.0,-88.37890625,-91.796875,-51.7578125,0.0
1741086211.3243318,0.0,-70.80078125,-62.5,-14.16015625,0.0
1741086211.3282368,0.0,-62.98828125,-58.10546875,-28.80859375,0.0
1741086211.3321416,0.0,-68.359375,-66.40625,-69.3359375,0.0
1741086211.3360467,0.0,-76.66015625,-85.9375,-62.5,0.0
1741086211.3399518,0.0,-82.03125,-86.9140625,-20.5078125,0.0
1741086211.3438568,0.0,-74.70703125,-73.2421875,-17.08984375,0.0
1741086211.347776,-86.9140625,-82.51953125,-76.171875,-52.734375,0.0
1741086211.351681,-88.8671875,-98.14453125,-85.44921875,-66.40625,0.0
1741086211.355586,3.41796875,-80.078125,-88.37890625,-18.06640625,0.0
1741086211.359491,40.0390625,-56.640625,-70.3125,8.7890625,0.0
1741086211.363396,-31.73828125,-57.12890625,-69.82421875,-39.0625,0.0
1741086211.367301,-70.80078125,-68.84765625,-72.265625,-69.82421875,0.0
