timestamps,TP9,AF7,AF8,TP10,Right AUX
1741044627.2541716,-26.85546875,-0.9765625,-29.296875,-5.37109375,0.0
1741044627.2580776,-48.828125,-1.46484375,-33.69140625,-7.32421875,0.0
1741044627.2619834,-46.875,1.46484375,-11.71875,-6.34765625,0.0
1741044627.2658894,-29.296875,0.0,-17.08984375,-9.765625,0.0
1741044627.2697954,-8.30078125,4.39453125,-18.06640625,-2.44140625,0.0
1741044627.2737014,-19.53125,7.8125,-15.625,-8.7890625,0.0
1741044627.2776072,-37.59765625,3.90625,-25.390625,-9.765625,0.0
1741044627.2815132,-20.99609375,0.48828125,-35.64453125,4.39453125,0.0
1741044627.2854192,-3.90625,-13.18359375,-45.8984375,1.46484375,0.0
1741044627.2893252,-19.53125,-16.6015625,-20.5078125,-4.8828125,0.0
1741044627.293231,-51.7578125,-11.23046875,-40.52734375,-27.34375,0.0
1741044627.297137,-52.24609375,-7.32421875,-51.26953125,-41.50390625,0.0
1741044627.3010445,-41.9921875,9.765625,-25.390625,-30.76171875,0.0
1741044627.3049505,-28.3203125,16.11328125,-27.83203125,-14.6484375,0.0
1741044627.3088565,-22.4609375,11.23046875,-30.76171875,-5.859375,0.0
1741044627.3127623,-38.0859375,17.08984375,-35.64453125,-30.2734375,0.0
1741044627.3166683,-34.1796875,15.625,-31.73828125,-44.43359375,0.0
1741044627.3205743,-21.97265625,0.9765625,-36.62109375,-38.57421875,0.0
1741044627.3244803,-31.73828125,5.37109375,-37.109375,-39.0625,0.0
1741044627.328386,-31.25,20.01953125,-24.4140625,-20.99609375,0.0
1741044627.332292,-30.2734375,5.37109375,-33.203125,-26.3671875,0.0
1741044627.336198,-20.99609375,1.46484375,-39.55078125,-35.64453125,0.0
1741044627.340104,-23.4375,10.25390625,-38.57421875,-28.80859375,0.0
1741044627.3440099,-37.109375,7.8125,-24.4140625,-32.71484375,0.0
1741044627.3479173,-21.97265625,4.39453125,-11.23046875,-25.87890625,0.0
1741044627.351823,0.9765625,-0.9765625,-13.18359375,-21.484375,0.0
1741044627.355729,-7.8125,-1.953125,-23.92578125,-22.4609375,0.0
1741044627.359635,-29.296875,2.44140625,-20.5078125,-17.578125,0.0
1741044627.3635411,-19.53125,3.90625,-5.859375,-4.39453125,0.0
1741044627.367447,-4.8828125,1.46484375,-15.625,-5.37109375,0.0
1741044627.371353,-6.34765625,-10.25390625,-38.57421875,-13.18359375,0.0
1741044627.375259,-20.5078125,-5.37109375,-41.015625,-18.06640625,0.0
1741044627.379165,-21.484375,29.78515625,-21.484375,-9.765625,0.0
1741044627.3830707,-14.6484375,26.3671875,-14.6484375,-11.23046875,0.0
1741044627.3869767,-30.76171875,-3.90625,-19.04296875,-21.97265625,0.0
1741044627.3908827,-41.015625,-0.9765625,-25.390625,-24.4140625,0.0
1741044627.39479,-34.66796875,15.13671875,-30.76171875,-29.296875,0.0
1741044627.3986957,-30.2734375,4.8828125,-21.97265625,-26.85546875,0.0
1741044627.4026017,-27.34375,-1.953125,-21.97265625,-22.94921875,0.0
1741044627.4065077,-29.78515625,6.34765625,-14.6484375,-16.11328125,0.0
1741044627.4104137,-30.2734375,8.30078125,-16.6015625,-11.71875,0.0
1741044627.4143195,-22.4609375,11.71875,-28.3203125,-22.4609375,0.0
1741044627.4182255,-12.20703125,6.8359375,-27.83203125,-21.484375,0.0
1741044627.4221315,-4.8828125,14.16015625,-17.08984375,-9.765625,0.0
1741044627.4260375,-22.94921875,12.6953125,-15.13671875,-18.5546875,0.0
1741044627.4299433,-33.69140625,0.0,-35.15625,-32.71484375,0.0
1741044627.4338493,-13.18359375,4.39453125,-27.83203125,-24.90234375,0.0
1741044627.4377553,-13.671875,17.578125,-18.06640625,-24.4140625,0.0
1741044627.4416623,-26.3671875,22.94921875,-28.3203125,-32.71484375,0.0
1741044627.445568,-23.92578125,22.94921875,-20.01953125,-20.01953125,0.0
1741044627.449474,-20.99609375,12.20703125,-28.3203125,-17.578125,0.0
1741044627.45338,-12.20703125,-6.8359375,-42.96875,-28.3203125,0.0
1741044627.4572861,-19.04296875,-14.6484375,-34.66796875,-28.80859375,0.0
1741044627.461192,-25.390625,-4.39453125,-24.4140625,-12.6953125,0.0
1741044627.465098,-17.578125,5.37109375,-31.73828125,-4.39453125,0.0
1741044627.469004,-15.13671875,15.13671875,-27.83203125,-18.06640625,0.0
1741044627.47291,-23.4375,14.6484375,-23.4375,-25.87890625,0.0
1741044627.4768157,-46.38671875,0.9765625,-24.4140625,-26.85546875,0.0
1741044627.4807217,-49.8046875,1.46484375,-18.06640625,-24.90234375,0.0
1741044627.4846277,-36.1328125,-0.9765625,-19.53125,-20.01953125,0.0
1741044627.4885345,-33.203125,-0.9765625,-20.5078125,-18.06640625,0.0
1741044627.4924405,-58.10546875,-4.8828125,-28.3203125,-32.2265625,0.0
1741044627.4963465,-66.40625,-12.20703125,-34.1796875,-41.015625,0.0
1741044627.5002522,-37.109375,2.9296875,-27.34375,-25.390625,0.0
1741044627.5041583,-23.4375,13.18359375,-17.08984375,-24.4140625,0.0
1741044627.5080643,-38.0859375,6.8359375,-21.97265625,-23.4375,0.0
1741044627.5119703,-40.0390625,9.765625,-22.94921875,-14.16015625,0.0
1741044627.515876,-20.99609375,12.20703125,-15.13671875,-9.765625,0.0
1741044627.519782,-13.671875,2.9296875,-18.06640625,-16.6015625,0.0
1741044627.523688,-29.296875,1.46484375,-26.85546875,-23.4375,0.0
1741044627.527594,-39.55078125,8.7890625,-26.3671875,-25.390625,0.0
1741044627.5314999,-21.97265625,13.671875,-19.04296875,-18.5546875,0.0
1741044627.5354078,-16.11328125,6.8359375,-28.80859375,-17.578125,0.0
1741044627.5393138,-31.73828125,-0.48828125,-26.3671875,-30.2734375,0.0
1741044627.5432198,-44.921875,0.9765625,-19.53125,-33.69140625,0.0
1741044627.5471256,-46.38671875,7.8125,-33.203125,-33.69140625,0.0
1741044627.5510316,-33.203125,0.9765625,-28.80859375,-39.0625,0.0
1741044627.5549376,-27.83203125,-12.20703125,-25.87890625,-37.59765625,0.0
1741044627.5588436,-33.203125,-1.953125,-25.390625,-35.64453125,0.0
1741044627.5627494,-28.80859375,13.671875,-17.578125,-34.66796875,0.0
1741044627.5666554,-12.20703125,21.97265625,-21.484375,-31.73828125,0.0
1741044627.5705614,-3.90625,16.6015625,-26.85546875,-27.83203125,0.0
1741044627.5744674,-21.97265625,12.20703125,-25.390625,-36.1328125,0.0
1741044627.5783732,-32.2265625,16.6015625,-33.69140625,-34.66796875,0.0
1741044627.582281,0.0,8.7890625,-33.203125,-28.3203125,0.0
1741044627.5861871,0.0,2.44140625,-28.3203125,-36.1328125,0.0
1741044627.590093,0.0,-1.46484375,-27.34375,-30.2734375,0.0
1741044627.593999,0.0,-6.8359375,-37.59765625,-36.1328125,0.0
1741044627.597905,0.0,8.7890625,-34.66796875,-39.0625,0.0
1741044627.601811,0.0,9.765625,-30.2734375,-34.1796875,0.0
1741044627.6057167,0.0,2.9296875,-31.25,-38.57421875,0.0
1741044627.6096227,0.0,10.7421875,-27.83203125,-42.48046875,0.0
1741044627.6135287,0.0,6.8359375,-32.2265625,-29.78515625,0.0
1741044627.6174347,0.0,7.8125,-35.15625,-29.296875,0.0
1741044627.6213405,0.0,11.71875,-28.80859375,-42.48046875,0.0
1741044627.6252465,0.0,11.23046875,-26.3671875,-28.3203125,0.0
1741044627.629154,-49.31640625,12.20703125,-23.4375,-19.53125,0.0
1741044627.63306,-34.66796875,17.578125,-29.296875,-36.1328125,0.0
1741044627.636966,-36.1328125,0.9765625,-25.390625,-38.0859375,0.0
1741044627.640872,-29.78515625,-11.71875,-10.25390625,-15.13671875,0.0
1741044627.6447778,-29.296875,10.7421875,-30.2734375,-26.3671875,0.0
1741044627.6486838,-26.85546875,18.5546875,-45.8984375,-39.0625,0.0
1741044627.6525898,-9.765625,20.5078125,-27.83203125,-33.203125,0.0
1741044627.6564958,-17.08984375,15.625,-30.2734375,-37.59765625,0.0
1741044627.6604016,-12.20703125,3.90625,-51.7578125,-23.92578125,0.0
1741044627.6643076,0.0,18.5546875,-51.26953125,-18.06640625,0.0
1741044627.6682136,-2.9296875,16.11328125,-59.08203125,-31.73828125,0.0
1741044627.6721196,-12.6953125,14.6484375,-71.2890625,-26.3671875,0.0
1741044627.6760268,-30.76171875,10.25390625,-68.359375,-17.578125,0.0
1741044627.6799328,-25.390625,14.16015625,-70.3125,-12.20703125,0.0
1741044627.6838388,1.46484375,21.97265625,-75.68359375,-9.765625,0.0
1741044627.6877449,10.25390625,16.11328125,-81.54296875,-20.5078125,0.0
1741044627.6916506,-2.44140625,12.6953125,-95.21484375,-34.1796875,0.0
1741044627.6955566,-5.37109375,8.30078125,-102.5390625,-37.109375,0.0
1741044627.6994627,3.41796875,16.11328125,-93.75,-27.34375,0.0
1741044627.7033687,17.578125,24.4140625,-95.21484375,-21.97265625,0.0
1741044627.7072744,21.484375,25.390625,-99.609375,-32.71484375,0.0
1741044627.7111804,21.484375,33.203125,-99.12109375,-41.50390625,0.0
1741044627.7150865,17.578125,31.25,-104.98046875,-42.48046875,0.0
1741044627.7189925,23.92578125,21.484375,-103.515625,-34.66796875,0.0
1741044627.7228997,27.34375,35.15625,-104.00390625,-37.109375,0.0
1741044627.7268057,15.13671875,46.875,-102.05078125,-38.0859375,0.0
1741044627.7307115,-1.953125,34.1796875,-101.5625,-40.0390625,0.0
1741044627.7346175,13.18359375,27.83203125,-104.98046875,-36.62109375,0.0
1741044627.7385235,24.90234375,34.1796875,-94.7265625,-28.80859375,0.0
1741044627.7424295,3.41796875,29.296875,-85.9375,-32.2265625,0.0
1741044627.7463353,-2.9296875,17.08984375,-94.7265625,-26.85546875,0.0
1741044627.7502413,12.6953125,3.41796875,-108.88671875,-19.53125,0.0
1741044627.7541473,30.2734375,7.32421875,-106.4453125,-15.13671875,0.0
1741044627.7580533,9.27734375,29.78515625,-94.7265625,-4.8828125,0.0
1741044627.761959,4.39453125,33.203125,-84.47265625,4.8828125,0.0
1741044627.765865,41.50390625,33.203125,-80.078125,11.23046875,0.0
1741044627.7697723,40.52734375,30.76171875,-76.171875,7.32421875,0.0
1741044627.7736783,33.69140625,20.01953125,-80.078125,6.8359375,0.0
1741044627.7775843,31.25,11.71875,-84.9609375,10.25390625,0.0
1741044627.78149,36.62109375,11.23046875,-74.70703125,8.30078125,0.0
1741044627.785396,54.19921875,7.8125,-75.68359375,4.39453125,0.0
1741044627.789302,51.7578125,-4.39453125,-82.51953125,4.39453125,0.0
1741044627.7932081,30.76171875,2.9296875,-69.82421875,4.39453125,0.0
1741044627.797114,27.83203125,16.6015625,-50.78125,10.7421875,0.0
1741044627.80102,45.8984375,12.20703125,-51.26953125,7.32421875,0.0
1741044627.804926,45.8984375,5.859375,-52.24609375,4.8828125,0.0
1741044627.808832,36.62109375,15.13671875,-41.50390625,14.16015625,0.0
1741044627.8127377,29.78515625,-2.44140625,-45.41015625,12.20703125,0.0
1741044627.8166447,24.90234375,-17.578125,-51.26953125,0.0,0.0
1741044627.8205507,25.87890625,-7.8125,-44.43359375,-4.39453125,0.0
1741044627.8244567,5.859375,-5.37109375,-52.24609375,-7.8125,0.0
1741044627.8283625,-1.953125,-1.953125,-47.8515625,-13.671875,0.0
1741044627.8322685,12.6953125,0.9765625,-39.55078125,-14.6484375,0.0
1741044627.8361745,16.11328125,-0.48828125,-55.17578125,-7.32421875,0.0
1741044627.8400805,2.44140625,-8.7890625,-54.6875,-8.7890625,0.0
1741044627.8439863,-16.6015625,2.9296875,-27.83203125,-18.5546875,0.0
1741044627.8478923,-11.71875,5.859375,-17.08984375,-14.16015625,0.0
1741044627.8517983,21.484375,-4.39453125,-24.4140625,2.44140625,0.0
1741044627.8557043,14.6484375,-11.23046875,-27.83203125,8.30078125,0.0
1741044627.85961,-13.18359375,-12.20703125,-20.99609375,6.8359375,0.0
1741044627.8635168,-10.25390625,-3.41796875,-13.671875,12.20703125,0.0
1741044627.8674228,0.9765625,1.953125,-16.6015625,17.08984375,0.0
1741044627.8713288,-2.9296875,2.44140625,-15.625,10.7421875,0.0
1741044627.8752348,-30.2734375,-1.953125,-16.11328125,-7.32421875,0.0
1741044627.8791406,-48.33984375,-10.25390625,-18.06640625,-5.859375,0.0
1741044627.8830466,-33.203125,-19.53125,-15.13671875,5.859375,0.0
1741044627.8869526,-17.08984375,-26.3671875,-27.34375,4.8828125,0.0
1741044627.8908587,-25.390625,-20.5078125,-24.90234375,1.46484375,0.0
1741044627.8947647,-49.31640625,-13.18359375,-11.23046875,-1.46484375,0.0
1741044627.8986704,-42.96875,-23.4375,-10.7421875,4.39453125,0.0
1741044627.9025764,-21.97265625,-20.01953125,-13.671875,2.9296875,0.0
1741044627.9064825,-41.015625,-7.32421875,-22.4609375,-8.7890625,0.0
1741044627.9103901,-62.5,-9.765625,-14.16015625,-14.6484375,0.0
1741044627.9142962,-48.33984375,-11.23046875,-8.30078125,-12.20703125,0.0
1741044627.9182022,-26.85546875,-3.90625,-16.6015625,-10.25390625,0.0
1741044627.9221082,-31.73828125,-11.23046875,-21.484375,-17.08984375,0.0
1741044627.926014,-53.7109375,-13.671875,-20.01953125,-19.53125,0.0
1741044627.92992,-55.17578125,-6.8359375,-21.484375,-19.53125,0.0
1741044627.933826,-27.34375,-3.90625,-11.23046875,-23.92578125,0.0
1741044627.937732,-4.39453125,-2.9296875,0.9765625,-26.85546875,0.0
1741044627.9416378,-28.3203125,-1.953125,-11.71875,-30.76171875,0.0
1741044627.9455438,-59.08203125,-6.8359375,-20.99609375,-31.73828125,0.0
1741044627.9494498,-45.41015625,-15.625,-27.34375,-40.0390625,0.0
1741044627.9533558,-22.4609375,-8.30078125,-23.4375,-50.29296875,0.0
1741044627.9572635,-23.92578125,9.765625,-18.06640625,-42.48046875,0.0
1741044627.9611695,-44.43359375,13.671875,-19.53125,-30.76171875,0.0
1741044627.9650753,-33.203125,8.30078125,-24.90234375,-36.1328125,0.0
1741044627.9689813,-13.671875,2.9296875,-19.04296875,-37.59765625,0.0
1741044627.9728873,-20.01953125,2.44140625,-5.37109375,-30.2734375,0.0
1741044627.9767933,-31.73828125,0.48828125,-7.8125,-25.87890625,0.0
1741044627.980699,-40.0390625,-0.48828125,-12.6953125,-18.5546875,0.0
1741044627.984605,-29.296875,-2.44140625,-15.13671875,-16.6015625,0.0
1741044627.988511,-21.484375,-5.37109375,-22.94921875,-14.16015625,0.0
1741044627.992417,-38.57421875,5.37109375,-14.16015625,-0.9765625,0.0
1741044627.9963229,-36.1328125,4.8828125,2.44140625,6.34765625,0.0
1741044628.000229,-13.671875,1.46484375,-8.7890625,-4.8828125,0.0
1741044628.0041363,-14.16015625,13.18359375,-20.5078125,-21.97265625,0.0
1741044628.0080423,-44.43359375,5.37109375,-25.87890625,-35.15625,0.0
1741044628.0119483,-53.22265625,6.8359375,-21.97265625,-20.99609375,0.0
1741044628.0158544,-27.34375,18.5546875,-28.80859375,-25.390625,0.0
1741044628.0197601,-5.859375,-6.8359375,-46.875,-42.96875,0.0
1741044628.0236661,-30.2734375,-5.37109375,-43.45703125,-40.0390625,0.0
1741044628.0275722,-58.10546875,16.11328125,-31.25,-40.52734375,0.0
1741044628.0314782,-44.921875,3.41796875,-38.0859375,-32.71484375,0.0
1741044628.035384,-9.765625,-0.9765625,-37.59765625,-17.08984375,0.0
1741044628.03929,-18.06640625,-5.859375,-26.3671875,-30.76171875,0.0
1741044628.043196,-49.31640625,-4.39453125,-36.1328125,-45.8984375,0.0
1741044628.047102,-40.0390625,2.44140625,-48.33984375,-38.57421875,0.0
1741044628.0510094,-20.01953125,-1.953125,-46.875,-40.0390625,0.0
1741044628.0549152,-2.9296875,1.953125,-39.55078125,-43.9453125,0.0
1741044628.0588212,-20.5078125,5.37109375,-37.109375,-36.1328125,0.0
1741044628.0627272,-34.66796875,5.859375,-44.921875,-27.34375,0.0
1741044628.0666332,-5.859375,9.765625,-42.96875,-26.3671875,0.0
1741044628.070539,8.30078125,10.7421875,-32.71484375,-31.25,0.0
1741044628.074445,-9.765625,14.6484375,-32.71484375,-40.52734375,0.0
1741044628.078351,-28.3203125,8.7890625,-27.83203125,-34.1796875,0.0
1741044628.082257,-22.94921875,3.90625,-25.87890625,-26.85546875,0.0
1741044628.0861628,-5.37109375,6.34765625,-41.50390625,-36.1328125,0.0
1741044628.0900688,-7.32421875,11.23046875,-35.15625,-38.57421875,0.0
1741044628.0939748,-30.2734375,9.27734375,-25.390625,-29.296875,0.0
1741044628.097882,-28.3203125,9.765625,-28.3203125,-31.73828125,0.0
1741044628.101788,-5.859375,3.90625,-30.76171875,-41.9921875,0.0
1741044628.1056938,-15.13671875,-2.9296875,-28.3203125,-37.59765625,0.0
1741044628.1095998,-46.38671875,9.27734375,-24.4140625,-17.08984375,0.0
1741044628.1135058,-44.43359375,18.06640625,-20.01953125,-8.30078125,0.0
1741044628.1174119,-21.97265625,8.7890625,-18.5546875,-16.6015625,0.0
1741044628.1213176,-22.4609375,-0.48828125,-28.80859375,-10.7421875,0.0
1741044628.1252236,-43.45703125,-6.8359375,-36.62109375,-11.23046875,0.0
1741044628.1291296,-49.8046875,3.41796875,-22.94921875,-17.578125,0.0
1741044628.1330357,-26.3671875,21.484375,-12.20703125,-4.39453125,0.0
1741044628.1369417,-18.5546875,19.53125,-10.25390625,-1.953125,0.0
1741044628.1408474,-40.0390625,5.859375,-9.27734375,-10.25390625,0.0
1741044628.1447546,-59.08203125,-3.90625,-14.16015625,-20.5078125,0.0
1741044628.1486607,-52.24609375,-11.23046875,-13.18359375,-22.4609375,0.0
1741044628.1525664,-29.296875,-9.765625,-19.04296875,-16.11328125,0.0
1741044628.1564724,-35.64453125,2.44140625,-25.87890625,-19.04296875,0.0
1741044628.1603785,-53.22265625,4.39453125,-24.4140625,-20.5078125,0.0
1741044628.1642845,-38.57421875,1.953125,-21.97265625,-13.18359375,0.0
1741044628.1681902,-23.4375,-5.37109375,-31.73828125,-15.625,0.0
1741044628.1720963,-19.04296875,-2.9296875,-29.78515625,-22.94921875,0.0
1741044628.1760023,-32.2265625,14.16015625,-15.625,-27.34375,0.0
1741044628.1799083,-30.2734375,20.5078125,-14.16015625,-21.484375,0.0
1741044628.183814,-7.8125,22.94921875,-19.04296875,-20.99609375,0.0
1741044628.18772,-7.32421875,9.27734375,-25.390625,-24.4140625,0.0
1741044628.191627,-30.76171875,-0.48828125,-26.3671875,-19.04296875,0.0
1741044628.195533,-44.43359375,-2.9296875,-41.015625,-24.90234375,0.0
1741044628.199439,-34.66796875,-1.46484375,-34.1796875,-32.2265625,0.0
1741044628.2033448,-16.11328125,7.8125,-22.4609375,-31.73828125,0.0
1741044628.2072508,-27.83203125,3.41796875,-32.2265625,-34.66796875,0.0
1741044628.2111568,-51.7578125,-12.6953125,-41.50390625,-32.71484375,0.0
1741044628.2150629,-38.57421875,-18.5546875,-35.15625,-31.73828125,0.0
1741044628.2189686,-16.6015625,-0.48828125,-33.203125,-41.9921875,0.0
1741044628.2228746,-21.484375,15.625,-23.92578125,-46.875,0.0
1741044628.2267807,-37.59765625,21.97265625,-17.578125,-22.94921875,0.0
1741044628.2306867,-49.31640625,4.8828125,-37.109375,-21.484375,0.0
1741044628.2345924,-35.15625,0.48828125,-40.0390625,-24.4140625,0.0
1741044628.2384994,-17.08984375,5.37109375,-33.69140625,-13.18359375,0.0
1741044628.2424054,-34.66796875,-6.8359375,-34.66796875,-20.01953125,0.0
1741044628.2463112,-57.6171875,-9.27734375,-36.62109375,-41.015625,0.0
1741044628.2502172,-42.48046875,1.953125,-40.0390625,-44.921875,0.0
1741044628.2541232,-16.6015625,5.859375,-41.50390625,-31.73828125,0.0
1741044628.2580292,-29.296875,4.39453125,-52.24609375,-35.15625,0.0
1741044628.261935,-52.734375,5.859375,-49.31640625,-41.9921875,0.0
1741044628.265841,-33.203125,-2.44140625,-41.50390625,-35.64453125,0.0
1741044628.269747,-19.04296875,-17.578125,-52.24609375,-34.1796875,0.0
1741044628.273653,-26.85546875,-3.41796875,-45.8984375,-21.97265625,0.0
1741044628.2775588,-42.96875,21.484375,-32.2265625,-26.85546875,0.0
1741044628.2814648,-34.66796875,21.484375,-32.71484375,-29.78515625,0.0
1741044628.2853727,-9.765625,11.71875,-28.3203125,-20.99609375,0.0
1741044628.2892785,-21.97265625,3.41796875,-40.52734375,-35.64453125,0.0
1741044628.2931845,-39.0625,-2.44140625,-44.43359375,-32.71484375,0.0
1741044628.2970905,-41.50390625,-12.6953125,-41.015625,-36.62109375,0.0
1741044628.3009965,-24.4140625,1.46484375,-44.921875,-39.55078125,0.0
1741044628.3049023,-12.20703125,8.30078125,-49.8046875,-36.62109375,0.0
1741044628.3088083,-37.59765625,0.0,-41.015625,-35.15625,0.0
1741044628.3127143,-46.38671875,1.953125,-39.0625,-30.76171875,0.0
1741044628.3166203,-13.18359375,3.90625,-48.33984375,-29.296875,0.0
1741044628.3205261,-2.9296875,2.9296875,-42.48046875,-17.578125,0.0
1741044628.3244321,-22.94921875,2.44140625,-28.3203125,-19.53125,0.0
1741044628.3283381,-37.109375,3.90625,-34.1796875,-28.80859375,0.0
1741044628.3322458,0.0,7.8125,-40.52734375,-24.4140625,0.0
1741044628.3361518,0.0,2.44140625,-44.43359375,-25.390625,0.0
1741044628.3400578,0.0,8.7890625,-32.71484375,-26.3671875,0.0
1741044628.3439639,0.0,4.39453125,-31.73828125,-25.390625,0.0
1741044628.3478696,0.0,-5.859375,-46.38671875,-25.87890625,0.0
1741044628.3517756,0.0,5.859375,-41.9921875,-25.390625,0.0
1741044628.3556817,0.0,4.8828125,-35.64453125,-23.4375,0.0
1741044628.3595877,0.0,4.39453125,-30.76171875,-34.66796875,0.0
1741044628.3634934,0.0,9.27734375,-31.25,-28.80859375,0.0
1741044628.3673995,0.0,7.32421875,-33.203125,-17.08984375,0.0
1741044628.3713055,0.0,16.11328125,-31.73828125,-17.578125,0.0
1741044628.3752115,0.0,11.23046875,-29.78515625,-18.06640625,0.0
1741044628.379119,-39.0625,3.41796875,-24.90234375,-15.625,0.0
1741044628.383025,-20.01953125,11.71875,-18.5546875,-10.7421875,0.0
1741044628.386931,-20.01953125,12.20703125,-23.4375,-13.18359375,0.0
1741044628.3908367,-39.0625,3.90625,-27.34375,-11.23046875,0.0
1741044628.3947427,-54.6875,-6.34765625,-23.92578125,-6.8359375,0.0
1741044628.3986487,-45.41015625,-4.8828125,-22.94921875,-16.6015625,0.0
1741044628.4025548,-20.99609375,4.8828125,-20.01953125,-21.97265625,0.0
1741044628.4064605,-23.4375,0.0,-44.921875,-21.97265625,0.0
1741044628.4103665,-49.8046875,-5.37109375,-44.921875,-18.06640625,0.0
1741044628.4142725,-53.22265625,8.30078125,-22.94921875,-23.92578125,0.0
1741044628.4181786,-15.625,8.30078125,-18.5546875,-16.11328125,0.0
1741044628.4220843,-5.37109375,5.37109375,-24.4140625,-10.7421875,0.0
1741044628.4259918,-48.33984375,8.30078125,-22.94921875,-26.3671875,0.0
1741044628.4298978,-54.19921875,0.48828125,-21.484375,-26.85546875,0.0
1741044628.4338038,-22.94921875,1.46484375,-29.296875,-19.53125,0.0
1741044628.4377096,-15.625,8.30078125,-37.109375,-24.4140625,0.0
1741044628.4416156,-28.3203125,6.8359375,-28.80859375,-27.34375,0.0
1741044628.4455216,-36.1328125,-7.32421875,-23.92578125,-27.34375,0.0
1741044628.4494276,-28.80859375,-8.7890625,-29.296875,-33.203125,0.0
1741044628.4533334,-12.20703125,2.44140625,-38.0859375,-33.69140625,0.0
1741044628.4572394,-15.625,16.6015625,-40.0390625,-39.55078125,0.0
1741044628.4611454,-56.640625,12.20703125,-40.52734375,-49.8046875,0.0
1741044628.4650514,-53.22265625,-6.34765625,-49.8046875,-48.33984375,0.0
1741044628.4689572,-22.4609375,-11.23046875,-41.9921875,-44.921875,0.0
1741044628.4728646,-20.99609375,-14.16015625,-25.390625,-41.50390625,0.0
1741044628.4767706,-41.50390625,-8.7890625,-22.4609375,-33.203125,0.0
1741044628.4806764,-34.66796875,3.90625,-19.04296875,-16.11328125,0.0
1741044628.4845824,-14.6484375,4.8828125,-27.34375,-11.23046875,0.0
1741044628.4884884,-18.06640625,3.41796875,-24.90234375,-19.04296875,0.0
1741044628.4923944,-29.296875,0.9765625,-15.625,-23.4375,0.0
1741044628.4963002,-46.38671875,-5.859375,-34.1796875,-35.15625,0.0
1741044628.5002062,-34.66796875,-8.7890625,-39.0625,-31.73828125,0.0
1741044628.5041122,-17.578125,-1.46484375,-20.99609375,-23.92578125,0.0
1741044628.5080183,-29.296875,-1.46484375,-28.3203125,-31.25,0.0
1741044628.511924,-36.1328125,-14.16015625,-29.296875,-24.4140625,0.0
1741044628.51583,-20.01953125,3.41796875,-16.6015625,-7.8125,0.0
1741044628.5197372,-2.9296875,15.625,-16.6015625,-10.7421875,0.0
1741044628.5236433,-23.4375,3.41796875,-17.578125,-16.6015625,0.0
1741044628.527549,-54.6875,-18.5546875,-32.71484375,-32.71484375,0.0
1741044628.531455,-36.1328125,-9.765625,-31.73828125,-44.43359375,0.0
1741044628.535361,-18.06640625,-2.44140625,-34.1796875,-44.921875,0.0
1741044628.539267,-33.69140625,-22.4609375,-44.921875,-47.36328125,0.0
1741044628.5431728,-41.50390625,-2.9296875,-39.0625,-24.90234375,0.0
1741044628.5470788,-26.85546875,10.25390625,-33.203125,-8.7890625,0.0
1741044628.5509849,-13.18359375,-25.87890625,-31.25,-22.4609375,0.0
1741044628.5548909,2.9296875,-12.20703125,-49.8046875,-14.6484375,0.0
1741044628.5587966,-8.30078125,12.20703125,-44.921875,-22.94921875,0.0
1741044628.5627027,-22.94921875,12.20703125,-20.01953125,-28.80859375,0.0
1741044628.5666096,-6.34765625,2.44140625,-37.59765625,-10.25390625,0.0
1741044628.5705156,6.8359375,-23.4375,-41.9921875,-2.9296875,0.0
1741044628.5744216,-12.6953125,-20.01953125,-24.90234375,-8.30078125,0.0
1741044628.5783274,-5.37109375,3.90625,-74.21875,0.0,0.0
1741044628.5822334,31.25,-34.66796875,-116.2109375,25.390625,0.0
1741044628.5861394,64.453125,-69.82421875,-41.50390625,63.4765625,0.0
1741044628.5900455,118.65234375,-114.2578125,-278.3203125,108.3984375,0.0
1741044628.5939512,157.2265625,-94.23828125,-180.17578125,159.66796875,0.0
1741044628.5978572,141.11328125,-20.5078125,141.11328125,154.296875,0.0
1741044628.6017632,128.41796875,84.47265625,10.25390625,140.625,0.0
1741044628.6056693,32.2265625,127.9296875,-33.203125,44.43359375,0.0
1741044628.609575,-68.84765625,97.65625,108.3984375,-62.98828125,0.0
1741044628.613482,-219.23828125,96.19140625,3.90625,-186.5234375,0.0
1741044628.6173878,-183.10546875,196.77734375,-140.625,-77.1484375,0.0
1741044628.6212938,-129.8828125,268.06640625,-121.09375,69.3359375,0.0
1741044628.6251998,-267.578125,568.84765625,146.97265625,100.09765625,0.0
1741044628.6291058,-582.03125,700.68359375,376.46484375,-17.08984375,0.0
1741044628.6330116,-805.17578125,624.51171875,510.7421875,-120.60546875,0.0
1741044628.6369176,-712.890625,720.703125,664.0625,17.578125,0.0
1741044628.6408236,-625.9765625,681.640625,922.8515625,161.62109375,0.0
1741044628.6447296,-579.1015625,877.9296875,984.86328125,158.203125,0.0
1741044628.6486354,-682.12890625,997.0703125,958.49609375,18.06640625,0.0
1741044628.6525414,-832.03125,956.54296875,972.65625,-94.23828125,0.0
1741044628.6564474,-906.73828125,972.65625,970.21484375,-242.67578125,0.0
1741044628.660355,-896.484375,970.21484375,970.21484375,-236.328125,0.0
1741044628.664261,-807.6171875,970.21484375,970.21484375,-148.92578125,0.0
1741044628.668167,-741.69921875,970.21484375,970.21484375,-135.25390625,0.0
1741044628.6720731,-787.59765625,970.21484375,969.7265625,-179.19921875,0.0
1741044628.675979,-703.61328125,970.21484375,969.7265625,-145.01953125,0.0
1741044628.679885,-604.98046875,969.7265625,970.21484375,-111.81640625,0.0
1741044628.683791,-551.26953125,970.21484375,970.21484375,-111.81640625,0.0
1741044628.687697,-502.44140625,970.21484375,970.21484375,-126.46484375,0.0
1741044628.691603,-641.6015625,970.21484375,971.6796875,-263.18359375,0.0
1741044628.6955087,-704.1015625,970.21484375,957.51953125,-321.77734375,0.0
1741044628.6994147,-498.53515625,970.21484375,987.79296875,-164.55078125,0.0
1741044628.7033207,-483.88671875,970.21484375,881.8359375,-214.84375,0.0
1741044628.7072284,-559.5703125,970.21484375,583.49609375,-354.98046875,0.0
1741044628.7111344,-427.734375,970.21484375,458.0078125,-271.484375,0.0
1741044628.7150402,-350.5859375,970.21484375,298.33984375,-249.51171875,0.0
1741044628.7189462,-273.4375,969.7265625,150.87890625,-214.35546875,0.0
1741044628.7228522,-303.22265625,969.7265625,-18.06640625,-301.26953125,0.0
1741044628.7267582,-342.28515625,969.7265625,-102.5390625,-389.6484375,0.0
1741044628.7306643,-256.8359375,969.7265625,-107.421875,-348.14453125,0.0
1741044628.73457,-211.42578125,969.7265625,-171.38671875,-336.42578125,0.0
1741044628.738476,-175.78125,969.7265625,-218.75,-304.6875,0.0
1741044628.742382,-146.97265625,969.7265625,-263.18359375,-252.44140625,0.0
1741044628.746288,-138.671875,970.21484375,-291.015625,-223.6328125,0.0
1741044628.7501938,-130.37109375,970.703125,-273.92578125,-235.83984375,0.0
1741044628.7541015,-113.76953125,965.8203125,-219.23828125,-239.2578125,0.0
1741044628.7580073,-116.2109375,973.14453125,-181.640625,-226.5625,0.0
1741044628.7619133,-112.79296875,939.94140625,-136.71875,-227.05078125,0.0
1741044628.7658193,-82.03125,806.640625,-89.35546875,-216.796875,0.0
1741044628.7697253,-64.453125,683.10546875,-37.59765625,-202.1484375,0.0
1741044628.773631,-63.4765625,597.16796875,23.92578125,-178.22265625,0.0
1741044628.777537,-81.54296875,528.80859375,83.984375,-170.8984375,0.0
1741044628.781443,-89.84375,470.21484375,148.92578125,-169.43359375,0.0
1741044628.7853491,-76.66015625,417.96875,214.35546875,-150.87890625,0.0
1741044628.789255,-93.75,374.0234375,309.5703125,-145.5078125,0.0
1741044628.793161,-169.921875,329.58984375,389.16015625,-166.9921875,0.0
1741044628.797067,-217.7734375,308.59375,458.49609375,-173.33984375,0.0
1741044628.8009744,-247.55859375,279.296875,532.71484375,-199.70703125,0.0
1741044628.8048801,-279.78515625,264.16015625,595.703125,-254.8828125,0.0
1741044628.8087862,-284.1796875,251.953125,642.578125,-259.27734375,0.0
1741044628.8126922,-268.5546875,223.6328125,690.91796875,-224.609375,0.0
1741044628.8165982,-245.1171875,200.68359375,728.515625,-207.03125,0.0
1741044628.820504,-219.23828125,192.3828125,759.765625,-199.70703125,0.0
1741044628.82441,-210.9375,198.73046875,791.50390625,-179.6875,0.0
1741044628.828316,-215.8203125,176.7578125,797.36328125,-188.4765625,0.0
1741044628.832222,-180.17578125,130.37109375,785.15625,-182.12890625,0.0
1741044628.8361278,-128.41796875,132.8125,773.4375,-171.875,0.0
1741044628.8400338,-102.05078125,139.6484375,790.0390625,-171.38671875,0.0
1741044628.8439398,-107.91015625,108.3984375,783.203125,-163.0859375,0.0
1741044628.847847,-98.6328125,61.5234375,758.30078125,-166.9921875,0.0
1741044628.851753,-55.6640625,26.85546875,743.65234375,-160.15625,0.0
1741044628.855659,-25.87890625,-4.8828125,718.75,-156.25,0.0
1741044628.8595648,-3.41796875,-40.52734375,707.03125,-145.01953125,0.0
1741044628.8634708,-5.859375,-69.3359375,697.75390625,-145.01953125,0.0
1741044628.8673768,22.94921875,-87.890625,668.9453125,-144.04296875,0.0
1741044628.8712828,59.08203125,-115.234375,640.625,-137.20703125,0.0
1741044628.8751886,47.36328125,-141.6015625,625.48828125,-124.51171875,0.0
1741044628.8790946,38.0859375,-155.2734375,612.79296875,-121.09375,0.0
1741044628.8830006,80.56640625,-170.8984375,601.5625,-109.86328125,0.0
1741044628.8869066,107.421875,-194.3359375,569.82421875,-102.05078125,0.0
1741044628.8908124,95.21484375,-202.63671875,543.9453125,-111.81640625,0.0
1741044628.8947196,89.84375,-217.28515625,523.92578125,-97.65625,0.0
1741044628.8986256,101.07421875,-238.28125,505.37109375,-84.47265625,0.0
1741044628.9025314,134.27734375,-247.55859375,493.65234375,-89.35546875,0.0
1741044628.9064374,129.8828125,-254.8828125,475.09765625,-81.0546875,0.0
1741044628.9103434,95.21484375,-265.13671875,453.61328125,-79.1015625,0.0
1741044628.9142494,103.02734375,-261.23046875,436.5234375,-71.2890625,0.0
1741044628.9181552,133.30078125,-261.23046875,413.57421875,-59.5703125,0.0
1741044628.9220612,149.4140625,-270.5078125,391.11328125,-55.6640625,0.0
1741044628.9259672,132.8125,-260.25390625,366.2109375,-64.94140625,0.0
1741044628.9298732,114.74609375,-265.13671875,347.16796875,-57.12890625,0.0
1741044628.933779,127.44140625,-263.18359375,338.8671875,-42.48046875,0.0
1741044628.937685,139.6484375,-245.60546875,327.63671875,-47.8515625,0.0
1741044628.941592,125.48828125,-255.37109375,310.546875,-47.8515625,0.0
1741044628.945498,90.33203125,-272.4609375,283.69140625,-53.7109375,0.0
1741044628.9494038,94.7265625,-262.6953125,273.92578125,-61.03515625,0.0
1741044628.9533098,126.953125,-255.37109375,262.6953125,-62.01171875,0.0
1741044628.9572158,125.48828125,-253.41796875,232.91015625,-49.31640625,0.0
1741044628.9611218,109.86328125,-239.74609375,223.6328125,-30.2734375,0.0
1741044628.9650276,102.05078125,-249.0234375,215.8203125,-15.13671875,0.0
1741044628.9689336,124.51171875,-262.6953125,204.58984375,-16.11328125,0.0
1741044628.9728396,132.32421875,-236.328125,190.91796875,-45.8984375,0.0
1741044628.9767456,109.375,-224.609375,171.38671875,-48.33984375,0.0
1741044628.9806514,102.05078125,-236.81640625,173.33984375,-22.94921875,0.0
1741044628.9845574,107.91015625,-241.2109375,161.62109375,-25.390625,0.0
1741044628.988464,117.1875,-240.72265625,154.296875,-21.484375,0.0
1741044628.9923701,96.19140625,-237.79296875,144.53125,-13.18359375,0.0
1741044628.9962761,84.47265625,-230.95703125,141.11328125,-5.37109375,0.0
1741044629.0001822,103.02734375,-204.58984375,143.06640625,4.8828125,0.0
1741044629.004088,103.515625,-198.2421875,119.62890625,-10.25390625,0.0
1741044629.007994,85.44921875,-213.37890625,103.515625,-22.4609375,0.0
1741044629.0119,68.84765625,-226.5625,94.7265625,-20.99609375,0.0
1741044629.015806,74.21875,-228.515625,85.9375,-23.4375,0.0
1741044629.0197117,90.8203125,-218.26171875,71.77734375,-16.6015625,0.0
1741044629.0236177,83.984375,-204.58984375,66.40625,-0.48828125,0.0
1741044629.0275238,57.12890625,-181.15234375,77.63671875,-5.37109375,0.0
1741044629.0314298,50.78125,-177.734375,81.0546875,-14.6484375,0.0
1741044629.0353374,65.4296875,-195.3125,63.96484375,-10.25390625,0.0
1741044629.0392435,65.4296875,-201.66015625,45.8984375,-12.20703125,0.0
1741044629.0431495,41.015625,-188.4765625,43.9453125,-10.25390625,0.0
1741044629.0470555,40.0390625,-189.94140625,43.9453125,-2.44140625,0.0
1741044629.0509613,65.4296875,-201.66015625,26.3671875,-11.71875,0.0
1741044629.0548673,69.82421875,-195.80078125,21.484375,-18.06640625,0.0
1741044629.0587733,51.26953125,-176.7578125,19.53125,-27.34375,0.0
1741044629.0626793,29.78515625,-170.8984375,4.39453125,-20.01953125,0.0
1741044629.066585,39.55078125,-162.59765625,15.625,-4.8828125,0.0
1741044629.070491,58.10546875,-158.203125,28.80859375,8.30078125,0.0
1741044629.074397,42.48046875,-151.85546875,20.5078125,7.32421875,0.0
1741044629.078303,35.64453125,-137.20703125,6.34765625,2.9296875,0.0
1741044629.0822108,37.109375,-133.7890625,-11.23046875,-9.27734375,0.0
1741044629.0861168,42.48046875,-141.11328125,-0.48828125,-19.53125,0.0
1741044629.0900226,47.8515625,-138.671875,2.44140625,-18.06640625,0.0
1741044629.0939286,24.90234375,-128.90625,-5.37109375,-20.01953125,0.0
1741044629.0978346,19.04296875,-123.046875,-9.765625,-15.625,0.0
1741044629.1017406,34.66796875,-126.46484375,-17.08984375,-21.484375,0.0
1741044629.1056464,32.2265625,-128.90625,-32.71484375,-18.5546875,0.0
1741044629.1095524,19.53125,-138.671875,-29.296875,-8.30078125,0.0
1741044629.1134584,13.18359375,-125.9765625,-19.53125,-13.18359375,0.0
1741044629.1173644,26.85546875,-106.4453125,-24.4140625,-16.11328125,0.0
1741044629.1212702,30.2734375,-106.93359375,-24.90234375,-12.20703125,0.0
1741044629.1251762,11.71875,-109.375,-31.25,-2.9296875,0.0
1741044629.1290836,-2.44140625,-103.02734375,-40.0390625,-1.46484375,0.0
1741044629.1329896,-6.34765625,-94.23828125,-31.73828125,-8.30078125,0.0
1741044629.1368957,-6.8359375,-93.75,-35.64453125,-17.08984375,0.0
1741044629.1408017,-22.4609375,-106.4453125,-41.50390625,-25.87890625,0.0
1741044629.1447074,-39.0625,-116.69921875,-44.43359375,-28.3203125,0.0
1741044629.1486135,-28.80859375,-102.05078125,-51.26953125,-24.4140625,0.0
1741044629.1525195,-15.625,-94.7265625,-51.26953125,-24.4140625,0.0
1741044629.1564255,-7.8125,-94.23828125,-64.94140625,-33.203125,0.0
1741044629.1603312,-25.390625,-95.21484375,-83.0078125,-27.83203125,0.0
1741044629.1642373,-46.38671875,-90.8203125,-65.4296875,-33.203125,0.0
1741044629.1681433,-34.1796875,-78.125,-54.6875,-56.15234375,0.0
1741044629.1720493,-18.06640625,-66.89453125,-55.6640625,-49.8046875,0.0
1741044629.1759565,-45.8984375,-66.89453125,-61.03515625,-50.78125,0.0
1741044629.1798625,-49.8046875,-56.15234375,-65.4296875,-53.22265625,0.0
1741044629.1837685,-31.73828125,-54.6875,-65.91796875,-54.6875,0.0
1741044629.1876745,-18.5546875,-75.68359375,-66.40625,-47.36328125,0.0
1741044629.1915803,-32.71484375,-85.9375,-71.77734375,-43.9453125,0.0
1741044629.1954863,-58.59375,-85.44921875,-75.68359375,-51.26953125,0.0
1741044629.1993923,-42.96875,-77.63671875,-70.80078125,-44.921875,0.0
1741044629.2032983,-17.578125,-67.3828125,-80.56640625,-55.6640625,0.0
1741044629.207204,-2.9296875,-58.59375,-98.6328125,-50.29296875,0.0
1741044629.21111,-5.859375,-62.01171875,-90.8203125,-30.76171875,0.0
1741044629.2150161,-23.4375,-72.265625,-67.87109375,-45.8984375,0.0
1741044629.2189221,-20.5078125,-67.3828125,-65.4296875,-47.36328125,0.0
1741044629.2228293,-26.85546875,-76.66015625,-64.94140625,-40.0390625,0.0
1741044629.226735,-53.22265625,-76.66015625,-62.5,-47.8515625,0.0
1741044629.2306411,-65.4296875,-66.89453125,-71.77734375,-59.5703125,0.0
1741044629.2345471,-51.26953125,-62.98828125,-67.87109375,-61.5234375,0.0
1741044629.2384531,-45.8984375,-69.3359375,-54.19921875,-61.5234375,0.0
1741044629.242359,-68.359375,-77.1484375,-56.15234375,-63.96484375,0.0
1741044629.246265,-90.8203125,-65.91796875,-63.96484375,-62.01171875,0.0
1741044629.250171,-93.75,-76.66015625,-48.828125,-68.84765625,0.0
1741044629.254077,-92.7734375,-92.28515625,-34.66796875,-78.125,0.0
1741044629.2579827,-98.6328125,-61.5234375,-46.38671875,-76.171875,0.0
1741044629.2618887,-120.1171875,-46.875,-42.96875,-77.63671875,0.0
1741044629.2657948,-122.55859375,-62.01171875,-41.50390625,-79.1015625,0.0
1741044629.269702,0.0,-83.49609375,-22.94921875,-65.4296875,0.0
1741044629.273608,0.0,-83.49609375,-30.2734375,-85.9375,0.0
1741044629.2775137,0.0,-61.03515625,-51.7578125,-114.74609375,0.0
1741044629.2814198,0.0,-53.22265625,-42.48046875,-100.5859375,0.0
1741044629.2853258,0.0,-64.453125,-58.10546875,-91.796875,0.0
1741044629.2892318,0.0,-69.3359375,-63.96484375,-83.0078125,0.0
1741044629.2931376,0.0,-66.40625,-16.6015625,-65.91796875,0.0
1741044629.2970436,0.0,-85.9375,8.7890625,-58.59375,0.0
1741044629.3009496,0.0,-57.12890625,7.8125,-45.8984375,0.0
1741044629.3048556,0.0,-53.7109375,10.25390625,-34.66796875,0.0
1741044629.3087614,0.0,-70.80078125,2.9296875,-32.71484375,0.0
1741044629.3126674,0.0,-75.68359375,-2.44140625,-36.62109375,0.0
1741044629.3165743,-73.73046875,-92.28515625,-6.8359375,-36.62109375,0.0
1741044629.3204803,-50.29296875,-83.0078125,-9.765625,-36.1328125,0.0
1741044629.3243864,-37.109375,-83.984375,-12.6953125,-24.90234375,0.0
1741044629.3282921,-60.05859375,-78.61328125,-3.90625,-18.06640625,0.0
1741044629.3321981,-47.36328125,-58.10546875,7.8125,-5.859375,0.0
1741044629.3361042,-21.484375,-58.10546875,-1.46484375,6.34765625,0.0
1741044629.3400102,-30.76171875,-80.56640625,-1.953125,1.46484375,0.0
1741044629.343916,-41.9921875,-90.8203125,10.25390625,11.23046875,0.0
1741044629.347822,-54.19921875,-101.5625,-5.859375,9.27734375,0.0
1741044629.351728,-34.66796875,-102.05078125,-27.34375,6.8359375,0.0
1741044629.355634,-26.3671875,-62.01171875,-16.11328125,2.9296875,0.0
1741044629.3595397,-32.71484375,-35.64453125,-7.32421875,7.32421875,0.0
1741044629.3634465,-32.2265625,-43.45703125,-12.20703125,20.5078125,0.0
1741044629.3673525,-6.8359375,-45.41015625,-19.04296875,33.203125,0.0
1741044629.3712585,10.25390625,-58.10546875,-17.578125,39.55078125,0.0
1741044629.3751645,1.953125,-82.51953125,-15.625,52.734375,0.0
1741044629.3790705,-10.7421875,-59.08203125,-35.64453125,45.41015625,0.0
1741044629.3829763,0.48828125,-68.84765625,-55.6640625,28.3203125,0.0
1741044629.3868823,22.94921875,-82.03125,-52.24609375,24.90234375,0.0
1741044629.3907883,18.06640625,-54.19921875,-54.6875,33.69140625,0.0
1741044629.3946943,2.44140625,-50.78125,-66.40625,37.59765625,0.0
1741044629.3986,18.06640625,-49.31640625,-61.5234375,42.96875,0.0
1741044629.402506,53.22265625,-31.73828125,-56.640625,51.7578125,0.0
1741044629.4064121,46.38671875,-30.2734375,-66.40625,44.921875,0.0
1741044629.41032,29.296875,-46.875,-69.82421875,39.0625,0.0
1741044629.4142258,35.64453125,-41.50390625,-71.2890625,41.9921875,0.0
1741044629.4181318,43.45703125,-31.73828125,-63.96484375,35.64453125,0.0
1741044629.4220378,53.22265625,-36.1328125,-63.4765625,27.34375,0.0
1741044629.4259439,51.26953125,-37.59765625,-69.3359375,24.90234375,0.0
1741044629.4298496,39.55078125,-39.55078125,-71.77734375,37.59765625,0.0
1741044629.4337556,45.8984375,-46.38671875,-91.796875,34.1796875,0.0
1741044629.4376616,50.29296875,-36.62109375,-86.9140625,20.5078125,0.0
1741044629.4415677,37.109375,-27.83203125,-77.63671875,17.08984375,0.0
1741044629.4454734,21.484375,-25.390625,-87.890625,16.11328125,0.0
1741044629.4493794,44.43359375,-22.94921875,-90.33203125,21.97265625,0.0
1741044629.4532855,64.94140625,-21.484375,-91.30859375,26.85546875,0.0
1741044629.4571931,45.41015625,-35.15625,-89.84375,13.18359375,0.0
1741044629.4610991,19.53125,-28.80859375,-84.47265625,14.6484375,0.0
1741044629.465005,19.04296875,-9.27734375,-86.42578125,32.2265625,0.0
1741044629.468911,36.62109375,-17.578125,-99.12109375,30.2734375,0.0
1741044629.472817,37.109375,-33.69140625,-100.5859375,34.66796875,0.0
1741044629.476723,34.66796875,-40.0390625,-99.12109375,44.43359375,0.0
1741044629.4806287,31.25,-46.38671875,-93.75,37.59765625,0.0
1741044629.4845347,29.296875,-26.85546875,-93.26171875,25.87890625,0.0
1741044629.4884408,25.390625,-21.484375,-112.79296875,32.2265625,0.0
1741044629.4923468,8.7890625,-21.97265625,-109.375,29.296875,0.0
1741044629.4962525,0.0,-17.578125,-85.9375,16.6015625,0.0
1741044629.5001585,22.4609375,-34.1796875,-80.56640625,26.3671875,0.0
1741044629.5040662,39.55078125,-42.48046875,-81.0546875,32.2265625,0.0
1741044629.507972,22.94921875,-23.92578125,-97.16796875,21.97265625,0.0
1741044629.511878,3.41796875,-17.578125,-93.26171875,18.06640625,0.0
1741044629.515784,5.859375,-34.1796875,-88.8671875,8.7890625,0.0
1741044629.51969,19.04296875,-21.484375,-99.12109375,5.37109375,0.0
1741044629.5235958,6.8359375,-22.4609375,-99.12109375,0.48828125,0.0
1741044629.5275018,-6.8359375,-29.78515625,-87.40234375,-6.8359375,0.0
1741044629.5314078,-2.44140625,-17.578125,-90.33203125,-15.13671875,0.0
1741044629.5353138,9.765625,-33.69140625,-111.81640625,-9.27734375,0.0
1741044629.5392196,10.7421875,-22.4609375,-100.5859375,-5.859375,0.0
1741044629.5431256,8.30078125,-11.71875,-83.49609375,-2.44140625,0.0
1741044629.5470316,-0.48828125,-36.1328125,-94.7265625,-3.90625,0.0
1741044629.550939,-3.41796875,-31.73828125,-96.6796875,-12.6953125,0.0
1741044629.554845,0.9765625,-17.578125,-94.7265625,-8.7890625,0.0
1741044629.5587509,3.41796875,-18.5546875,-95.703125,-7.8125,0.0
1741044629.5626569,1.953125,-19.04296875,-92.28515625,-7.32421875,0.0
1741044629.566563,1.953125,-23.92578125,-99.609375,-2.9296875,0.0
1741044629.570469,17.08984375,-37.109375,-109.375,0.9765625,0.0
1741044629.5743747,10.25390625,-20.01953125,-106.93359375,7.8125,0.0
1741044629.5782807,-11.71875,-6.34765625,-90.33203125,6.8359375,0.0
1741044629.5821867,-14.16015625,-6.8359375,-97.16796875,-4.8828125,0.0
1741044629.5860927,-2.44140625,-10.25390625,-108.3984375,-19.53125,0.0
1741044629.5899985,-2.9296875,-18.06640625,-100.09765625,-11.71875,0.0
1741044629.5939045,-17.08984375,-8.7890625,-91.30859375,-6.34765625,0.0
1741044629.597812,0.0,-9.765625,-92.28515625,-12.20703125,0.0
1741044629.6017177,0.0,-20.01953125,-92.7734375,-8.30078125,0.0
1741044629.6056237,0.0,-15.625,-88.37890625,-7.8125,0.0
1741044629.6095297,0.0,-19.04296875,-97.65625,3.41796875,0.0
1741044629.6134357,0.0,-28.80859375,-96.6796875,5.37109375,0.0
1741044629.6173415,0.0,-27.34375,-81.0546875,0.0,0.0
1741044629.6212475,0.0,-1.953125,-80.078125,3.41796875,0.0
1741044629.6251535,0.0,-17.578125,-105.46875,-0.48828125,0.0
1741044629.6290596,0.0,-31.25,-99.12109375,-8.30078125,0.0
1741044629.6329653,0.0,-5.859375,-71.2890625,-7.32421875,0.0
1741044629.6368713,0.0,-3.90625,-73.73046875,0.0,0.0
1741044629.6407773,0.0,-19.53125,-83.49609375,-3.41796875,0.0
1741044629.6446846,-27.83203125,-9.27734375,-82.03125,-6.8359375,0.0
1741044629.6485903,-18.5546875,-7.32421875,-83.49609375,0.48828125,0.0
1741044629.6524963,-10.25390625,-16.11328125,-86.9140625,-1.46484375,0.0
1741044629.6564023,-13.671875,-6.34765625,-74.70703125,-8.7890625,0.0
1741044629.6603084,-23.4375,-20.5078125,-76.66015625,-17.578125,0.0
1741044629.6642141,-36.1328125,-33.203125,-81.0546875,-19.53125,0.0
1741044629.6681201,-22.4609375,-25.87890625,-85.9375,-8.7890625,0.0
1741044629.6720262,-6.34765625,-24.4140625,-97.65625,-8.30078125,0.0
1741044629.6759322,-17.578125,-16.6015625,-84.9609375,-6.34765625,0.0
1741044629.6798382,-29.296875,-19.53125,-85.44921875,-20.99609375,0.0
1741044629.683744,-12.20703125,-12.6953125,-83.984375,-13.18359375,0.0
1741044629.68765,-10.7421875,-23.92578125,-87.890625,-11.71875,0.0
1741044629.691557,-20.99609375,-26.85546875,-95.21484375,-31.25,0.0
1741044629.695463,-32.71484375,-12.20703125,-89.35546875,-26.3671875,0.0
1741044629.6993687,-25.87890625,-16.6015625,-101.5625,-20.99609375,0.0
1741044629.7032747,-6.34765625,-9.27734375,-98.14453125,-24.4140625,0.0
1741044629.7071807,-9.27734375,-13.671875,-72.265625,-22.94921875,0.0
1741044629.7110868,-39.0625,-22.94921875,-80.078125,-16.6015625,0.0
1741044629.7149925,-26.85546875,-26.3671875,-88.37890625,-9.27734375,0.0
1741044629.7188985,-4.8828125,-28.80859375,-87.40234375,-17.08984375,0.0
1741044629.7228045,-13.18359375,-11.23046875,-85.44921875,-20.01953125,0.0
1741044629.7267106,-25.390625,-11.23046875,-82.03125,-15.13671875,0.0
1741044629.7306163,-26.3671875,-27.83203125,-92.7734375,-18.06640625,0.0
1741044629.7345223,-13.671875,-12.20703125,-92.7734375,-17.578125,0.0
1741044629.738429,-1.46484375,-11.23046875,-83.49609375,-14.16015625,0.0
1741044629.742335,-12.6953125,-32.2265625,-74.21875,-13.18359375,0.0
1741044629.746241,-16.6015625,-13.18359375,-68.359375,0.0,0.0
1741044629.750147,-5.859375,0.48828125,-81.0546875,3.41796875,0.0
1741044629.7540529,-10.25390625,-6.8359375,-77.63671875,-13.671875,0.0
1741044629.757959,-19.04296875,-0.48828125,-74.21875,-10.7421875,0.0
