timestamps,TP9,AF7,AF8,TP10,Right AUX
1741086230.987875,-84.47265625,-27.83203125,-62.5,-59.08203125,0.0
1741086230.9917798,23.92578125,-30.76171875,-47.8515625,-16.11328125,0.0
1741086230.9956849,35.15625,-42.96875,-34.1796875,-6.8359375,0.0
1741086230.99959,-56.15234375,-51.7578125,-42.48046875,-49.8046875,0.0
1741086231.003495,-88.8671875,-52.24609375,-48.828125,-67.87109375,0.0
1741086231.0074,-12.20703125,-46.38671875,-45.41015625,-21.97265625,0.0
1741086231.011305,13.18359375,-29.78515625,-31.25,10.25390625,0.0
1741086231.01521,-75.1953125,-36.62109375,-45.8984375,-21.484375,0.0
1741086231.019115,-101.07421875,-50.29296875,-54.19921875,-46.38671875,0.0
1741086231.02302,-15.13671875,-30.2734375,-38.57421875,-28.3203125,0.0
1741086231.026925,25.390625,-21.97265625,-39.0625,2.9296875,0.0
1741086231.0308301,-40.0390625,-35.15625,-38.57421875,-21.97265625,0.0
1741086231.0347486,-100.09765625,-43.9453125,-44.921875,-67.87109375,0.0
1741086231.0386536,-50.78125,-28.80859375,-50.78125,-34.66796875,0.0
1741086231.0425587,52.734375,-21.484375,-42.96875,31.25,0.0
1741086231.0464637,37.59765625,-30.2734375,-33.69140625,6.8359375,0.0
1741086231.0503688,-70.80078125,-45.41015625,-43.9453125,-60.05859375,0.0
1741086231.0542738,-81.0546875,-63.96484375,-53.7109375,-48.828125,0.0
1741086231.0581787,12.6953125,-49.8046875,-45.8984375,-0.9765625,0.0
1741086231.0620837,46.38671875,-20.99609375,-35.15625,17.578125,0.0
1741086231.0659888,-46.38671875,-41.015625,-53.7109375,-32.71484375,0.0
1741086231.0698938,-82.51953125,-53.22265625,-62.5,-64.453125,0.0
1741086231.073799,5.859375,-36.1328125,-53.22265625,-11.71875,0.0
1741086231.077704,49.31640625,-40.52734375,-45.41015625,20.99609375,0.0
1741086231.0816221,-24.4140625,-32.2265625,-54.6875,-29.296875,0.0
1741086231.0855272,-93.75,-32.71484375,-60.546875,-60.05859375,0.0
1741086231.0894322,-50.29296875,-47.36328125,-51.7578125,-26.85546875,0.0
1741086231.0933373,5.859375,-45.41015625,-52.734375,3.41796875,0.0
1741086231.0972424,-30.2734375,-35.15625,-47.36328125,-20.5078125,0.0
1741086231.1011474,-95.21484375,-26.3671875,-41.9921875,-63.4765625,0.0
1741086231.1050525,-57.12890625,-37.59765625,-48.33984375,-50.29296875,0.0
1741086231.1089573,39.0625,-43.9453125,-51.26953125,-7.32421875,0.0
1741086231.1128623,4.8828125,-31.73828125,-53.22265625,-25.87890625,0.0
1741086231.1167674,-90.33203125,-40.52734375,-47.8515625,-76.66015625,0.0
1741086231.1206725,-64.94140625,-56.640625,-53.22265625,-68.84765625,0.0
1741086231.1245775,21.97265625,-46.875,-75.1953125,-34.1796875,0.0
1741086231.1284957,26.85546875,-43.45703125,-50.29296875,-26.85546875,0.0
1741086231.1324008,-77.1484375,-56.640625,-36.1328125,-61.5234375,0.0
1741086231.1363058,-120.1171875,-50.78125,-41.015625,-76.66015625,0.0
1741086231.1402109,-30.76171875,-29.296875,-36.1328125,-35.64453125,0.0
1741086231.1441157,30.76171875,-23.92578125,-45.8984375,-9.27734375,0.0
1741086231.1480207,-61.03515625,-47.8515625,-70.3125,-64.453125,0.0
1741086231.1519258,-124.0234375,-58.10546875,-72.75390625,-100.09765625,0.0
1741086231.1558309,-52.734375,-51.7578125,-47.36328125,-51.7578125,0.0
1741086231.159736,-0.9765625,-40.52734375,-44.921875,-18.06640625,0.0
1741086231.163641,-47.8515625,-28.3203125,-53.7109375,-35.15625,0.0
1741086231.1675458,-100.09765625,-44.921875,-50.78125,-70.3125,0.0
1741086231.1714509,-69.3359375,-60.05859375,-52.734375,-52.734375,0.0
1741086231.175369,-3.41796875,-54.19921875,-52.24609375,-7.8125,0.0
1741086231.179274,-8.7890625,-45.8984375,-40.0390625,-13.18359375,0.0
1741086231.183179,-78.61328125,-46.38671875,-42.48046875,-56.15234375,0.0
1741086231.187084,-75.68359375,-37.109375,-50.78125,-56.15234375,0.0
1741086231.190989,14.6484375,-22.94921875,-46.875,-0.48828125,0.0
1741086231.194894,19.53125,-36.1328125,-46.38671875,4.8828125,0.0
1741086231.1987991,-79.1015625,-62.01171875,-55.6640625,-32.71484375,0.0
1741086231.2027042,-105.95703125,-54.6875,-49.8046875,-45.8984375,0.0
1741086231.206609,-5.37109375,-44.43359375,-49.31640625,-13.671875,0.0
1741086231.210514,61.5234375,-39.0625,-45.41015625,9.765625,0.0
1741086231.2144191,-31.25,-45.8984375,-39.55078125,-24.4140625,0.0
1741086231.2183242,-116.69921875,-59.08203125,-60.05859375,-59.5703125,0.0
1741086231.222242,-41.9921875,-44.921875,-68.359375,-35.64453125,0.0
1741086231.226147,42.96875,-39.55078125,-55.6640625,0.48828125,0.0
1741086231.230052,-25.87890625,-50.78125,-55.6640625,-30.2734375,0.0
1741086231.233957,-100.09765625,-43.9453125,-44.43359375,-73.2421875,0.0
1741086231.237862,-64.94140625,-55.17578125,-36.1328125,-59.08203125,0.0
1741086231.2417672,2.9296875,-64.94140625,-51.26953125,-15.13671875,0.0
1741086231.2456722,10.7421875,-34.1796875,-57.12890625,-23.92578125,0.0
1741086231.249577,-57.12890625,-29.78515625,-49.31640625,-79.58984375,0.0
1741086231.253482,-76.171875,-54.19921875,-39.55078125,-79.58984375,0.0
1741086231.2573872,3.41796875,-32.71484375,-47.36328125,-23.4375,0.0
1741086231.2612922,41.50390625,-12.20703125,-69.82421875,-10.25390625,0.0
1741086231.2651973,-38.0859375,-32.2265625,-61.03515625,-64.453125,0.0
1741086231.2691176,-95.703125,-41.9921875,-50.78125,-77.1484375,0.0
1741086231.2730227,-22.94921875,-29.78515625,-45.8984375,-28.3203125,0.0
1741086231.2769277,33.69140625,-29.78515625,-46.38671875,2.44140625,0.0
1741086231.2808325,-33.203125,-30.76171875,-47.36328125,-22.4609375,0.0
1741086231.2847376,-125.48828125,-39.55078125,-61.03515625,-83.49609375,0.0
1741086231.2886426,-69.82421875,-50.78125,-59.5703125,-63.96484375,0.0
1741086231.2925477,21.484375,-34.66796875,-51.7578125,-10.7421875,0.0
1741086231.2964528,-2.9296875,-41.50390625,-63.96484375,-27.83203125,0.0
1741086231.3003578,-76.66015625,-63.4765625,-48.33984375,-66.40625,0.0
1741086231.3042626,-66.89453125,-63.96484375,-36.62109375,-50.78125,0.0
1741086231.3081677,-1.46484375,-46.875,-44.43359375,-13.671875,0.0
1741086231.3120728,-0.48828125,-23.4375,-45.8984375,-1.953125,0.0
1741086231.3159916,0.0,-34.66796875,-45.41015625,-52.24609375,0.0
1741086231.3198967,0.0,-50.78125,-57.12890625,-76.66015625,0.0
1741086231.3238018,0.0,-37.109375,-59.5703125,-27.34375,0.0
1741086231.3277068,0.0,-24.4140625,-43.9453125,-5.859375,0.0
1741086231.3316119,0.0,-29.296875,-43.45703125,-36.1328125,0.0
1741086231.335517,0.0,-40.0390625,-65.91796875,-56.15234375,0.0
1741086231.3394217,0.0,-25.390625,-61.03515625,-26.3671875,0.0
1741086231.3433268,0.0,-10.7421875,-30.76171875,16.6015625,0.0
1741086231.3472319,0.0,-38.57421875,-41.015625,-12.20703125,0.0
1741086231.351137,0.0,-55.6640625,-60.546875,-71.2890625,0.0
1741086231.355042,0.0,-40.0390625,-51.26953125,-54.19921875,0.0
1741086231.358947,0.0,-48.33984375,-59.5703125,-6.8359375,0.0
1741086231.362862,-84.9609375,-61.03515625,-56.640625,-6.34765625,0.0
1741086231.3667672,-114.2578125,-48.828125,-54.19921875,-69.3359375,0.0
1741086231.3706722,-8.30078125,-41.015625,-63.4765625,-80.56640625,0.0
1741086231.3745773,51.7578125,-49.8046875,-66.40625,-16.6015625,0.0
1741086231.3784823,-18.5546875,-45.41015625,-55.17578125,10.7421875,0.0
1741086231.3823874,-84.9609375,-35.64453125,-54.6875,-46.38671875,0.0
1741086231.3862922,-23.92578125,-30.2734375,-59.08203125,-103.02734375,0.0
1741086231.3901973,48.33984375,-36.1328125,-54.6875,-58.59375,0.0
1741086231.3941023,-3.41796875,-42.96875,-52.734375,17.08984375,0.0
1741086231.3980074,-102.05078125,-42.96875,-61.03515625,-16.6015625,0.0
1741086231.4019125,-57.6171875,-48.828125,-57.6171875,-57.12890625,0.0
1741086231.4058175,37.59765625,-50.29296875,-50.29296875,-32.71484375,0.0
1741086231.409736,42.96875,-48.828125,-57.12890625,2.9296875,0.0
1741086231.413641,17.08984375,-43.9453125,-51.26953125,-0.48828125,0.0
1741086231.417546,-55.17578125,-50.78125,-55.17578125,-43.45703125,0.0
1741086231.4214509,-41.9921875,-64.94140625,-65.91796875,-34.66796875,0.0
1741086231.425356,35.64453125,-51.7578125,-68.84765625,22.4609375,0.0
1741086231.429261,41.015625,-48.33984375,-66.89453125,33.203125,0.0
1741086231.433166,-43.45703125,-62.01171875,-71.77734375,-26.85546875,0.0
1741086231.437071,-37.59765625,-59.08203125,-74.21875,-42.48046875,0.0
1741086231.4409761,69.82421875,-47.36328125,-64.94140625,17.578125,0.0
1741086231.444881,63.4765625,-41.9921875,-63.4765625,27.34375,0.0
1741086231.448786,-46.875,-50.78125,-69.82421875,-15.13671875,0.0
1741086231.452691,-80.078125,-56.15234375,-72.75390625,-28.3203125,0.0
1741086231.4566095,-20.5078125,-45.8984375,-67.3828125,11.23046875,0.0
1741086231.4605145,36.1328125,-31.25,-57.12890625,36.1328125,0.0
1741086231.4644196,-10.7421875,-47.8515625,-42.48046875,-1.46484375,0.0
1741086231.4683244,-80.078125,-65.91796875,-52.24609375,-43.45703125,0.0
1741086231.4722295,-20.5078125,-47.8515625,-59.5703125,-16.6015625,0.0
1741086231.4761345,58.59375,-45.41015625,-58.10546875,16.11328125,0.0
1741086231.4800396,18.5546875,-62.98828125,-63.96484375,-0.9765625,0.0
1741086231.4839447,-43.45703125,-66.89453125,-63.4765625,-27.34375,0.0
1741086231.4878497,-15.625,-48.33984375,-56.640625,-9.27734375,0.0
1741086231.4917545,49.31640625,-30.76171875,-48.33984375,37.59765625,0.0
1741086231.4956596,46.875,-36.62109375,-46.38671875,33.69140625,0.0
1741086231.4995646,-44.43359375,-48.33984375,-48.828125,-16.11328125,0.0
1741086231.503483,-90.8203125,-52.734375,-47.36328125,-27.83203125,0.0
1741086231.5073879,20.01953125,-41.015625,-42.48046875,24.4140625,0.0
1741086231.511293,69.3359375,-36.62109375,-46.875,44.921875,0.0
1741086231.515198,-16.11328125,-40.52734375,-50.78125,-5.859375,0.0
1741086231.519103,-60.05859375,-44.921875,-58.10546875,-31.25,0.0
1741086231.523008,9.27734375,-43.45703125,-54.6875,6.34765625,0.0
1741086231.5269132,62.01171875,-43.45703125,-41.9921875,34.1796875,0.0
1741086231.5308182,-15.13671875,-52.734375,-44.921875,-4.8828125,0.0
1741086231.534723,-96.6796875,-50.29296875,-62.01171875,-56.15234375,0.0
1741086231.538628,-34.66796875,-52.24609375,-50.78125,-22.4609375,0.0
1741086231.5425332,70.80078125,-40.0390625,-37.109375,34.1796875,0.0
1741086231.5464382,32.2265625,-34.1796875,-43.9453125,12.6953125,0.0
1741086231.5503576,-60.546875,-39.0625,-37.59765625,-37.59765625,0.0
1741086231.5542626,-51.26953125,-40.52734375,-40.52734375,-40.52734375,0.0
1741086231.5581677,25.390625,-41.50390625,-52.24609375,-1.953125,0.0
1741086231.5620725,30.76171875,-35.64453125,-46.38671875,1.46484375,0.0
1741086231.5659776,-70.80078125,-39.0625,-42.48046875,-47.8515625,0.0
1741086231.5698826,-97.65625,-47.36328125,-49.31640625,-65.4296875,0.0
1741086231.5737877,13.671875,-50.29296875,-44.921875,-10.25390625,0.0
1741086231.5776927,50.78125,-35.64453125,-44.43359375,14.16015625,0.0
1741086231.5815978,-35.64453125,-29.296875,-45.8984375,-26.85546875,0.0
1741086231.5855026,-83.0078125,-41.015625,-39.0625,-61.5234375,0.0
1741086231.5894077,-4.39453125,-45.41015625,-41.015625,-26.85546875,0.0
1741086231.5933127,67.87109375,-29.78515625,-41.9921875,15.13671875,0.0
1741086231.5972319,4.39453125,-30.2734375,-42.48046875,-15.13671875,0.0
1741086231.601137,-84.9609375,-47.8515625,-52.734375,-62.98828125,0.0
1741086231.605042,-45.8984375,-49.31640625,-57.6171875,-47.8515625,0.0
1741086231.608947,40.0390625,-41.50390625,-48.33984375,8.7890625,0.0
1741086231.612852,4.39453125,-33.69140625,-51.7578125,13.18359375,0.0
1741086231.6167572,-83.984375,-38.57421875,-52.734375,-29.296875,0.0
1741086231.620662,-62.01171875,-32.71484375,-38.0859375,-26.3671875,0.0
1741086231.624567,55.17578125,-20.99609375,-34.66796875,12.20703125,0.0
1741086231.628472,51.7578125,-39.55078125,-49.8046875,10.7421875,0.0
1741086231.6323771,-76.66015625,-62.98828125,-54.6875,-30.2734375,0.0
1741086231.6362822,-94.7265625,-52.24609375,-40.0390625,-47.8515625,0.0
1741086231.6401873,-18.06640625,-39.55078125,-39.55078125,-25.87890625,0.0
1741086231.6441064,0.0,-43.45703125,-60.546875,-6.34765625,0.0
1741086231.6480112,0.0,-50.78125,-62.01171875,-33.203125,0.0
1741086231.6519163,0.0,-59.5703125,-65.4296875,-76.66015625,0.0
1741086231.6558213,0.0,-51.26953125,-64.94140625,-56.640625,0.0
1741086231.6597264,0.0,-50.29296875,-58.59375,-8.7890625,0.0
1741086231.6636314,0.0,-76.66015625,-56.640625,-31.25,0.0
1741086231.6675365,0.0,-69.3359375,-43.45703125,-80.56640625,0.0
1741086231.6714413,0.0,-43.9453125,-50.29296875,-68.84765625,0.0
1741086231.6753464,0.0,-42.96875,-59.08203125,-16.11328125,0.0
1741086231.6792514,0.0,-57.12890625,-56.15234375,-13.671875,0.0
1741086231.6831565,0.0,-51.26953125,-51.7578125,-68.84765625,0.0
1741086231.6870615,0.0,-46.38671875,-49.31640625,-72.75390625,0.0
1741086231.6909769,16.6015625,-40.52734375,-36.62109375,-14.16015625,0.0
1741086231.694882,-55.17578125,-26.85546875,-31.25,10.7421875,0.0
1741086231.698787,-111.328125,-31.25,-43.9453125,-30.76171875,0.0
1741086231.7026918,-40.0390625,-48.33984375,-47.36328125,-54.19921875,0.0
1741086231.7065969,31.73828125,-48.828125,-54.19921875,-27.34375,0.0
1741086231.710502,-13.18359375,-40.52734375,-68.84765625,4.39453125,0.0
1741086231.714407,-99.12109375,-43.45703125,-68.84765625,-14.16015625,0.0
1741086231.718312,-66.40625,-52.24609375,-54.6875,-60.546875,0.0
1741086231.722217,18.06640625,-54.6875,-45.41015625,-43.9453125,0.0
1741086231.726122,-16.11328125,-38.0859375,-52.734375,-14.16015625,0.0
1741086231.730027,-112.3046875,-28.80859375,-51.26953125,-30.2734375,0.0
1741086231.733932,-116.2109375,-41.9921875,-50.29296875,-68.359375,0.0
1741086231.7378507,-50.29296875,-46.875,-73.73046875,-69.3359375,0.0
1741086231.7417557,67.87109375,-32.71484375,-62.98828125,-17.08984375,0.0
1741086231.7456608,47.8515625,-39.0625,-36.62109375,-5.37109375,0.0
1741086231.7495658,-80.078125,-60.05859375,-60.05859375,-63.96484375,0.0
1741086231.753471,-96.6796875,-51.26953125,-67.87109375,-79.58984375,0.0
1741086231.757376,-6.34765625,-35.15625,-40.52734375,-24.4140625,0.0
1741086231.7612808,16.11328125,-38.0859375,-37.59765625,-8.7890625,0.0
1741086231.7651858,-79.58984375,-53.22265625,-51.26953125,-61.5234375,0.0
1741086231.769091,-118.65234375,-65.4296875,-56.15234375,-83.984375,0.0
1741086231.772996,-35.15625,-42.48046875,-49.31640625,-25.87890625,0.0
1741086231.776901,38.0859375,-27.83203125,-44.43359375,4.8828125,0.0
1741086231.780806,-31.25,-45.41015625,-53.7109375,-20.01953125,0.0
1741086231.7847245,-116.2109375,-61.5234375,-53.7109375,-59.08203125,0.0
1741086231.7886295,-58.59375,-43.9453125,-37.109375,-37.59765625,0.0
1741086231.7925346,38.57421875,-26.85546875,-37.59765625,13.671875,0.0
1741086231.7964396,9.27734375,-41.9921875,-35.64453125,9.765625,0.0
1741086231.8003445,-87.40234375,-69.3359375,-38.0859375,-31.25,0.0
1741086231.8042495,-88.37890625,-63.4765625,-52.24609375,-47.36328125,0.0
1741086231.8081546,-11.71875,-18.06640625,-55.17578125,-15.13671875,0.0
1741086231.8120596,0.0,-23.92578125,-50.78125,-9.765625,0.0
1741086231.8159647,-70.80078125,-42.48046875,-51.7578125,-61.03515625,0.0
1741086231.8198698,-84.9609375,-23.92578125,-52.24609375,-80.56640625,0.0
1741086231.8237746,4.8828125,-18.5546875,-56.15234375,-30.76171875,0.0
1741086231.8276796,39.0625,-17.08984375,-57.12890625,0.0,0.0
1741086231.831598,-64.453125,-18.5546875,-58.59375,-41.015625,0.0
1741086231.835503,-115.234375,-20.5078125,-61.5234375,-73.73046875,0.0
1741086231.8394082,-22.94921875,-15.13671875,-46.875,-35.64453125,0.0
1741086231.8433132,40.52734375,-25.390625,-52.734375,-5.859375,0.0
1741086231.847218,-15.13671875,-37.109375,-79.58984375,-41.50390625,0.0
1741086231.851123,-79.58984375,-44.921875,-78.125,-79.1015625,0.0
1741086231.8550282,-34.66796875,-48.33984375,-76.66015625,-50.78125,0.0
1741086231.8589332,46.38671875,-43.45703125,-80.078125,-3.90625,0.0
1741086231.8628383,24.90234375,-30.76171875,-69.82421875,-10.7421875,0.0
1741086231.8667433,-64.94140625,-36.62109375,-59.08203125,-54.6875,0.0
1741086231.8706481,-63.96484375,-47.8515625,-45.8984375,-41.015625,0.0
1741086231.8745532,45.8984375,-38.57421875,-32.71484375,9.765625,0.0
1741086231.8784716,37.59765625,-48.828125,-42.96875,10.25390625,0.0
1741086231.8823764,-75.68359375,-71.77734375,-58.59375,-36.1328125,0.0
1741086231.8862815,-91.796875,-68.359375,-52.734375,-60.05859375,0.0
1741086231.8901865,-26.3671875,-54.6875,-38.57421875,-13.18359375,0.0
1741086231.8940916,-0.48828125,-41.50390625,-38.57421875,12.6953125,0.0
1741086231.8979967,-68.84765625,-41.50390625,-45.41015625,-40.52734375,0.0
1741086231.9019017,-131.34765625,-61.03515625,-59.5703125,-87.40234375,0.0
1741086231.9058065,-53.22265625,-52.24609375,-58.59375,-45.41015625,0.0
1741086231.9097116,33.203125,-49.8046875,-46.875,-4.8828125,0.0
1741086231.9136167,-11.23046875,-47.8515625,-52.24609375,-24.4140625,0.0
1741086231.9175217,-79.58984375,-26.85546875,-62.98828125,-63.96484375,0.0
1741086231.9214268,-59.08203125,-30.76171875,-75.1953125,-64.453125,0.0
1741086231.925345,29.296875,-37.109375,-68.359375,-7.8125,0.0
1741086231.92925,27.34375,-41.9921875,-55.17578125,-0.48828125,0.0
1741086231.9331548,-65.4296875,-50.78125,-54.6875,-41.9921875,0.0
1741086231.9370599,-80.078125,-44.921875,-53.7109375,-49.8046875,0.0
1741086231.940965,9.765625,-20.5078125,-57.6171875,-3.41796875,0.0
1741086231.94487,38.0859375,-25.390625,-67.87109375,6.8359375,0.0
1741086231.948775,-45.41015625,-42.48046875,-62.98828125,-26.85546875,0.0
1741086231.95268,-80.078125,-40.52734375,-55.6640625,-47.8515625,0.0
1741086231.9565852,-41.9921875,-38.0859375,-50.78125,-28.3203125,0.0
1741086231.96049,7.32421875,-33.69140625,-41.50390625,4.8828125,0.0
1741086231.964395,-52.24609375,-40.52734375,-59.5703125,-24.4140625,0.0
1741086231.9683,-125.0,-34.1796875,-63.4765625,-54.19921875,0.0
1741086231.972218,-49.31640625,-22.94921875,-41.50390625,-18.06640625,0.0
1741086231.976123,25.87890625,-42.96875,-41.50390625,9.27734375,0.0
1741086231.980028,-19.04296875,-48.33984375,-60.05859375,-10.25390625,0.0
1741086231.983933,-104.00390625,-45.8984375,-57.12890625,-50.29296875,0.0
1741086231.987838,-81.54296875,-40.0390625,-42.96875,-42.96875,0.0
1741086231.991743,33.203125,-42.48046875,-38.57421875,12.20703125,0.0
1741086231.9956481,39.0625,-50.78125,-41.50390625,16.6015625,0.0
1741086231.9995532,-63.4765625,-56.640625,-53.7109375,-33.203125,0.0
1741086232.003458,-70.80078125,-61.03515625,-41.50390625,-42.96875,0.0
1741086232.007363,7.32421875,-41.9921875,-31.73828125,17.578125,0.0
1741086232.0112681,15.625,-29.296875,-40.0390625,40.52734375,0.0
1741086232.0151732,-54.19921875,-33.203125,-41.015625,-13.671875,0.0
1741086232.019092,-80.56640625,-35.15625,-48.33984375,-49.31640625,0.0
1741086232.0229971,-6.34765625,-31.73828125,-58.59375,-23.92578125,0.0
1741086232.0269022,46.38671875,-36.62109375,-54.19921875,8.30078125,0.0
1741086232.0308073,-16.11328125,-40.52734375,-38.57421875,-27.34375,0.0
1741086232.0347123,-74.21875,-40.0390625,-36.62109375,-71.2890625,0.0
1741086232.0386174,-36.62109375,-59.5703125,-50.29296875,-55.17578125,0.0
1741086232.0425222,49.31640625,-42.48046875,-46.875,-31.73828125,0.0
1741086232.0464272,20.5078125,-19.53125,-43.9453125,-51.7578125,0.0
1741086232.0503323,-91.30859375,-38.57421875,-55.17578125,-95.703125,0.0
1741086232.0542374,-76.66015625,-50.78125,-52.734375,-92.28515625,0.0
1741086232.0581424,20.01953125,-54.19921875,-49.8046875,-44.921875,0.0
1741086232.0620475,16.6015625,-61.5234375,-73.2421875,-44.43359375,0.0
1741086232.0659664,-81.0546875,-57.12890625,-83.0078125,-99.12109375,0.0
1741086232.0698712,-116.69921875,-42.48046875,-57.12890625,-92.7734375,0.0
1741086232.0737762,-41.015625,-29.78515625,-46.875,-31.25,0.0
1741086232.0776813,6.34765625,-30.2734375,-56.640625,-11.23046875,0.0
1741086232.0815864,-75.68359375,-48.828125,-54.19921875,-68.84765625,0.0
1741086232.0854914,-145.01953125,-61.03515625,-57.12890625,-103.02734375,0.0
1741086232.0893965,-55.17578125,-51.7578125,-44.43359375,-48.828125,0.0
1741086232.0933015,4.39453125,-56.15234375,-35.15625,-23.92578125,0.0
1741086232.0972064,-62.01171875,-69.3359375,-47.36328125,-56.640625,0.0
1741086232.1011114,-139.6484375,-77.1484375,-67.87109375,-93.26171875,0.0
1741086232.1050165,-81.0546875,-61.5234375,-58.10546875,-73.73046875,0.0
1741086232.1089215,18.06640625,-41.50390625,-38.0859375,-24.90234375,0.0
1741086232.1128416,0.0,-43.45703125,-33.69140625,-30.2734375,0.0
1741086232.1167467,0.0,-50.78125,-39.0625,-70.80078125,0.0
1741086232.1206515,0.0,-64.453125,-43.9453125,-62.98828125,0.0
1741086232.1245565,0.0,-58.59375,-45.41015625,-21.484375,0.0
1741086232.1284616,0.0,-51.26953125,-68.359375,-12.20703125,0.0
1741086232.1323667,0.0,-38.57421875,-73.2421875,-54.19921875,0.0
1741086232.1362717,0.0,-23.92578125,-55.17578125,-71.2890625,0.0
1741086232.1401768,0.0,-30.2734375,-58.59375,-27.34375,0.0
1741086232.1440818,0.0,-28.80859375,-58.59375,-3.90625,0.0
1741086232.1479867,0.0,-25.390625,-40.0390625,-37.59765625,0.0
1741086232.1518917,0.0,-44.921875,-59.5703125,-79.1015625,0.0
1741086232.1557968,0.0,-30.2734375,-75.1953125,-54.6875,0.0
1741086232.1597152,41.9921875,-19.04296875,-51.26953125,-7.32421875,0.0
1741086232.1636202,-18.06640625,-29.296875,-45.8984375,-33.69140625,0.0
1741086232.1675253,-104.4921875,-20.99609375,-66.89453125,-84.9609375,0.0
1741086232.1714303,-54.19921875,-16.6015625,-74.21875,-56.640625,0.0
1741086232.1753354,23.92578125,-13.18359375,-60.546875,-5.37109375,0.0
1741086232.1792405,-0.48828125,-16.11328125,-46.875,-19.53125,0.0
1741086232.1831453,-83.49609375,-31.25,-38.57421875,-69.82421875,0.0
1741086232.1870503,-82.03125,-33.203125,-38.0859375,-63.96484375,0.0
1741086232.1909554,6.34765625,-33.69140625,-43.45703125,-15.13671875,0.0
1741086232.1948605,5.37109375,-35.64453125,-53.22265625,-1.46484375,0.0
1741086232.1987655,-65.91796875,-17.578125,-37.59765625,-38.0859375,0.0
1741086232.2026706,-91.30859375,-26.85546875,-43.45703125,-59.08203125,0.0
1741086232.206589,-27.83203125,-46.38671875,-63.4765625,-31.25,0.0
1741086232.2104938,33.203125,-29.78515625,-50.29296875,-10.7421875,0.0
1741086232.2143989,-39.0625,-33.69140625,-48.828125,-49.31640625,0.0
1741086232.218304,-111.81640625,-59.5703125,-37.59765625,-88.37890625,0.0
1741086232.222209,-49.8046875,-38.57421875,-33.69140625,-59.5703125,0.0
1741086232.226114,18.5546875,-18.06640625,-47.36328125,-6.34765625,0.0
1741086232.230019,-26.3671875,-36.62109375,-50.78125,-28.80859375,0.0
1741086232.233924,-98.6328125,-53.22265625,-58.59375,-80.56640625,0.0
1741086232.237829,-68.84765625,-48.33984375,-49.31640625,-60.05859375,0.0
1741086232.241734,25.390625,-39.55078125,-36.1328125,-3.90625,0.0
1741086232.245639,13.18359375,-26.85546875,-47.8515625,-16.6015625,0.0
1741086232.2495441,-92.7734375,-40.0390625,-60.546875,-81.54296875,0.0
1741086232.2534623,-120.60546875,-53.7109375,-55.6640625,-97.16796875,0.0
1741086232.2573674,-14.6484375,-42.96875,-48.828125,-46.38671875,0.0
1741086232.2612724,22.94921875,-28.3203125,-50.78125,-19.04296875,0.0
1741086232.2651775,-74.21875,-23.92578125,-50.78125,-51.26953125,0.0
1741086232.2690825,-120.60546875,-42.96875,-59.08203125,-75.1953125,0.0
1741086232.2729874,-32.2265625,-49.31640625,-50.78125,-46.875,0.0
1741086232.2768924,62.5,-27.83203125,-39.55078125,8.30078125,0.0
1741086232.2807975,-6.34765625,-28.80859375,-55.6640625,-15.13671875,0.0
1741086232.2847025,-102.05078125,-37.109375,-64.453125,-71.2890625,0.0
1741086232.2886076,-30.2734375,-33.69140625,-71.2890625,-40.0390625,0.0
1741086232.2925127,55.17578125,-42.96875,-58.10546875,4.39453125,0.0
1741086232.2964175,9.765625,-66.40625,-52.734375,-0.9765625,0.0
1741086232.3003356,-83.0078125,-68.84765625,-66.40625,-39.55078125,0.0
1741086232.3042407,-60.05859375,-40.0390625,-39.55078125,-38.57421875,0.0
1741086232.3081458,42.48046875,-31.73828125,-24.90234375,22.4609375,0.0
1741086232.3120508,49.8046875,-34.1796875,-36.62109375,40.0390625,0.0
1741086232.3159559,-43.45703125,-50.29296875,-40.0390625,-11.23046875,0.0
1741086232.3198607,-58.59375,-59.5703125,-36.62109375,-14.6484375,0.0
1741086232.3237658,31.73828125,-43.45703125,-32.2265625,33.203125,0.0
1741086232.3276708,48.828125,-35.15625,-50.29296875,31.25,0.0
1741086232.3315759,-31.25,-54.19921875,-73.73046875,-19.53125,0.0
1741086232.335481,-80.56640625,-60.05859375,-60.05859375,-43.45703125,0.0
1741086232.339386,-2.9296875,-39.0625,-40.0390625,-1.46484375,0.0
1741086232.3432908,83.984375,-19.04296875,-23.4375,43.45703125,0.0
1741086232.3472087,26.85546875,-32.71484375,-46.875,7.32421875,0.0
1741086232.3511138,-77.63671875,-58.10546875,-66.40625,-55.17578125,0.0
1741086232.3550189,-33.69140625,-38.57421875,-23.92578125,-34.66796875,0.0
1741086232.358924,57.6171875,-18.06640625,-14.16015625,21.484375,0.0
1741086232.3628287,9.765625,-27.83203125,-45.41015625,-11.23046875,0.0
1741086232.3667338,-97.16796875,-49.8046875,-58.59375,-77.1484375,0.0
1741086232.3706388,-67.3828125,-38.57421875,-52.734375,-61.03515625,0.0
1741086232.374544,33.203125,-13.18359375,-57.6171875,-10.25390625,0.0
1741086232.378449,24.4140625,-18.06640625,-59.08203125,-11.23046875,0.0
1741086232.382354,-83.49609375,-22.94921875,-57.12890625,-54.6875,0.0
1741086232.386259,-118.1640625,-36.62109375,-72.265625,-96.19140625,0.0
1741086232.390164,-20.99609375,-31.73828125,-59.5703125,-34.1796875,0.0
1741086232.394083,23.92578125,-23.92578125,-32.2265625,18.06640625,0.0
1741086232.397988,-56.640625,-46.38671875,-56.640625,-46.875,0.0
1741086232.4018931,-112.79296875,-41.9921875,-77.63671875,-92.28515625,0.0
1741086232.405798,-53.22265625,-46.38671875,-52.24609375,-49.8046875,0.0
1741086232.409703,12.20703125,-47.36328125,-52.734375,-9.27734375,0.0
1741086232.413608,-32.71484375,-32.2265625,-50.29296875,-20.99609375,0.0
1741086232.4175131,-135.7421875,-50.29296875,-59.08203125,-69.82421875,0.0
1741086232.4214182,-75.1953125,-43.45703125,-55.17578125,-64.94140625,0.0
1741086232.4253232,56.15234375,-17.578125,-19.04296875,-4.8828125,0.0
1741086232.429228,24.4140625,-27.83203125,-16.6015625,11.23046875,0.0
1741086232.4331331,-86.9140625,-53.22265625,-61.5234375,-42.48046875,0.0
1741086232.4370382,-84.47265625,-55.6640625,-76.66015625,-50.29296875,0.0
1741086232.440957,16.11328125,-63.96484375,-78.61328125,8.7890625,0.0
1741086232.4448621,46.875,-56.640625,-86.9140625,26.3671875,0.0
1741086232.4487672,-45.8984375,-48.33984375,-47.36328125,-20.5078125,0.0
1741086232.4526722,-92.7734375,-29.78515625,1.953125,-57.12890625,0.0
1741086232.4565773,-7.8125,-0.48828125,-8.30078125,-17.578125,0.0
1741086232.4604821,52.734375,-16.11328125,-18.06640625,29.296875,0.0
1741086232.4643872,-2.9296875,-41.50390625,-10.7421875,17.578125,0.0
1741086232.4682922,-42.96875,-65.91796875,-47.8515625,-18.5546875,0.0
1741086232.4721973,12.6953125,-99.12109375,-97.16796875,20.01953125,0.0
1741086232.4761024,110.3515625,-81.54296875,-56.640625,113.28125,0.0
1741086232.4800074,70.80078125,30.76171875,2.9296875,59.5703125,0.0
1741086232.4839122,-48.33984375,64.453125,28.3203125,-33.69140625,0.0
1741086232.487831,-40.0390625,-26.3671875,-12.20703125,-5.37109375,0.0
1741086232.4917362,41.9921875,-103.02734375,-86.9140625,12.6953125,0.0
1741086232.4956412,65.4296875,-66.89453125,-182.6171875,11.23046875,0.0
1741086232.499546,-3.90625,30.76171875,-151.3671875,10.7421875,0.0
1741086232.503451,-32.71484375,30.76171875,-0.9765625,-45.41015625,0.0
1741086232.5073562,46.875,-31.25,3.41796875,19.04296875,0.0
1741086232.5112612,36.62109375,36.1328125,88.8671875,22.4609375,0.0
1741086232.5151663,-52.24609375,-46.875,65.91796875,-82.03125,0.0
1741086232.5190713,-1.953125,-91.796875,-35.64453125,-46.38671875,0.0
1741086232.5229764,51.26953125,75.1953125,-52.734375,15.625,0.0
1741086232.5268812,104.00390625,-275.87890625,30.76171875,72.75390625,0.0
1741086232.5307863,183.10546875,-124.0234375,274.4140625,194.82421875,0.0
1741086232.534705,125.9765625,546.38671875,241.69921875,144.04296875,0.0
1741086232.53861,34.66796875,565.4296875,29.78515625,-2.9296875,0.0
1741086232.5425148,68.84765625,362.79296875,186.03515625,-21.97265625,0.0
1741086232.5464199,117.1875,708.984375,422.8515625,76.66015625,0.0
1741086232.550325,73.2421875,993.1640625,463.37890625,100.09765625,0.0
1741086232.55423,10.25390625,766.6015625,524.4140625,-66.40625,0.0
1741086232.558135,157.71484375,769.04296875,726.07421875,-7.32421875,0.0
1741086232.56204,262.6953125,979.4921875,925.78125,130.859375,0.0
1741086232.5659451,222.65625,970.21484375,804.6875,112.3046875,0.0
1741086232.56985,178.22265625,964.84375,703.125,17.578125,0.0
1741086232.573755,257.8125,971.19140625,932.12890625,80.56640625,0.0
1741086232.57766,268.5546875,969.7265625,988.76953125,10.7421875,0.0
1741086232.5815785,177.734375,969.7265625,957.51953125,-105.46875,0.0
1741086232.5854836,98.6328125,969.7265625,972.16796875,-182.6171875,0.0
1741086232.5893886,54.19921875,970.21484375,969.7265625,-317.87109375,0.0
1741086232.5932937,158.203125,969.7265625,969.7265625,-203.125,0.0
1741086232.5971985,196.2890625,969.7265625,969.7265625,-94.7265625,0.0
1741086232.6011035,105.95703125,969.7265625,969.7265625,-157.2265625,0.0
1741086232.6050086,131.8359375,969.7265625,969.7265625,-178.7109375,0.0
1741086232.6089137,330.56640625,970.21484375,970.21484375,-21.484375,0.0
1741086232.6128187,291.015625,969.7265625,969.7265625,-48.828125,0.0
1741086232.6167238,192.87109375,969.7265625,969.7265625,-141.6015625,0.0
1741086232.6206286,270.5078125,969.7265625,969.7265625,-52.734375,0.0
1741086232.6245337,241.2109375,969.7265625,969.7265625,-81.54296875,0.0
1741086232.628452,215.8203125,970.21484375,969.7265625,-118.1640625,0.0
1741086232.632357,236.328125,969.7265625,970.21484375,-51.26953125,0.0
1741086232.636262,245.1171875,969.7265625,970.21484375,-27.34375,0.0
1741086232.640167,272.94921875,969.7265625,969.7265625,-42.96875,0.0
1741086232.644072,387.20703125,969.7265625,969.7265625,51.26953125,0.0
1741086232.647977,272.4609375,969.7265625,969.7265625,-39.0625,0.0
1741086232.6518822,202.1484375,969.7265625,969.7265625,-86.9140625,0.0
1741086232.655787,138.18359375,970.21484375,969.7265625,-164.0625,0.0
1741086232.659692,72.265625,969.7265625,969.7265625,-224.12109375,0.0
1741086232.663597,95.21484375,970.21484375,969.7265625,-144.04296875,0.0
1741086232.6675022,39.55078125,970.21484375,969.7265625,-135.7421875,0.0
1741086232.6714072,65.4296875,970.21484375,969.7265625,-109.375,0.0
1741086232.6753254,165.0390625,969.7265625,970.21484375,-53.7109375,0.0
1741086232.6792305,163.57421875,969.7265625,969.7265625,-38.57421875,0.0
1741086232.6831353,90.33203125,969.7265625,969.7265625,-37.109375,0.0
1741086232.6870403,-17.578125,969.7265625,970.21484375,-107.91015625,0.0
1741086232.6909454,8.7890625,970.703125,969.7265625,-107.91015625,0.0
1741086232.6948504,68.84765625,968.26171875,966.796875,-45.41015625,0.0
1741086232.6987555,-12.20703125,969.7265625,972.65625,-53.22265625,0.0
1741086232.7026606,-57.12890625,966.796875,915.0390625,-70.80078125,0.0
1741086232.7065654,22.4609375,905.2734375,793.9453125,-39.55078125,0.0
1741086232.7104704,69.3359375,827.1484375,697.265625,-6.8359375,0.0
1741086232.7143755,1.46484375,767.578125,610.3515625,-17.578125,0.0
1741086232.7182806,-88.37890625,704.58984375,527.83203125,-20.99609375,0.0
1741086232.7221997,-43.9453125,652.83203125,458.984375,6.8359375,0.0
1741086232.7261047,15.625,606.4453125,394.04296875,45.8984375,0.0
1741086232.7300098,-90.8203125,560.05859375,327.1484375,50.29296875,0.0
1741086232.7339149,-233.3984375,501.953125,256.34765625,3.90625,0.0
1741086232.7378197,-247.55859375,432.6171875,213.8671875,-15.13671875,0.0
1741086232.7417247,-229.4921875,381.34765625,163.0859375,0.0,0.0
1741086232.7456298,-318.84765625,343.26171875,88.37890625,-23.4375,0.0
1741086232.7495348,-497.55859375,275.390625,28.3203125,-80.078125,0.0
1741086232.75344,-602.05078125,203.125,-14.16015625,-106.93359375,0.0
1741086232.757345,-591.796875,147.94921875,-60.546875,-107.421875,0.0
1741086232.7612498,-642.08984375,84.47265625,-109.375,-133.7890625,0.0
1741086232.7651548,-799.8046875,19.04296875,-150.390625,-203.61328125,0.0
1741086232.769074,-876.953125,-47.8515625,-180.17578125,-259.27734375,0.0
1741086232.772979,-824.70703125,-108.88671875,-212.40234375,-237.79296875,0.0
1741086232.776884,-734.86328125,-170.41015625,-261.23046875,-209.47265625,0.0
1741086232.780789,-720.21484375,-232.421875,-294.43359375,-248.53515625,0.0
1741086232.784694,-750.0,-281.25,-332.51953125,-293.9453125,0.0
1741086232.788599,-668.9453125,-333.0078125,-386.23046875,-271.97265625,0.0
1741086232.792504,-520.5078125,-378.90625,-414.55078125,-227.5390625,0.0
1741086232.7964091,-495.60546875,-396.484375,-442.87109375,-239.74609375,0.0
1741086232.8003142,-559.08203125,-434.08203125,-486.328125,-290.52734375,0.0
1741086232.8042192,-493.1640625,-496.09375,-503.41796875,-281.25,0.0
1741086232.808124,-338.37890625,-528.80859375,-517.08984375,-233.3984375,0.0
1741086232.8120291,-307.12890625,-567.87109375,-530.2734375,-245.1171875,0.0
1741086232.815948,-368.65234375,-619.140625,-538.57421875,-288.0859375,0.0
1741086232.819853,-359.375,-651.85546875,-534.66796875,-288.0859375,0.0
1741086232.8237581,-235.3515625,-675.78125,-530.76171875,-231.4453125,0.0
1741086232.8276632,-168.9453125,-696.77734375,-534.1796875,-180.17578125,0.0
1741086232.8315682,-247.55859375,-720.703125,-533.203125,-190.4296875,0.0
1741086232.835473,-261.23046875,-755.859375,-559.08203125,-213.37890625,0.0
1741086232.839378,-158.203125,-790.52734375,-589.35546875,-176.7578125,0.0
1741086232.8432832,-64.453125,-805.17578125,-562.01171875,-118.1640625,0.0
1741086232.8471882,-82.03125,-854.98046875,-546.875,-122.0703125,0.0
1741086232.8510933,-157.71484375,-898.4375,-560.546875,-130.37109375,0.0
1741086232.8549984,-104.00390625,-905.2734375,-578.125,-112.79296875,0.0
1741086232.8589032,9.765625,-942.3828125,-595.703125,-71.77734375,0.0
1741086232.8628232,0.0,-965.8203125,-595.703125,-56.640625,0.0
1741086232.8667283,-99.12109375,-961.9140625,-585.44921875,-104.00390625,0.0
1741086232.8706334,-89.35546875,-947.265625,-579.58984375,-89.84375,0.0
1741086232.8745384,41.50390625,-935.546875,-582.51953125,-16.6015625,0.0
1741086232.8784432,81.0546875,-932.12890625,-578.61328125,3.90625,0.0
1741086232.8823483,5.37109375,-931.640625,-569.82421875,-23.92578125,0.0
1741086232.8862534,-20.01953125,-928.22265625,-579.1015625,-31.73828125,0.0
1741086232.8901584,56.15234375,-903.80859375,-570.80078125,20.5078125,0.0
1741086232.8940635,118.1640625,-876.46484375,-552.24609375,56.640625,0.0
1741086232.8979685,42.48046875,-854.00390625,-541.9921875,16.11328125,0.0
1741086232.9018734,-5.859375,-839.84375,-539.55078125,-21.484375,0.0
1741086232.9057784,58.59375,-829.1015625,-527.34375,14.6484375,0.0
1741086232.909697,114.74609375,-815.91796875,-496.58203125,68.359375,0.0
1741086232.9136019,87.40234375,-781.73828125,-481.93359375,45.8984375,0.0
1741086232.917507,11.23046875,-747.0703125,-489.2578125,9.27734375,0.0
1741086232.921412,42.48046875,-735.3515625,-487.3046875,36.62109375,0.0
1741086232.925317,142.08984375,-719.23828125,-471.6796875,90.8203125,0.0
1741086232.929222,134.765625,-699.21875,-468.75,89.84375,0.0
1741086232.9331272,38.57421875,-708.0078125,-467.28515625,51.7578125,0.0
1741086232.9370322,47.36328125,-695.80078125,-450.1953125,53.7109375,0.0
1741086232.940937,132.8125,-658.69140625,-430.6640625,91.30859375,0.0
1741086232.944842,145.01953125,-656.25,-428.22265625,97.16796875,0.0
1741086232.9487472,56.640625,-648.92578125,-437.98828125,62.01171875,0.0
1741086232.9526522,0.0,-634.27734375,-440.4296875,44.921875,0.0
1741086232.9565706,74.21875,-626.46484375,-437.5,71.77734375,0.0
1741086232.9604757,129.39453125,-622.55859375,-414.55078125,107.421875,0.0
1741086232.9643805,41.50390625,-620.1171875,-420.8984375,68.359375,0.0
1741086232.9682856,-30.2734375,-615.72265625,-429.19921875,4.8828125,0.0
1741086232.9721906,24.90234375,-607.91015625,-420.8984375,31.73828125,0.0
1741086232.9760957,125.0,-594.23828125,-432.12890625,82.51953125,0.0
1741086232.9800007,96.6796875,-583.984375,-411.62109375,69.82421875,0.0
1741086232.9839058,-13.671875,-586.42578125,-381.34765625,20.5078125,0.0
1741086232.9878109,-15.625,-588.37890625,-385.25390625,17.08984375,0.0
1741086232.9917157,49.31640625,-576.171875,-385.7421875,47.8515625,0.0
1741086232.9956207,34.66796875,-557.6171875,-376.953125,40.0390625,0.0
1741086232.9995258,-40.0390625,-543.9453125,-380.859375,5.37109375,0.0
1741086233.003444,-55.17578125,-544.921875,-372.0703125,-13.671875,0.0
1741086233.007349,57.6171875,-522.94921875,-365.72265625,18.5546875,0.0
1741086233.011254,103.02734375,-479.98046875,-380.37109375,31.25,0.0
1741086233.0151591,-8.7890625,-462.890625,-381.8359375,-24.4140625,0.0
1741086233.0190642,-67.3828125,-452.63671875,-375.48828125,-47.36328125,0.0
1741086233.0229692,8.30078125,-437.98828125,-376.953125,0.0,0.0
1741086233.026874,73.73046875,-415.0390625,-365.234375,50.29296875,0.0
1741086233.0307791,16.11328125,-407.2265625,-351.07421875,22.4609375,0.0
1741086233.0346842,-54.6875,-407.2265625,-336.9140625,-32.71484375,0.0
1741086233.0385892,-9.27734375,-395.99609375,-338.8671875,-13.671875,0.0
1741086233.0424943,73.2421875,-390.625,-344.23828125,35.64453125,0.0
1741086233.0463994,43.45703125,-381.34765625,-331.0546875,41.50390625,0.0
1741086233.0503173,-57.6171875,-371.09375,-316.89453125,-6.34765625,0.0
1741086233.0542223,-51.7578125,-372.0703125,-311.5234375,-19.04296875,0.0
1741086233.0581274,45.41015625,-360.83984375,-311.03515625,40.52734375,0.0
1741086233.0620325,20.01953125,-370.1171875,-313.4765625,34.1796875,0.0
1741086233.0659375,-59.5703125,-361.81640625,-309.08203125,-24.4140625,0.0
1741086233.0698426,-59.5703125,-329.58984375,-307.12890625,-25.87890625,0.0
1741086233.0737474,5.859375,-316.40625,-307.12890625,16.6015625,0.0
1741086233.0776525,66.40625,-304.19921875,-290.0390625,43.9453125,0.0
1741086233.0815575,-16.11328125,-315.4296875,-285.64453125,1.46484375,0.0
1741086233.0854626,-89.84375,-322.265625,-293.45703125,-41.9921875,0.0
1741086233.0893676,-1.953125,-305.17578125,-276.3671875,-1.953125,0.0
1741086233.0932727,71.2890625,-287.59765625,-267.08984375,45.8984375,0.0
1741086233.0971904,13.18359375,-282.71484375,-266.6015625,26.85546875,0.0
1741086233.1010954,-69.3359375,-285.15625,-261.71875,-20.99609375,0.0
1741086233.1050005,-35.15625,-274.4140625,-272.94921875,-9.27734375,0.0
1741086233.1089056,60.05859375,-268.06640625,-272.4609375,33.69140625,0.0
1741086233.1128106,42.48046875,-262.20703125,-275.87890625,8.7890625,0.0
1741086233.1167157,-42.48046875,-267.578125,-286.62109375,-46.38671875,0.0
1741086233.1206205,-30.2734375,-262.6953125,-277.83203125,-34.1796875,0.0
1741086233.1245255,58.10546875,-229.4921875,-261.71875,-6.8359375,0.0
1741086233.1284306,54.19921875,-218.75,-247.0703125,-3.41796875,0.0
1741086233.1323357,-56.640625,-223.6328125,-249.51171875,-32.2265625,0.0
1741086233.1362407,-94.7265625,-233.3984375,-246.09375,-63.4765625,0.0
1741086233.1401458,-6.34765625,-223.6328125,-232.91015625,-28.3203125,0.0
1741086233.1440673,37.109375,-206.54296875,-241.2109375,-2.9296875,0.0
1741086233.1479723,-41.9921875,-210.9375,-244.62890625,-29.78515625,0.0
1741086233.1518774,-93.26171875,-212.40234375,-233.3984375,-59.5703125,0.0
1741086233.1557822,-41.9921875,-206.54296875,-235.83984375,-41.9921875,0.0
1741086233.1596873,30.2734375,-186.5234375,-232.421875,-1.953125,0.0
1741086233.1635923,-20.01953125,-185.05859375,-230.95703125,-27.34375,0.0
1741086233.1674974,-109.375,-195.3125,-228.515625,-65.91796875,0.0
1741086233.1714025,-86.9140625,-184.5703125,-222.65625,-41.9921875,0.0
1741086233.1753075,3.90625,-185.546875,-222.16796875,0.48828125,0.0
1741086233.1792123,-9.765625,-179.19921875,-208.984375,-3.41796875,0.0
1741086233.1831174,-110.83984375,-156.25,-201.171875,-48.33984375,0.0
1741086233.1870224,-103.515625,-153.80859375,-217.28515625,-59.5703125,0.0
1741086233.1909413,0.0,-162.59765625,-216.30859375,-9.765625,0.0
1741086233.1948464,0.0,-158.203125,-184.5703125,9.765625,0.0
1741086233.1987514,0.0,-158.203125,-170.8984375,-27.34375,0.0
1741086233.2026565,0.0,-171.875,-190.91796875,-55.6640625,0.0
1741086233.2065616,0.0,-164.0625,-197.265625,-23.92578125,0.0
1741086233.2104666,0.0,-147.94921875,-186.03515625,9.27734375,0.0
1741086233.2143714,0.0,-149.90234375,-185.546875,-31.73828125,0.0
1741086233.2182765,0.0,-173.33984375,-185.05859375,-75.68359375,0.0
1741086233.2221816,0.0,-174.31640625,-181.15234375,-53.22265625,0.0
1741086233.2260866,0.0,-149.90234375,-189.94140625,-7.8125,0.0
1741086233.2299917,0.0,-141.6015625,-175.78125,-5.859375,0.0
1741086233.2338967,0.0,-145.01953125,-164.55078125,-44.921875,0.0
1741086233.2378154,-72.265625,-148.92578125,-170.41015625,-40.0390625,0.0
1741086233.2417204,37.109375,-126.953125,-153.80859375,1.953125,0.0
1741086233.2456255,36.62109375,-132.8125,-149.90234375,0.0,0.0
1741086233.2495306,-61.5234375,-186.5234375,-168.45703125,-46.875,0.0
1741086233.2534354,-92.28515625,-175.78125,-169.43359375,-51.7578125,0.0
1741086233.2573404,4.39453125,-124.0234375,-138.18359375,1.953125,0.0
1741086233.2612455,52.734375,-122.55859375,-120.1171875,34.66796875,0.0
1741086233.2651505,-33.203125,-131.8359375,-125.0,-5.37109375,0.0
1741086233.2690556,-94.23828125,-138.671875,-120.60546875,-38.57421875,0.0
1741086233.2729607,-26.85546875,-134.27734375,-108.88671875,-2.44140625,0.0
1741086233.2768655,25.390625,-132.32421875,-118.65234375,18.06640625,0.0
1741086233.2807705,-39.55078125,-139.6484375,-128.90625,-11.23046875,0.0
1741086233.2846892,-104.4921875,-123.046875,-110.3515625,-50.78125,0.0
1741086233.288594,-56.15234375,-118.1640625,-129.39453125,-36.1328125,0.0
1741086233.292499,34.1796875,-115.234375,-135.25390625,24.90234375,0.0
1741086233.2964041,-9.27734375,-112.3046875,-105.95703125,8.7890625,0.0
1741086233.3003092,-115.72265625,-131.34765625,-115.234375,-58.59375,0.0
1741086233.3042142,-94.23828125,-143.06640625,-129.8828125,-62.01171875,0.0
1741086233.3081193,13.18359375,-131.8359375,-118.65234375,-6.34765625,0.0
1741086233.3120244,12.20703125,-126.46484375,-111.328125,9.765625,0.0
1741086233.3159292,-91.796875,-132.8125,-116.69921875,-47.36328125,0.0
1741086233.3198342,-134.27734375,-126.46484375,-114.74609375,-81.54296875,0.0
1741086233.3237393,-64.453125,-123.53515625,-119.62890625,-51.7578125,0.0
1741086233.3276443,1.953125,-104.98046875,-111.328125,-8.7890625,0.0
1741086233.3315628,-62.01171875,-116.69921875,-121.09375,-39.0625,0.0
1741086233.3354678,-111.328125,-126.46484375,-137.6953125,-80.078125,0.0
1741086233.3393726,-58.10546875,-99.609375,-113.76953125,-44.921875,0.0
1741086233.3432777,5.37109375,-93.75,-113.76953125,-6.8359375,0.0
1741086233.3471828,-35.64453125,-95.703125,-123.53515625,-37.109375,0.0
1741086233.3510878,-120.1171875,-108.88671875,-114.2578125,-80.56640625,0.0
1741086233.3549929,-81.54296875,-117.67578125,-119.62890625,-60.546875,0.0
1741086233.358898,7.32421875,-108.3984375,-117.67578125,-1.46484375,0.0
1741086233.3628027,-22.94921875,-94.7265625,-102.05078125,-3.90625,0.0
1741086233.3667078,-94.7265625,-99.609375,-103.515625,-56.640625,0.0
1741086233.3706129,-67.3828125,-105.46875,-102.5390625,-58.10546875,0.0
1741086233.374518,16.6015625,-98.14453125,-100.5859375,-17.578125,0.0
1741086233.378436,0.9765625,-104.98046875,-99.12109375,-1.953125,0.0
1741086233.3823411,-97.16796875,-108.3984375,-109.86328125,-33.69140625,0.0
1741086233.3862462,-107.91015625,-94.7265625,-113.28125,-51.7578125,0.0
1741086233.3901513,-16.11328125,-97.16796875,-104.00390625,-23.4375,0.0
1741086233.3940563,36.62109375,-94.7265625,-96.19140625,12.20703125,0.0
1741086233.3979611,-35.15625,-98.6328125,-98.6328125,-4.39453125,0.0
1741086233.4018662,-110.83984375,-108.88671875,-99.12109375,-36.1328125,0.0
1741086233.4057713,-57.6171875,-105.95703125,-98.14453125,-16.6015625,0.0
1741086233.4096763,4.39453125,-91.30859375,-91.796875,13.18359375,0.0
1741086233.4135814,-55.17578125,-80.56640625,-91.796875,0.0,0.0
1741086233.4174864,-125.48828125,-95.703125,-93.26171875,-43.45703125,0.0
1741086233.4213915,-64.453125,-92.28515625,-84.9609375,-23.92578125,0.0
1741086233.4253094,31.25,-79.58984375,-81.0546875,23.4375,0.0
1741086233.4292145,12.20703125,-81.0546875,-87.40234375,19.53125,0.0
1741086233.4331195,-77.63671875,-92.7734375,-91.796875,-33.203125,0.0
1741086233.4370246,-82.51953125,-87.40234375,-84.9609375,-42.48046875,0.0
1741086233.4409297,29.78515625,-65.4296875,-88.8671875,-0.9765625,0.0
1741086233.4448345,49.8046875,-83.984375,-105.46875,-4.8828125,0.0
1741086233.4487395,-49.31640625,-107.91015625,-100.5859375,-43.45703125,0.0
1741086233.4526446,-101.07421875,-82.51953125,-90.33203125,-62.01171875,0.0
1741086233.4565496,-28.3203125,-71.77734375,-93.26171875,-23.92578125,0.0
1741086233.4604547,27.34375,-79.1015625,-95.703125,7.32421875,0.0
1741086233.4643598,-59.08203125,-81.54296875,-96.6796875,-30.2734375,0.0
1741086233.4682646,-123.046875,-83.0078125,-96.6796875,-68.84765625,0.0
1741086233.4721825,-49.8046875,-83.984375,-93.26171875,-45.41015625,0.0
1741086233.4760876,16.6015625,-72.75390625,-93.75,-9.27734375,0.0
1741086233.4799926,-37.59765625,-63.96484375,-104.4921875,-27.83203125,0.0
1741086233.4838977,-117.1875,-64.94140625,-111.328125,-72.75390625,0.0
1741086233.4878025,-98.6328125,-71.2890625,-110.83984375,-68.84765625,0.0
1741086233.4917076,-2.44140625,-61.03515625,-105.46875,-12.6953125,0.0
