timestamps,TP9,AF7,AF8,TP10,Right AUX
1741085468.673348,1.1473574899327537,0.678143706523528,0.621227363910726,0.9251721548404938,nan
1741085468.6772518,0.6300839396993928,0.9329887962834233,1.1470648649064275,1.0998058701649496,nan
1741085468.681156,-0.2157698237137405,0.5773588639000972,0.9163379071123936,0.7171458827660098,nan
1741085468.6850598,-0.890142589781231,-0.2538186501457724,0.054776208447781444,-0.06684641286050723,nan
1741085468.688964,-1.0226853356897356,-1.0333496825973976,-0.862735531365838,-0.8503632852920509,nan
1741085468.692868,-0.5933831827449755,-1.197587348347493,-1.225111748255074,-1.2071373239587952,nan
1741085468.6967719,0.08307108435439595,-0.5734995989752106,-0.8144997251456473,-0.9408981587431862,nan
1741085468.700676,0.5867915720155462,0.45763285280442945,0.06370499322931454,-0.2048681423636425,nan
1741085468.70458,0.6695094577065863,1.2071748004559162,0.826992400522623,0.5949977531048863,nan
1741085468.708484,0.3880901102066864,1.1675975551416478,1.0310338903070624,1.046238029047838,nan
1741085468.712388,0.01525062298394613,0.37872582051351705,0.6408737075584641,0.9603083660588737,nan
1741085468.716292,-0.18851624730128025,-0.6053504859351676,-0.01534628580392524,0.44517224738389055,nan
1741085468.7202222,-0.16224683671057022,-1.1222980790490187,-0.5277335227563452,-0.2013510848455402,nan
1741085468.7241263,-0.053220280463208085,-0.8718188418003355,-0.6781005977369797,-0.6788570018402937,nan
1741085468.7280302,-0.054307295476064,-0.10113228389582041,-0.5121620604274978,-0.8228891543736546,nan
1741085468.7319343,-0.21290915145786915,0.615381092224528,-0.21009568581758237,-0.6323622449519746,nan
1741085468.7358384,-0.3749740270444626,0.812611320036442,0.08562229350739149,-0.21727948305777933,nan
1741085468.7397423,-0.3160062998632999,0.448333304993808,0.32935158667153425,0.26282258122983737,nan
1741085468.7436464,0.045454690403133026,-0.1253927649097856,0.5029028146570909,0.6347380209862272,nan
1741085468.7475505,0.5324613491238833,-0.47412953652078527,0.535228037852923,0.7436813582707515,nan
1741085468.7514544,0.8036950332700827,-0.4085684278994098,0.32896109804283574,0.5137106625038821,nan
1741085468.7553585,0.6029761144624395,-0.07839039834329814,-0.11453668255294536,0.019063497160371576,nan
1741085468.7592623,-0.022258874235415116,0.2057341582684071,-0.6041580560910098,-0.503650333581669,nan
1741085468.7631664,-0.7114989569902096,0.242579710337594,-0.8291830756725276,-0.7583669584063383,nan
1741085468.7670965,-1.0181599381807727,0.07481740512836012,-0.5766359856153328,-0.5743000746920571,nan
1741085468.7710006,-0.7194496957130615,-0.09905768462038285,0.06964001405872168,-0.047233106419633616,nan
1741085468.7749045,0.016073835773936625,-0.126086141309033,0.7310379825421336,0.4892573728542469,nan
1741085468.7788086,0.7312869524575909,-0.023804863313000087,0.9720329108111768,0.675446791557041,nan
1741085468.7827125,0.9856469258054075,0.06957128292754203,0.6117522091657711,0.3834250309669601,nan
1741085468.7866166,0.6468460298739943,0.05076864069421998,-0.12984161998937901,-0.1740946848654493,nan
1741085468.7905207,-0.03531146666393161,-0.04545327658643874,-0.7739973603617485,-0.5839020159146227,nan
1741085468.7944245,-0.6162112393612021,-0.09150522000350916,-0.9149033403180454,-0.5329117484542315,nan
1741085468.7983286,-0.760948330554168,-0.008532461321624666,-0.4948867119371311,-0.047405996442497655,nan
1741085468.8022327,-0.4478435790782358,0.13988733367335157,0.1771686433094827,0.515936214487302,nan
1741085468.8061366,0.05912126758497957,0.1986128104449917,0.663941490166259,0.7288919927903771,nan
1741085468.8100407,0.4236915487074568,0.07260485841933809,0.702727120743469,0.4091314686556961,nan
1741085468.813973,0.4650540497332577,-0.1651109763465418,0.3499805267790331,-0.2423465036742557,nan
1741085468.8178768,0.24064994241248747,-0.318993669899873,-0.11414221275873963,-0.7849782846487825,nan
1741085468.821781,-0.04759136938912616,-0.23923082005787535,-0.4135706339501299,-0.8514070654694608,nan
1741085468.8256848,-0.22188875746287093,0.036161776187288136,-0.447053485354479,-0.39564104924830695,nan
1741085468.829589,-0.23412579817962165,0.2988963040123796,-0.291121960375545,0.29580628989229235,nan
1741085468.833493,-0.14652925569910005,0.34155215899077285,-0.07882091593441924,0.815775783008441,nan
1741085468.8373969,-0.0380615333740925,0.1358769850314273,0.1114402683529221,0.8986445210267219,nan
1741085468.841301,0.06224683122954289,-0.1410271102098446,0.26436334632460085,0.5488680244191664,nan
1741085468.8452048,0.16006322367775935,-0.26078291483911215,0.36021231570306633,-0.020535825296984504,nan
1741085468.849109,0.23471972064965327,-0.14475761252826003,0.3341149361101059,-0.5488994646041112,nan
1741085468.853013,0.2159424507791133,0.06805187388806536,0.12723166842679362,-0.8517015691358225,nan
1741085468.856917,0.0415369484251062,0.1517555107654678,-0.2148341578365873,-0.8457732570429288,nan
1741085468.8608487,-0.2500815993124225,0.009755168828772158,-0.5097949584989374,-0.5218452016815815,nan
1741085468.8647528,-0.4906086428948825,-0.2206253985827335,-0.5393701635595998,0.05686373056939893,nan
1741085468.8686569,-0.47329160707253626,-0.28076898220000124,-0.2239304820041043,0.7171907387702816,nan
1741085468.8725607,-0.1170007345102124,-0.033348861600791174,0.2760167071378439,1.1727620961865857,nan
1741085468.8764648,0.42545562747124194,0.3789622325830708,0.639013040006397,1.1318397660262187,nan
1741085468.880369,0.8219526158313125,0.6149763782152523,0.6053302602987289,0.49320533753159307,nan
1741085468.8842728,0.7685760394934925,0.41096889560436967,0.17735586245913443,-0.5091757890304445,nan
1741085468.888177,0.2147087495012379,-0.17187162797595218,-0.3654501618847341,-1.3634481937167242,nan
1741085468.8920808,-0.5614720940546543,-0.747332161295158,-0.6599610693595964,-1.5582584402531978,nan
1741085468.895985,-1.0996864086971512,-0.8768357004162315,-0.5185951407093441,-0.9192050426894811,nan
1741085468.899889,-1.0429893454535462,-0.4123440270683511,-0.057857057492434104,0.23842835553138825,nan
1741085468.9037929,-0.3752095847232089,0.3645935662360696,0.3975578552812502,1.2746289061378482,nan
1741085468.9077246,0.5502785988420259,0.9302677807342331,0.5542826574604188,1.615239250016485,nan
1741085468.9116287,1.2137217588552383,0.8982188345793938,0.3481012467197519,1.1050157522026502,nan
1741085468.9155326,1.2358376147675485,0.3010130811325622,-0.03995859968800352,0.08205597575934014,nan
1741085468.9194367,0.5974956155141254,-0.4411593335378532,-0.3399833522299794,-0.8653542557354289,nan
1741085468.9233408,-0.35616710803725626,-0.8360509210140965,-0.3859239874113704,-1.2729565819300381,nan
1741085468.9272447,-1.118043114352061,-0.6716860013825562,-0.201897615666734,-1.0436854786839338,nan
1741085468.9311488,-1.2992457364132783,-0.13914123796175554,0.057247839702968796,-0.4208825225683591,nan
1741085468.9350526,-0.8272680963331718,0.35056115652077585,0.2348762808191333,0.23617990559151505,nan
1741085468.9389567,0.035642908686721375,0.49148668959307634,0.2621334886381221,0.6758332030780244,nan
1741085468.9428608,0.845880581278313,0.2883666517588881,0.160492044073827,0.8254141313741351,nan
1741085468.9467647,1.2101387554782677,-0.003215407027573478,-0.00680095466061338,0.7176817469486194,nan
1741085468.9506688,0.9751803704017976,-0.12479088383115779,-0.17163295649850957,0.3986168323701517,nan
1741085468.9545999,0.28839736036334523,-0.029850668434020056,-0.2659376853268359,-0.07724531676638802,nan
1741085468.958504,-0.49080363066728827,0.10862387072336126,-0.22727901412424856,-0.5818716226824243,nan
1741085468.962408,-0.978819309810047,0.08496052331424624,-0.037550870035423345,-0.8932011010221987,nan
1741085468.966312,-0.9599270787324138,-0.1346573580227225,0.22709525751763568,-0.8000809847702628,nan
1741085468.970216,-0.4862034413638208,-0.37146773564236824,0.40107778667530775,-0.27861005503711683,nan
1741085468.9741201,0.1652013339067083,-0.389504754304525,0.3267262664989018,0.41897649554227395,nan
1741085468.978024,0.6525016211534169,-0.10892684113241559,-0.007872999117445477,0.881888341198967,nan
1741085468.981928,0.7561966594140314,0.307894983424763,-0.40971789273973924,0.8155498519276096,nan
1741085468.985832,0.48515083451897045,0.5718897707281918,-0.5839314249205146,0.27032790734479717,nan
1741085468.989736,0.04382258044070373,0.4891020823254789,-0.3525740718416377,-0.37236812935339003,nan
1741085468.9936402,-0.31024359877855123,0.1085034140568751,0.17586558871763525,-0.6715970917198882,nan
1741085468.997544,-0.4216312939076879,-0.31862677315542576,0.6431406098979034,-0.45671906381520716,nan
1741085469.001475,-0.3064323635821103,-0.5272170724336921,0.6895011582133574,0.04678453045497743,nan
1741085469.005379,-0.10287667247052097,-0.4214957277609944,0.23786287019357893,0.40402612786014963,nan
1741085469.009283,0.045751827270005964,-0.11668030055215646,-0.4160677997238465,0.32551152839877934,nan
1741085469.0131872,0.08461373984437666,0.1739663039625023,-0.8019062462925874,-0.09739100167919688,nan
1741085469.017091,0.05630191085213713,0.3001805954136368,-0.6258886732879853,-0.4717324207451576,nan
1741085469.0209951,0.03650401368499293,0.2562636790256451,-0.004268979776018793,-0.4350797724598503,nan
1741085469.0248992,0.061408939162650486,0.13845974333124775,0.613244915404073,0.032755039541668925,nan
1741085469.028803,0.10659995059758055,0.039442536520355106,0.7806754668339058,0.5787533944388394,nan
1741085469.0327072,0.12364511882164574,-0.020096743940927888,0.3931493432321903,0.7569338242929532,nan
1741085469.036611,0.08968963180350359,-0.07419291148218501,-0.24098733512750647,0.39228934307164137,nan
1741085469.0405152,0.02153103522266995,-0.14483622549932895,-0.6482274886553246,-0.2702488927781709,nan
1741085469.0444193,-0.05217295838419477,-0.2011657873541233,-0.5568274450194575,-0.7546196924466982,nan
1741085469.0483499,-0.12259203738226433,-0.18470000323160574,-0.08967057370782223,-0.7258357235660943,nan
1741085469.052254,-0.19636974334812957,-0.07155201644517578,0.3621157644564616,-0.24281683542367516,nan
1741085469.0561578,-0.2580628947688692,0.09261530579732266,0.4672740261644742,0.30858679749587303,nan
1741085469.060062,-0.24643339317855822,0.2201756723132978,0.20820176091466358,0.5373523027448757,nan
1741085469.063966,-0.08888027804006153,0.24593676577416765,-0.14099414310487762,0.35249353850907855,nan
1741085469.06787,0.2168892696956692,0.16961776972320305,-0.2746315543341557,0.003270567619035027,nan
1741085469.071774,0.5444635641918325,0.04236310669984377,-0.11881864049679461,-0.16563055244706226,nan
1741085469.0756779,0.6771540975542677,-0.08165600254607525,0.12711549745094997,-0.024775981099612255,nan
1741085469.079582,0.44682126705082603,-0.17742052987972035,0.19432554880356628,0.23221218508729952,nan
1741085469.083486,-0.11578108992699651,-0.23746892856761176,0.0017464339335964663,0.27408635285374167,nan
1741085469.08739,-0.7425419541398057,-0.24032416182843777,-0.2658455979307569,-0.05195225476602116,nan
1741085469.091294,-1.0598587363549419,-0.14745091038736335,-0.32766850826538696,-0.5498241981717187,nan
1741085469.0952244,-0.8239597428219644,0.053014704541395986,-0.07111859698559403,-0.8057019743259806,nan
1741085469.0991282,-0.10237616559282652,0.2948507069683388,0.3277052915785903,-0.5236172777771951,nan
1741085469.1030324,0.7346707661587978,0.43865394270740754,0.5390488822721063,0.20651374264535569,nan
1741085469.1069365,1.2233256556035303,0.35643037179012194,0.3575240083991124,0.9332079639169749,nan
1741085469.1108403,1.0849475008173692,0.0426470393254944,-0.11548306257281687,1.1544431993104842,nan
1741085469.1147444,0.39277135788204093,-0.34364872965815,-0.5422326220046516,0.6830286710664306,nan
1741085469.1186483,-0.4788865145173423,-0.5612345597072141,-0.6132053047968349,-0.2092981273640417,nan
1741085469.1225524,-1.0809780299217542,-0.4507710426061297,-0.2849140186740342,-0.9748751445786856,nan
1741085469.1264565,-1.1396036791253,-0.06096620522636324,0.20082379831613095,-1.1611981151512296,nan
1741085469.1303604,-0.6784877619477014,0.3674255913893674,0.5185691239316825,-0.7004271131600924,nan
1741085469.1342645,0.03703566534548568,0.5604127327839135,0.5029565407351331,0.07774934249286126,nan
1741085469.1381686,0.6688766236953078,0.40074449563728026,0.2365455244861917,0.6952045008275682,nan
1741085469.1420984,0.9709275096779653,0.008298519044907677,-0.0662161509524556,0.8415399100357622,nan
1741085469.1460025,0.8679072839048363,-0.3491332536039381,-0.24986409462187656,0.5386195319978838,nan
1741085469.1499066,0.4421035923027428,-0.446594453677113,-0.3078968309152341,0.06607083031701425,nan
1741085469.1538105,-0.12728977310796902,-0.25200127804510786,-0.3120721765378352,-0.2659086467020557,nan
1741085469.1577146,-0.6295779395653704,0.07014479915288052,-0.28212811030378027,-0.3209911350137381,nan
1741085469.1616187,-0.8811322034583662,0.292298748295405,-0.14831334177274352,-0.1865448725228737,nan
1741085469.1655226,-0.7824782308322005,0.28584403609163017,0.14582922456348912,-0.061640149220093865,nan
1741085469.1694267,-0.36502183185535614,0.0933326235327008,0.5096246446579525,-0.08467226376863846,nan
1741085469.1733308,0.20353156167221595,-0.12742862966114085,0.7010142293527043,-0.22705975735229275,nan
1741085469.1772346,0.6802446836754642,-0.22795966382723548,0.4992459849259415,-0.32032548384346043,nan
1741085469.1811388,0.8586325932160567,-0.16381236265527702,-0.07695923748646782,-0.19097861725975315,nan
1741085469.1850426,0.6711354924168204,-0.0012519903209636178,-0.7107610141941753,0.19037071294782407,nan
1741085469.1889749,0.21842069452137097,0.14747885964759383,-0.9777727810378984,0.6483206789842486,nan
1741085469.192879,-0.29214115901859794,0.1989806625021957,-0.660221463073429,0.8823417118997309,nan
1741085469.1967828,-0.6549048427264892,0.1348601757221103,0.06660089269670284,0.6538875726570152,nan
1741085469.200687,-0.7513658085642634,-0.005608887453866068,0.7410717169664383,-0.02788180336675148,nan
1741085469.204591,-0.5720877890074023,-0.15199264918492103,0.9448273146521352,-0.8507008286859883,nan
1741085469.208495,-0.1895677958381055,-0.22940724659130987,0.5978797090472573,-1.3407715419326598,nan
1741085469.212399,0.2748197009150786,-0.18612846907502334,-0.012210985704339651,-1.1443921187676789,nan
1741085469.2163029,0.6677051875525978,-0.025039000173504144,-0.47782800843067375,-0.28105388697538325,nan
1741085469.220207,0.8251423381688425,0.1780093005609406,-0.5793431899032297,0.8138151330868113,nan
1741085469.224111,0.6314676168243287,0.2989010611745096,-0.40039111243929376,1.5197726459517198,nan
1741085469.228015,0.10752274793934384,0.24014199342137013,-0.17861223330711126,1.4120613161677407,nan
1741085469.231919,-0.5380904366048023,0.013341004831935588,-0.055860716534893246,0.5437792973483426,nan
1741085469.2358508,-0.9707946554266517,-0.2421601018824905,0.030169139117001254,-0.5743981297174363,nan
1741085469.239755,-0.9108226295063907,-0.3423973422989269,0.2190188376733836,-1.29930246030202,nan
1741085469.2436588,-0.3327161524923823,-0.198503206286568,0.506356477852026,-1.2672320453562127,nan
1741085469.247563,0.46712100398108,0.09603945378039686,0.6699228461864758,-0.6047402100782618,nan
1741085469.251467,1.0182103665053943,0.31729976302710944,0.4484080773799396,0.2052653394353675,nan
1741085469.2553709,0.9697169437823909,0.28147785368651246,-0.17296344313345102,0.6890170531807921,nan
1741085469.259275,0.3358131225864275,0.004546993681429315,-0.8485872933938372,0.6956091954001594,nan
1741085469.263179,-0.4909631293234383,-0.2896857241869723,-1.0825486797636412,0.4285973176201591,nan
1741085469.267083,-0.9872391454110119,-0.3405193608900008,-0.62554083440247,0.20036296691675307,nan
1741085469.270987,-0.8455608017552173,-0.07377349115860035,0.27405580441917565,0.1391533293340958,nan
1741085469.274891,-0.1784390342995632,0.31118142511118047,1.0083566919880245,0.10598309713722964,nan
1741085469.278795,0.5648111492089212,0.4830283118255376,1.0615461406109643,-0.11527252765986995,nan
1741085469.2827268,0.9070647870731491,0.25188301231167853,0.418117528103407,-0.5403136511933976,nan
1741085469.2866309,0.657249809029433,-0.24786875217323404,-0.4177546599460491,-0.8912889966383457,nan
1741085469.2905347,0.013761325832558851,-0.632752637862934,-0.8242215284804545,-0.8013420526738211,nan
1741085469.2944388,-0.596905053981111,-0.5656656719831655,-0.5600536889590453,-0.15796854929860468,nan
1741085469.2983427,-0.8121040001634235,-0.042181917843716714,0.057730012442439735,0.7205851703593594,nan
1741085469.3022468,-0.5464167842283915,0.5736785038750329,0.448592485105167,1.263082778570852,nan
1741085469.306151,0.000315649561119713,0.8135845288855474,0.283060961483945,1.0675046114415605,nan
1741085469.3100548,0.5073897352700917,0.47144161018139386,-0.2300522975125018,0.23290462138053303,nan
1741085469.313959,0.7293947475534082,-0.2213070118776807,-0.5392887391878955,-0.6847986620054144,nan
1741085469.317863,0.5981672288491838,-0.76170710337509,-0.2631026885594159,-1.0807578180134394,nan
1741085469.3217669,0.20472800086508994,-0.7590296483725997,0.4335607323608611,-0.7560391955926261,nan
1741085469.325671,-0.27752101016894726,-0.23271085643512762,0.9461218086664155,-0.05172710796946681,nan
1741085469.329602,-0.6599301011752039,0.4127278567103084,0.7497556581349576,0.448805996371591,nan
1741085469.333506,-0.7818992559689748,0.7113090779087132,-0.11214616684571845,0.40381345452139683,nan
1741085469.33741,-0.5581012009899801,0.4920906174890414,-1.009199892592105,-0.01976654570746484,nan
1741085469.341314,-0.03824103985367627,-0.016977423834710965,-1.2206112882094122,-0.3190434891511303,nan
1741085469.3452182,0.566065105855688,-0.40674977864806094,-0.5418255067309949,-0.11912195533197122,nan
1741085469.349122,0.9491708742373026,-0.4273390491245745,0.5191428877966082,0.4707820468721746,nan
1741085469.3530262,0.8750274959653296,-0.16129515913718484,1.1416921439133016,0.922104431010575,nan
1741085469.3569303,0.3422612003706231,0.10127689839339458,0.8665652460312189,0.7307230345907509,nan
1741085469.3608341,-0.3800583078154232,0.1505624114103062,-0.02441615994358087,-0.12815499331922103,nan
1741085469.3647382,-0.900422288291354,0.03606267110756722,-0.7526190306877489,-1.1218249750582265,nan
1741085469.368642,-0.9495451076303199,-0.022656973923510862,-0.7110713832409578,-1.539549213483535,nan
1741085469.3725462,-0.5462247313578605,0.10447933725460203,0.01235614353443313,-1.0325913247346252,nan
1741085469.376477,0.04014937099203049,0.2917660685139973,0.7121655358235496,0.11514741532787304,nan
1741085469.380381,0.49605400236938363,0.2646680797521925,0.6869667083812753,1.1948700429616712,nan
1741085469.384285,0.6695720254835988,-0.10358604656209859,-0.12449513057226493,1.5821253130430182,nan
1741085469.388189,0.6140013082955861,-0.5915618232899996,-1.0495272900425097,1.1430021822546126,nan
1741085469.3920932,0.45702139744384435,-0.7529465241471128,-1.2316138111879316,0.2443196501985139,nan
1741085469.395997,0.24168285578933807,-0.3037308337419822,-0.3721104953386428,-0.5851020083793673,nan
1741085469.3999012,-0.09338530769686751,0.5544989255050456,0.9673649696658145,-1.0251786217362289,nan
1741085469.4038053,-0.569858173842266,1.19655986597654,1.7752682717729638,-1.0735261769168922,nan
1741085469.4077091,-1.0155014460563796,1.0354086796705944,1.3899376132692978,-0.8709645714293411,nan
1741085469.4116132,-1.0940385733245968,0.03641569882789104,0.03450358594237815,-0.4811854262784085,nan
1741085469.415517,-0.5572495042643124,-1.1590889496071854,-1.3508280014082303,0.12876858595146667,nan
1741085469.4194212,0.4693662360134845,-1.660493327847306,-1.8353380326868842,0.8987207304992451,nan
1741085469.4233518,1.4422988795248055,-1.0113453897213365,-1.1853176544528619,1.5145644897692414,nan
1741085469.4272556,1.710099024377111,0.40942256133930377,0.03196248342438604,1.519571249819163,nan
1741085469.4311597,0.9908190560429642,1.6185081331053817,0.9680131974220959,0.6804528417837384,nan
1741085469.4350638,-0.35446996428192656,1.7469731101658632,1.1614278417683155,-0.6973732701554105,nan
1741085469.4389677,-1.5090706931480673,0.6983732546737749,0.7925714191869361,-1.8396173609250106,nan
1741085469.4428718,-1.7543839762169784,-0.7743605824921945,0.36237335195224646,-1.9958913969251602,nan
1741085469.446776,-0.984325050994749,-1.6408361981587236,0.1518433026365062,-1.009418906676249,nan
1741085469.4506798,0.22507349966701984,-1.3644024137932529,-0.008057994477142567,0.5069138982249721,nan
1741085469.454584,1.0590571009216663,-0.2663888252195539,-0.4478048566824412,1.5792683819142412,nan
1741085469.458488,1.075827634716388,0.7870325003849225,-1.158517593490987,1.5810515068980615,nan
1741085469.4623919,0.49746160714960086,1.0938373326374826,-1.6137246097603954,0.6836816151062891,nan
1741085469.466296,-0.0496053364737726,0.6297833993171104,-1.1642221598386193,-0.3216436578567595,nan
1741085469.470226,-0.11434976595088489,-0.03663244676963735,0.29683935421955915,-0.6913266776979232,nan
1741085469.4741302,0.18401227871282363,-0.31113959233288446,2.0177025334865615,-0.33175256097233385,nan
1741085469.4780343,0.2974502468068353,-0.10078663909004922,2.8008075776450725,0.17307969711646412,nan
1741085469.4819381,-0.1887406104830946,0.1637144864984173,1.9024688694917822,0.1343237289869193,nan
1741085469.4858422,-1.0744410730568357,0.010007534478238848,-0.2949851379896802,-0.5653291669685514,nan
1741085469.489746,-1.6062366775435795,-0.5522373986449881,-2.437837175205512,-1.2972036328434478,nan
1741085469.4936502,-1.0893801810411678,-0.9746089299601394,-3.1343522173328635,-1.203039374162807,nan
1741085469.4975543,0.43990146864724633,-0.6674204611790975,-1.966244240103744,0.011126728200408801,nan
1741085469.5014582,2.0778952804717465,0.38335443464005103,0.2201023746004076,1.689667915724223,nan
1741085469.5053623,2.6424292035703556,1.4650865487474902,1.976310556033123,2.628272308540997,nan
1741085469.5092664,1.573139672964169,1.6585893429375567,2.3317763004691985,1.988163419956544,nan
1741085469.5131702,-0.5691181041805574,0.6333991510857915,1.4232577546754597,-8.429191150856817e-05,nan
1741085469.5171003,-2.4362331371037245,-0.971417201907838,0.20069811252074762,-2.128242327795669,nan
1741085469.5210042,-2.8399760849663154,-1.9689430573993632,-0.47762413545904164,-3.0537574989983236,nan
1741085469.5249083,-1.5935081036421215,-1.5621887179366682,-0.541501046523683,-2.246446453221337,nan
1741085469.5288124,0.39900282532258297,-0.03302067964578659,-0.5916432894397171,-0.3119172149530494,nan
1741085469.5327163,1.855266491737636,1.4294434240764042,-1.1151258099732648,1.5239022090803054,nan
1741085469.5366204,2.0467322057354282,1.675245084479085,-1.807664057809436,2.3146987993038324,nan
1741085469.5405245,1.2155667782814188,0.5558543225797837,-1.7106536128231355,1.9535193114280536,nan
1741085469.5444283,0.19667269492268638,-0.9203870761865873,-0.13669502343675452,1.0084658428684303,nan
1741085469.5483325,-0.36527974618426345,-1.4206180957840995,2.417233412172894,0.08834870570012371,nan
1741085469.5522363,-0.4982000704827999,-0.4482188442623988,4.280568863539491,-0.635140772419209,nan
1741085469.5561404,-0.6837321116425068,1.155857106564528,3.7396255049948426,-1.332535643274289,nan
1741085469.5600445,-1.1908392202950846,1.8587592021467867,0.497428407815995,-2.019111307361074,nan
1741085469.5639741,-1.6377121663186083,0.7595457881603949,-3.7437474669586144,-2.2387445236750043,nan
1741085469.5678782,-1.2610892876990214,-1.503754505503973,-6.213031677757087,-1.3560004076444085,nan
1741085469.5717824,0.2886333236023949,-3.096412054969264,-4.981985891283807,0.723115015829323,nan
1741085469.5756862,2.3516958200540867,-2.4180045312099536,-0.4754727124240185,3.0839924393885307,nan
1741085469.5795903,3.504305618410931,0.47848867569304043,4.610004237197649,4.171122663772652,nan
1741085469.5834942,2.595287925375029,3.6753574363513026,7.034993102042544,2.885645638224281,nan
1741085469.5873983,-0.20949284181714836,4.692193605414173,5.209744934840941,-0.4007771268203189,nan
1741085469.5913024,-3.2850738608872896,2.3952208321809443,0.28690052708938213,-3.8143418255849406,nan
1741085469.5952063,-4.565842776959359,-1.9583069777972661,-4.626525522395531,-5.132697367966098,nan
1741085469.5991104,-3.04100073579747,-5.436681764208283,-6.559786137867755,-3.364329009844794,nan
1741085469.6030145,0.41439068709957205,-5.4856633136592805,-4.582860553015138,0.44080624558799614,nan
1741085469.6069183,3.5705722138252667,-1.831845368362214,-0.23585052406186893,3.838590009669198,nan
1741085469.61085,4.398620536727951,3.2020743324036363,3.691313394221031,4.685110664858625,nan
1741085469.6147542,2.499165715597841,6.261200878472162,5.045600866294678,2.6333058152735505,nan
1741085469.6186583,-0.6729612946195374,5.2962396498850834,3.526694527410392,-0.6942165893149493,nan
1741085469.6225622,-2.9413988709360845,0.985576298324496,0.5268783055153593,-2.9739922074300904,nan
1741085469.6264663,-3.0045562050132038,-3.775149698316688,-2.060014550090957,-2.8987008689907476,nan
1741085469.6303704,-1.2673598928997478,-5.9147042539683845,-3.067745238643402,-1.0204447047110834,nan
1741085469.6342742,0.6789014134713428,-4.263853179303076,-2.505014854842194,0.8833048068655592,nan
1741085469.6381783,1.42719156240051,-0.20687656345423427,-1.135316692062582,1.3404250045994355,nan
1741085469.6420822,0.8245722813082936,3.4598504094977525,0.25392282814635186,0.33849741669798,nan
1741085469.6459863,-0.10255540836048646,4.5280996089376035,1.265205561605633,-0.8167451234855805,nan
1741085469.6498904,-0.22205335655570382,2.7644090871701503,1.8052173299104588,-0.7622417160661471,nan
1741085469.6537943,0.6136731826015352,-0.21962344527662933,1.8057619671868823,0.6481434083126348,nan
1741085469.6577258,1.4281572097326367,-2.3410531665555854,1.1546289735300175,2.1579104118149237,nan
1741085469.66163,1.0555588413902997,-2.528804822610309,-0.08165687302109241,2.184717632640613,nan
1741085469.6655338,-0.6783474603708788,-1.2431168363058218,-1.4385312003499315,0.25642811122575043,nan
1741085469.669438,-2.600510309978671,0.19404099301178568,-2.1797211532595373,-2.424281855288262,nan
1741085469.673342,-3.04760571261177,0.7675730205545108,-1.7792578472625993,-3.8161087205774455,nan
1741085469.6772459,-1.2769400154038184,0.4669201711381607,-0.38179838505509467,-2.6476838702914596,nan
1741085469.68115,1.7510594400765427,0.04416489015261021,1.1935172464356147,0.49162156552012104,nan
1741085469.685054,3.940181684413574,0.17239098246757006,1.9847553081895648,3.4851003889611842,nan
1741085469.688958,3.6073802738523884,0.7905788597443257,1.5679637970235376,4.22751770348484,nan
1741085469.692862,0.8162164004919016,1.1850996811598622,0.34429841843054343,2.190333252937031,nan
1741085469.6967661,-2.5786955095370576,0.6904894217646315,-0.801053963864643,-1.1911443789320608,nan
1741085469.70067,-4.253856565836429,-0.6298524282359816,-1.185340399475053,-3.591582745295726,nan
1741085469.7046013,-3.1085651246059127,-1.9234996709557914,-0.7965676175492149,-3.487741353988859,nan
1741085469.7085054,-0.0372131585071132,-2.1756699502412835,-0.18005333267641369,-1.1843424836894954,nan
1741085469.7124093,2.785371147142748,-1.0193333670386389,0.11483357622631639,1.5479245485099582,nan
1741085469.7163134,3.5215282295878922,0.9202335893475952,0.016402810612094886,2.8575599549586177,nan
1741085469.7202172,1.9413222582740512,2.4220792824009325,-0.08278284149879521,2.1154251536588156,nan
1741085469.7241213,-0.5770704771790284,2.5094583428919486,0.20384794254075872,0.1869764882965257,nan
1741085469.7280254,-2.2169690504701913,1.1138637721835654,0.7902846240846703,-1.4085262258924751,nan
1741085469.7319293,-2.079235725230705,-0.8989696168507955,1.117828650394863,-1.6864107309793719,nan
1741085469.7358334,-0.6833559982233165,-2.3222780493774535,0.6587152556363017,-0.7968572762144788,nan
1741085469.7397375,0.6680685890311127,-2.3769942135128113,-0.5171260545525087,0.3246527468425218,nan
1741085469.7436414,1.0261810541420269,-1.1408029858468067,-1.6506132500773978,0.8308681301724254,nan
1741085469.7475455,0.46989080975324843,0.5907909814294425,-1.8275537685051757,0.5850724890075515,nan
1741085469.7514763,-0.16819051993423415,1.8447752165175102,-0.7366888717693933,0.07859901471361293,nan
1741085469.7553804,-0.17630407779048038,2.0270676169707142,0.9850375612437022,-0.15777800513448864,nan
1741085469.7592843,0.3806239085427375,1.1764925097974155,2.1533775794877523,-0.04896331409128642,nan
1741085469.7631884,0.7847423049810314,-0.1581494343244775,1.9108085523189915,0.057199674185810886,nan
1741085469.7670925,0.40730552250747376,-1.2695498762908968,0.39416994576556486,-0.14827342479882952,nan
1741085469.7709963,-0.6343759632116474,-1.6492249053840122,-1.3425805405313314,-0.5411415576595996,nan
1741085469.7749004,-1.5114308777514738,-1.1914913796532618,-2.10464749159729,-0.644914742998393,nan
1741085469.7788045,-1.3882004643883281,-0.19435196140625832,-1.4318525709143355,-0.12262748979240193,nan
1741085469.7827084,-0.17902900013244682,0.8101656068913841,0.09988994132977035,0.7956569497374216,nan
1741085469.7866125,1.3103364627495317,1.3182742646101195,1.361863090649554,1.3920647137264208,nan
1741085469.7905164,1.993541663582399,1.1021892567833014,1.5348093545953663,1.0369376939139872,nan
1741085469.7944205,1.360297508786452,0.32620936912831416,0.6710884098287604,-0.21657987610813648,nan
1741085469.798351,-0.13053494341064242,-0.5447189675450164,-0.4478263528065387,-1.557616740906484,nan
1741085469.8022552,-1.4312220862018374,-1.0140684403270808,-0.9862279624742101,-1.983000565367169,nan
1741085469.806159,-1.721181841309749,-0.85077726678721,-0.6878199376546238,-1.078334288545281,nan
1741085469.8100631,-0.9808855176485632,-0.22349360929618034,0.020948815678964786,0.6156890860077583,nan
1741085469.813967,0.11274006086394474,0.4260294971714118,0.4783807753298601,1.9650803886770272,nan
1741085469.817871,0.8137726505064763,0.6895032560111064,0.36170953558624896,2.0642735361890585,nan
1741085469.8217752,0.880864050156379,0.46318526395586673,-0.096104517691519,0.8834974074359656,nan
1741085469.825679,0.6222833717252404,-0.010326246827010546,-0.3871554901673902,-0.7461167290706722,nan
1741085469.8295832,0.4466064016833621,-0.3518678136459938,-0.21643565629161066,-1.7685901790368947,nan
1741085469.8334873,0.3994524138775219,-0.33829890344232844,0.24409100155665853,-1.6457464829503132,nan
1741085469.8373911,0.1507710901660931,-0.051054364584463975,0.5395774173560348,-0.6493071440337349,nan
1741085469.8412952,-0.5566973284244072,0.22402162859826816,0.3636654481791463,0.45936424859703723,nan
1741085469.8452256,-1.4561867605326335,0.24834216551825491,-0.1589902574506316,1.0385165419795588,nan
1741085469.8491294,-1.8040244285067837,0.02095420378635718,-0.5847281446536149,0.9623162504630643,nan
1741085469.8530335,-0.9821716836842079,-0.2421686653694051,-0.5459739307778303,0.5446924812536695,nan
1741085469.8569374,0.8319677113277184,-0.3068098704233638,-0.07363336274955509,0.15215282581643474,nan
1741085469.8608415,2.563031959588985,-0.11878808682757978,0.4337738781299674,-0.10357733095465779,nan
1741085469.8647456,2.9142085193154488,0.16387987603727167,0.558507565887696,-0.33892402843724173,nan
1741085469.8686495,1.3699603849136075,0.31871667980562723,0.21972452679031287,-0.6298921869021071,nan
1741085469.8725536,-1.2705505170707592,0.24632457910163663,-0.26928035689218993,-0.8200222871772164,nan
1741085469.8764577,-3.323640081251429,0.034727358813106374,-0.48223147583079173,-0.6287642133352401,nan
1741085469.8803616,-3.3712085981116435,-0.14181604477585932,-0.247704788758216,0.0302354580962219,nan
1741085469.8842657,-1.2966346974447587,-0.18229946859140195,0.2129882218783531,0.8431531415217263,nan
1741085469.8881695,1.5832982572122365,-0.1267349502693597,0.48688152011478125,1.2489504633424033,nan
1741085469.8920999,3.414778216281528,-0.07997954649866523,0.3267688942639807,0.8736623557363868,nan
1741085469.8960037,3.082469581110349,-0.08139307323443912,-0.1420939083802492,-0.11307383889228804,nan
1741085469.8999078,0.9360762256550932,-0.06043930094239297,-0.5331381124372802,-1.0529182638443244,nan
1741085469.903812,-1.5335636619588657,0.07124557883528068,-0.5218762128063391,-1.2687828859794545,nan
1741085469.9077158,-2.7815009743624453,0.2847462417143614,-0.10628257741864365,-0.5935980788383871,nan
1741085469.91162,-2.2340631702123175,0.40634761255151935,0.402841674923337,0.47479190360355367,nan
1741085469.915524,-0.5361195060447198,0.2549351732716797,0.635580659600392,1.138806389536411,nan
1741085469.9194279,1.0658591505453434,-0.16316495890427468,0.4419565025468572,0.9119129329654921,nan
1741085469.923332,1.6551974902660884,-0.5902409928588036,-0.020800590550320578,-0.006255872720539922,nan
1741085469.927236,1.1817043004042083,-0.6797187828915364,-0.43504798267423683,-0.8895625066576383,nan
1741085469.93114,0.28475521717596075,-0.2809609135893524,-0.5599545856697871,-1.0534121581651734,nan
1741085469.935044,-0.3357924220905598,0.3901474725954259,-0.3706899384652421,-0.38172833263700995,nan
1741085469.9389763,-0.44028856746354883,0.8654975334810272,-0.02238913951877492,0.5974414933086448,nan
1741085469.9428804,-0.2820213638540116,0.7672170909242118,0.28868940311138575,1.1342002481319122,nan
1741085469.9467843,-0.22786515721451445,0.11775524702923568,0.43782904329309846,0.8333925435701777,nan
1741085469.9506884,-0.3690322763429846,-0.6424140019392645,0.3938313849126528,-0.06397698538458518,nan
1741085469.9545925,-0.4691118566988159,-0.9678381647127833,0.18592834589278914,-0.8938182483564393,nan
1741085469.9584963,-0.2522373723070856,-0.6204581530397288,-0.11616640974720743,-1.0840147044972825,nan
1741085469.9624004,0.27367088993421335,0.14338410779775757,-0.39477046417728856,-0.5609244282034304,nan
1741085469.9663043,0.7720689244484013,0.7660069911256838,-0.49969280666695715,0.24828324854828554,nan
1741085469.9702084,0.8520516961230826,0.814057698010804,-0.32833430031508487,0.7793932863144053,nan
1741085469.9741125,0.4093799478807007,0.3010006265159756,0.06956224594111904,0.7486659522187817,nan
1741085469.9780164,-0.27142070248114947,-0.3465261959924597,0.46786536518846017,0.3055304137298032,nan
1741085469.9819205,-0.7399712099861492,-0.6427441564200619,0.5879824174794829,-0.15742380351379773,nan
1741085469.9858522,-0.7290924070073493,-0.4237486709386123,0.30885767665484326,-0.3415894743529191,nan
1741085469.9897563,-0.3334676035758421,0.052258339795983925,-0.2041531197036395,-0.24367327163793404,nan
1741085469.9936602,0.11466942444121477,0.3542835290833171,-0.5857853260371363,-0.0849914942758888,nan
1741085469.9975643,0.33849718799681666,0.25494225669775933,-0.5386922885510694,-0.06916362578122572,nan
1741085470.0014684,0.3133122356603861,-0.08825901028210058,-0.08045112760576446,-0.19471033405631047,nan
1741085470.0053723,0.21286443286242973,-0.29566632091063133,0.4438079344962497,-0.27549242826039755,nan
1741085470.0092764,0.18889092361507234,-0.12371176988925388,0.6192942695968248,-0.13122858017117658,nan
1741085470.0131805,0.2111684643185713,0.2982976333793325,0.29661981673492055,0.22910604622670427,nan
1741085470.0170844,0.12051276634704686,0.5657789723402735,-0.27257347341987026,0.5883602373622876,nan
1741085470.0209885,-0.16707649761798515,0.3552488668488098,-0.6265979124008461,0.6781214233639474,nan
1741085470.0248923,-0.5165754045777958,-0.264262583302965,-0.46860731237411635,0.38146967273077304,nan
1741085470.0287964,-0.6476770868866493,-0.8408503802954101,0.08152220309279001,-0.17399879873324425,nan
1741085470.032728,-0.37670814480678905,-0.8825440712438022,0.5754828222063668,-0.6931027143401703,nan
1741085470.036632,0.1895415260779135,-0.26386045819598103,0.6026264993044509,-0.8935262227216382,nan
1741085470.040536,0.694998516919517,0.6370960391950837,0.13379374493106796,-0.6640166270357206,nan
1741085470.04444,0.794298220089385,1.194488319868661,-0.4475601038226909,-0.11153301962926397,nan
1741085470.0483441,0.41967694978632547,0.9938007427854978,-0.6602055424738583,0.5070034385476361,nan
1741085470.052248,-0.16910115184995314,0.14168504173976607,-0.3269792412315521,0.9111438051183784,nan
1741085470.056152,-0.5913739854207825,-0.8084744520780087,0.2740001224928801,0.9166097500979234,nan
1741085470.0600562,-0.6307223679417105,-1.251534658988326,0.6396587743371553,0.5088384597114715,nan
1741085470.06396,-0.3616573902338932,-0.9430127114513953,0.4635498793775111,-0.14607320748523508,nan
1741085470.0678642,-0.02988382706695371,-0.13050753104100773,-0.10552733762435929,-0.7596189764405703,nan
1741085470.0717683,0.1820771312767163,0.6632718307036019,-0.5872329649636452,-1.0407725421204892,nan
1741085470.0756721,0.2807715782150901,1.0111115749026733,-0.5731257444501889,-0.8380743966839964,nan
1741085470.0796034,0.37375443969261724,0.8232851998292599,-0.07041245009747486,-0.23244852951215084,nan
1741085470.0835075,0.47701018213016916,0.3161574734952108,0.5035882983149197,0.4853689987484058,nan
1741085470.0874114,0.43574706766265586,-0.20874250665920188,0.670975903791714,0.9594947419153068,nan
1741085470.0913155,0.06997848721036078,-0.5651590034526497,0.29166866803055214,0.9608715619833026,nan
1741085470.0952196,-0.5740069590454957,-0.7171472367833583,-0.32360668303487033,0.5105457418627604,nan
1741085470.0991235,-1.123857763583495,-0.679255848480632,-0.6767144459507846,-0.1430373706566867,nan
1741085470.1030276,-1.0913676826557195,-0.43090654462315914,-0.495477039870743,-0.6739322484029946,nan
1741085470.1069317,-0.2779331506961407,0.046253865222012226,0.05127890592230954,-0.8549189159708859,nan
1741085470.1108356,0.9531696620165843,0.6487379540528789,0.5110153912962199,-0.652763520636839,nan
1741085470.1147397,1.8151492410895844,1.099282041458234,0.53331199525533,-0.20417879489307822,nan
1741085470.1186438,1.61756308869576,1.0709519414829758,0.1517486433041933,0.28220304683985575,nan
1741085470.1225476,0.31079162002185745,0.43300998521179257,-0.2719711037270498,0.6207063641494255,nan
1741085470.1264787,-1.3744530105382262,-0.5741626484691228,-0.37966669812902193,0.6975800614794008,nan
1741085470.1303828,-2.3531886836114286,-1.409354211001102,-0.12701260825358543,0.4860239167374677,nan
1741085470.1342869,-1.9159638491598312,-1.5438875139479438,0.1974302095634385,0.05657028008691202,nan
1741085470.1381907,-0.24914449356754903,-0.8182875356895358,0.2530295400668201,-0.4195534441126786,nan
1741085470.1420949,1.6426430841109694,0.413931147226357,-0.028916730721636977,-0.7117452594264714,nan
1741085470.1459987,2.579908437451647,1.4735632661586033,-0.371853332993623,-0.6385023798707894,nan
1741085470.1499028,1.9795486559470024,1.760813292081475,-0.4024569240168758,-0.19818618743064406,nan
1741085470.153807,0.2254001216266815,1.113560085694479,-0.0043217712534951306,0.3796999286806774,nan
1741085470.1577108,-1.602890928607983,-0.10816353612073197,0.540446927091643,0.7397376423482611,nan
1741085470.161615,-2.4359542221795327,-1.248259296481562,0.761894534310554,0.6277920495791862,nan
1741085470.165519,-1.8674816487618298,-1.730011108212829,0.4002051370653474,0.08953683859192571,nan
1741085470.1694229,-0.338127638278915,-1.3490990390466873,-0.34479931079714293,-0.523359936717632,nan
1741085470.1733534,1.2173614544598998,-0.33684283662743375,-0.935422592337451,-0.7776925270886418,nan
1741085470.1772575,1.9723604717960455,0.7981537662257078,-0.9062077626278159,-0.4714396014247858,nan
1741085470.1811614,1.6538106575528904,1.5295914291175514,-0.2365507501719658,0.19799942578301494,nan
1741085470.1850655,0.5905733175798463,1.5401525359459856,0.6164568639933026,0.7544830302083699,nan
1741085470.1889696,-0.5830044907477988,0.8369144906776076,1.0558019424867253,0.7827416204090338,nan
1741085470.1928735,-1.3166416974426802,-0.2618516099742443,0.7881493384592761,0.24005434538195808,nan
1741085470.1967776,-1.3833545517351507,-1.2539826305249113,0.029078088884064303,-0.49975657711078364,nan
1741085470.2006814,-0.8861414229997586,-1.6622484677555576,-0.6783991851760127,-0.9128580381938124,nan
1741085470.2045856,-0.11410702059851252,-1.260248483161846,-0.8750508805215671,-0.7070548024339317,nan
1741085470.2084897,0.616634537105113,-0.21324912885637495,-0.5020958356813635,-0.03163850507885822,nan
1741085470.2123935,1.0599030103982845,0.9649145045224724,0.10524590668769698,0.6407048806449064,nan
1741085470.2162976,1.0810914418321107,1.6576624190806293,0.5097165787229567,0.8643092180692159,nan
1741085470.220228,0.680985760217232,1.4841853529478661,0.4978422389117417,0.5334735415571377,nan
1741085470.2241318,0.00838172101664763,0.5328128343390364,0.19045777713353193,-0.0726998336261288,nan
1741085470.228036,-0.6697377792492882,-0.6718255257795759,-0.11443742602769327,-0.5281129466715142,nan
1741085470.23194,-1.0638207701240683,-1.468903822781714,-0.20384084934422364,-0.5782668282614891,nan
1741085470.235844,-0.9946585861332929,-1.4493040261355354,-0.09475137001767739,-0.29204834310707384,nan
1741085470.239748,-0.4898637218026048,-0.6842683700603345,0.034044802821714355,0.04908183402802095,nan
1741085470.2436519,0.2210930266605664,0.34852972175357777,0.03209335202789654,0.2047858234311702,nan
1741085470.247556,0.8171570172911161,1.0795959253161178,-0.08960000144012145,0.15191597881574898,nan
1741085470.25146,1.0393043726759892,1.1835917589189873,-0.18862153019189581,0.05042750475401947,nan
1741085470.255364,0.8044362348442274,0.7213668913897162,-0.13762718435082183,0.056699424328111134,nan
1741085470.259268,0.22940693532789025,0.027210526871701637,0.054173902853513714,0.16694472587941558,nan
1741085470.2631721,-0.4309121111956622,-0.5390888771359643,0.24871306858792003,0.23102293852972244,nan
1741085470.267102,-0.8924545543526456,-0.7856021916375224,0.2979382252181048,0.11363660157219602,nan
1741085470.271006,-0.9546344605760312,-0.7170064898364459,0.16308888906977087,-0.15499567628233027,nan
1741085470.27491,-0.5839090055904074,-0.43623103576648137,-0.06387212532952237,-0.384393069427549,nan
1741085470.278814,0.059479632863476475,-0.043835087066833686,-0.24091526676144254,-0.38519257577101323,nan
1741085470.2827182,0.6748119397773777,0.37689310601830256,-0.2789414902867089,-0.14148845368363375,nan
1741085470.286622,0.9536942385799964,0.7123867878761047,-0.18418769641182797,0.16505557056442277,nan
1741085470.2905262,0.7437173829321312,0.8053392038514534,-0.024613946097836244,0.30739614032249774,nan
1741085470.2944303,0.1519617670508776,0.536207647584931,0.12883523725732665,0.20967203026498363,nan
1741085470.2983341,-0.4930247760838845,-0.049222436917776606,0.23017021153174502,0.011097137730753479,nan
1741085470.3022382,-0.8239656328232732,-0.690811300345867,0.24915790155208736,-0.06614220044508898,nan
1741085470.3061423,-0.6615293776811217,-1.0280261833176272,0.16317853341064534,0.06753835863697466,nan
1741085470.3100462,-0.13417941450272164,-0.8281696906938643,-0.020474629182462147,0.26555777154590093,nan
1741085470.313976,0.4026824285804851,-0.16675453917248304,-0.23214629016785251,0.26073058046643127,nan
1741085470.3178802,0.6052894019423568,0.5899276427413671,-0.3491278607792729,-0.08341223518988265,nan
1741085470.321784,0.37539556925092454,1.009014371704691,-0.26944456194222377,-0.5998719648193048,nan
1741085470.3256881,-0.0790629007218819,0.8699516119344991,-0.004206607946305054,-0.8919484452963482,nan
1741085470.3295922,-0.40351261956341616,0.2973238166735097,0.2964547548303637,-0.6259712323701633,nan
1741085470.333496,-0.36062359280990247,-0.3450251557939238,0.429080122569267,0.17359220812323606,nan
1741085470.3374002,-0.0028835544880543465,-0.7107417991146593,0.28499530927166056,1.0684692089237549,nan
1741085470.3413043,0.3741400366822574,-0.6825221958134878,-0.05466527987359197,1.4638367928532678,nan
1741085470.3452082,0.46032914660117974,-0.39168327951064225,-0.3635630022551258,1.0148531338657425,nan
1741085470.3491123,0.16724061602270002,-0.06066559952703577,-0.4313354043061862,-0.10494507078278427,nan
1741085470.3530164,-0.30493550373814465,0.17902060952113757,-0.21863829562515655,-1.2740832220837424,nan
1741085470.3569202,-0.6156548982159736,0.3399590523318657,0.11752533005053588,-1.7981865672356394,nan
1741085470.360852,-0.5319583635661224,0.4794160046887618,0.3478095603147826,-1.3438288256163713,nan
1741085470.364756,-0.09201378725670184,0.5665621436762467,0.34135979700266533,-0.1473051625518567,nan
1741085470.36866,0.42821321471862434,0.46455490893332857,0.14590585298270056,1.13025979350504,nan
1741085470.372564,0.7084199874608941,0.06454117501397956,-0.07829258894173177,1.7977198174404432,nan
1741085470.3764682,0.5909813944476306,-0.5446159462370976,-0.1999389717870193,1.5255775101624858,nan
1741085470.380372,0.16178095806040232,-1.0435923046934585,-0.20495536111107138,0.5043489763106604,nan
1741085470.3842762,-0.32983590380413685,-1.060201974106911,-0.16283543575393508,-0.6992473116917197,nan
1741085470.3881803,-0.6335710169617504,-0.4507131796668261,-0.12213217522425275,-1.475030501294912,nan
1741085470.3920841,-0.6271070608418162,0.5319457677392786,-0.05200816689478465,-1.4870670254264735,nan
1741085470.3959882,-0.3461053646770533,1.3395847072298492,0.10455348692433793,-0.8103324271378105,nan
1741085470.399892,0.06834613922454565,1.4612520049944673,0.3207940686982793,0.15819107247640932,nan
1741085470.4037962,0.44513418928964715,0.7669022815134177,0.4462223782404122,0.9355153263891809,nan
1741085470.4077277,0.6388378913301335,-0.38192477132658337,0.30882613916829094,1.1965370867241558,nan
1741085470.4116316,0.5653143963976793,-1.3413943627723792,-0.10863569443061122,0.9050595115623472,nan
1741085470.4155357,0.23330403656894913,-1.5783494073823467,-0.5824261824312225,0.28452540457454195,nan
1741085470.4194398,-0.23439859989025852,-0.9861021011228328,-0.7653356332231023,-0.3337122872537636,nan
1741085470.4233437,-0.6243548595627338,0.07626921107222358,-0.4502451500591199,-0.6901753831612771,nan
1741085470.4272478,-0.7235247790574549,1.0256979082739361,0.22601108324149222,-0.7071984644539505,nan
1741085470.4311519,-0.44653796653931355,1.4008700652236408,0.8283112540231248,-0.48029651270936935,nan
1741085470.4350557,0.08403322701308315,1.090806758617647,0.920244923330775,-0.17633271718800134,nan
1741085470.4389598,0.5802282790417389,0.33224974411696573,0.3998810051816037,0.08165303816721801,nan
1741085470.442864,0.752002830061876,-0.47543866189027634,-0.3948184741707739,0.26402039745697375,nan
1741085470.4467678,0.4940029244732162,-0.9910546012336549,-0.9151343549681848,0.3961279237221955,nan
1741085470.450672,-0.03530674852450766,-1.060809123142768,-0.8047858730602568,0.4807224675000219,nan
1741085470.4546032,-0.5084316989194608,-0.7239689842843711,-0.16734432073882277,0.4602102393110286,nan
1741085470.458507,-0.6412215935634422,-0.14568829579619558,0.5155643788722648,0.2610634559152018,nan
1741085470.4624112,-0.37782408981596044,0.4575776472731191,0.7554938113733823,-0.11357446458041547,nan
1741085470.4663153,0.08106915145113651,0.8748110104202376,0.42669035203963573,-0.5289331154340604,nan
1741085470.4702191,0.4244318639890235,0.9523209045619114,-0.15662209664816093,-0.7667949789474141,nan
1741085470.4741232,0.4448277702292643,0.650117085513113,-0.5104571059624692,-0.6604056476567711,nan
1741085470.4780273,0.16874502776306768,0.07850545119153457,-0.37478999841846405,-0.2215663111029729,nan
1741085470.4819312,-0.18174531857725057,-0.5267572138818376,0.08863928295631188,0.34142099547029375,nan
1741085470.4858353,-0.3573175768527179,-0.9034075015967996,0.448744793162376,0.7400059105970743,nan
1741085470.4897394,-0.2530849402424338,-0.8913556500377761,0.3740592092566918,0.7794009359515537,nan
1741085470.4936433,0.034177415447591265,-0.5130591316967001,-0.08898137081259974,0.4689220504043632,nan
1741085470.4975474,0.2904682328143508,0.047118557629105835,-0.5548302911423555,-0.003982177254761895,nan
1741085470.5014782,0.33823047059429634,0.5484877531445659,-0.6173081323768197,-0.4056972463695093,nan
1741085470.505382,0.14935876059433087,0.8116220832357226,-0.1835826245334496,-0.590744303570708,nan
1741085470.5092862,-0.15024544912561963,0.7765509825867801,0.44639414535566135,-0.5480435404428037,nan
1741085470.5131903,-0.37205953027799915,0.48579935795123314,0.8123905322685749,-0.3510872793433363,nan
1741085470.5170941,-0.3821166174336207,0.03510961250775753,0.6452681507079837,-0.08038564616129523,nan
1741085470.5209982,-0.17197111987512564,-0.4553576885528586,0.059691067800683104,0.20791239695489194,nan
1741085470.5249023,0.14688024831317312,-0.8398296372043673,-0.5489228519220511,0.4562907344803568,nan
1741085470.5288062,0.40805514033005214,-0.9559082768849781,-0.8018587098211656,0.578142825702761,nan
1741085470.5327103,0.4739922552903794,-0.6854810996160254,-0.5889614675529062,0.48600573415367854,nan
1741085470.5366144,0.3004436740299967,-0.053617599107840676,-0.09769819927295466,0.16953716008989464,nan
1741085470.5405183,-0.04105000094691966,0.7118319460108176,0.3644467510263006,-0.2502828511631876,nan
1741085470.5444224,-0.3905413089663865,1.2415507531118732,0.5849462544144641,-0.5628544640942631,nan
1741085470.548353,-0.5700369038081782,1.2122732380831753,0.5352725106145854,-0.5984898939160366,nan
1741085470.552257,-0.4717263925454824,0.5595722786635468,0.30765450974455594,-0.35194997420923346,nan
1741085470.556161,-0.12268973722324814,-0.4333850536856786,0.004395469202543956,0.008635463624710378,nan
1741085470.560065,0.3143048300169046,-1.258534087763449,-0.30481552782367877,0.26730374322261347,nan
1741085470.563969,0.6159001220928718,-1.46467095040785,-0.5441439976310485,0.3227494444138397,nan
1741085470.567873,0.6160219939374084,-0.9274089767115837,-0.5987617733252922,0.2495108894207546,nan
1741085470.571777,0.30107091653325896,0.06897234819677107,-0.36963618958894895,0.2015045238455417,nan
1741085470.575681,-0.1759570158412318,0.9953730644549861,0.1089787080345177,0.24273077495406734,nan
1741085470.579585,-0.5742096998318702,1.38370721538955,0.6111221425184585,0.265307892011405,nan
1741085470.5834892,-0.6920933171862148,1.0813690028692844,0.8199039044408574,0.08738281830781895,nan
1741085470.587393,-0.4705493197180994,0.30406304530234246,0.5501645960416867,-0.33995447573904325,nan
1741085470.5912971,-0.01834875176645037,-0.5237478687426835,-0.076809764604135,-0.8058401696953731,nan
1741085470.5952275,0.44677033262652516,-1.0185135962847254,-0.6719420734282074,-0.9392292766947036,nan
1741085470.5991316,0.7035744605193008,-1.0185835245999177,-0.8367986329783431,-0.4952275690132813,nan
1741085470.6030354,0.6270258357411904,-0.6097751908543132,-0.45931635348151456,0.3911335423331154,nan
1741085470.6069396,0.24295877437864233,-0.02273262742792348,0.18879463539633393,1.2142549359019572,nan
1741085470.6108437,-0.2785909377895423,0.5016207483065773,0.6457124264886708,1.4120501751304158,nan
1741085470.6147475,-0.6894010113267713,0.7967788524943991,0.6049567695445863,0.7762736931387566,nan
1741085470.6186516,-0.7713191021839496,0.7901752390384057,0.14347714064290934,-0.354532953529496,nan
1741085470.6225557,-0.4501906092818201,0.4944466226063939,-0.35006761066090575,-1.2911617389418366,nan
1741085470.6264596,0.14013486745171277,0.004774437860915555,-0.49013105626628206,-1.4579906900263375,nan
1741085470.6303637,0.6961210005263392,-0.5046078395496455,-0.19853923043728697,-0.7891614536827001,nan
1741085470.6342678,0.8933924471444982,-0.8199121715899234,0.2463782899216118,0.2395656440852589,nan
1741085470.6381717,0.5812106201679901,-0.7780975102969737,0.4508735751022291,0.9660234394399788,nan
1741085470.642102,-0.09593455801979672,-0.36867442054645944,0.23491636666666604,1.0112639242014543,nan
1741085470.6460059,-0.7492119033191189,0.2276626328594029,-0.22177968296248438,0.5082985840094523,nan
1741085470.64991,-0.9678913969391,0.713212137580551,-0.5331673566568992,-0.06845656382887741,nan
1741085470.653814,-0.5878630260142614,0.8339409213407651,-0.428043964272157,-0.31332907290545875,nan
1741085470.657718,0.17523696309538014,0.5304412952961,0.027568849340480386,-0.19685356288022524,nan
1741085470.661622,0.8396295536423769,-0.02237726561479847,0.4862014392798521,-0.027301584679677148,nan
1741085470.665526,0.965035796284976,-0.518564531889232,0.600180442506576,-0.11902544969057975,nan
1741085470.66943,0.45521416509192597,-0.7026337790607289,0.2939742530867302,-0.46713405928786633,nan
1741085470.6733341,-0.35929827695397304,-0.5122745300702325,-0.19026640395835223,-0.7205253725654767,nan
1741085470.677238,-0.9317429360537607,-0.09495484809984092,-0.49837963046328665,-0.4892894911506828,nan
1741085470.681142,-0.8700727305381296,0.30100062528231225,-0.4416355448050129,0.26930560902101935,nan
1741085470.6850462,-0.21251699721969303,0.4794748587396205,-0.12037547209331063,1.1247954759794883,nan
1741085470.6889758,0.5909180716409865,0.39440967694400486,0.19079369303276564,1.4451310320175852,nan
1741085470.69288,0.9858749858516713,0.14340894533447499,0.28042906260519773,0.8779465200393136,nan
1741085470.696784,0.6982288629854154,-0.11735302382138162,0.15457684106397007,-0.3324638963179232,nan
1741085470.700688,-0.07444605456363917,-0.2678363941065879,-0.009507594085981548,-1.4574231309899122,nan
1741085470.704592,-0.7999865876721999,-0.2710862698762425,-0.047892472853236924,-1.7666536540183808,nan
1741085470.708496,-0.9805679328940475,-0.1618219550932097,0.04211452729904081,-1.0364551526485302,nan
1741085470.7124,-0.4942657517451686,-0.006101567808202761,0.11875386064981834,0.28766044506701877,nan
1741085470.716304,0.3270101010191347,0.13246164678476854,0.04973157498667944,1.391098455173622,nan
1741085470.720208,0.9309493327292138,0.20668524432831492,-0.14666048063461593,1.6333480414152861,nan
1741085470.724112,0.9209736420090526,0.19001495763907095,-0.30593668442043087,0.9485414301863383,nan
1741085470.7280161,0.31493928965229817,0.08394657410517442,-0.2640459599086468,-0.16160710619923563,nan
1741085470.73192,-0.4821533337280408,-0.07318832125566248,-0.012906761192210245,-1.004651223639812,nan
1741085470.7358541,-0.958492021711848,-0.21083145349866259,0.2770036996364398,-1.1538822589016948,nan
1741085470.7397583,-0.8292708714907134,-0.2539630818527953,0.3906629335049254,-0.6702636225884449,nan
1741085470.7436624,-0.2032105033748852,-0.16427486433924834,0.24452330358162672,0.025093152682487255,nan
1741085470.7475662,0.5124427163268882,0.030618993338673326,-0.0464281795559036,0.4878250061474233,nan
1741085470.7514703,0.8858199375784243,0.24182709249657153,-0.26604762880957583,0.5347875126683779,nan
1741085470.7553744,0.7246915210791521,0.3589885347591513,-0.27282494638112265,0.2944996792677434,nan
1741085470.7592783,0.16848812275318073,0.30509544173374387,-0.10426032823730343,0.03673458203529788,nan
1741085470.7631824,-0.42902321929895204,0.07883708295049303,0.07331442205351452,-0.05395142792615906,nan
1741085470.7670865,-0.730560776520146,-0.2348224517602871,0.11735701708512913,0.010987381963822195,nan
1741085470.7709904,-0.6073723350255213,-0.49113198472120884,0.02744154405720001,0.0837244643121653,nan
1741085470.7748945,-0.18415770371628498,-0.5430674199031361,-0.07040082804324842,0.03133397713835008,nan
1741085470.7787986,0.26869650695977765,-0.31428130203077714,-0.05142629585840574,-0.15073112730110877,nan
1741085470.7827299,0.5100712753045596,0.14025627466369478,0.08697128238469108,-0.3402654770604097,nan
1741085470.786634,0.45776504349716,0.623806863750043,0.21939930170344657,-0.38597819064095235,nan
1741085470.790538,0.20390458307031772,0.8673856007107404,0.20464946999664083,-0.2189161684720309,nan
1741085470.794442,-0.07432527499181911,0.6703036028736978,0.015001112963286677,0.0987934718350293,nan
1741085470.798346,-0.23679715282201524,0.04607295379039802,-0.2307771878760629,0.4102987667382703,nan
1741085470.8022501,-0.2532372374660243,-0.7258253737195978,-0.3580706584126053,0.5530279900928743,nan
1741085470.806154,-0.18760792809328647,-1.210959683178964,-0.27211777304490925,0.44528131775865887,nan
1741085470.810058,-0.1199322056547088,-1.0649448061875477,-0.02640474940973089,0.1269534196791655,nan
1741085470.8139622,-0.07375665116128204,-0.27569055112387103,0.2256439499524651,-0.2606558474102996,nan
1741085470.817866,-0.008052078203984498,0.7680058322294924,0.3458870234411274,-0.5426806636508958,nan
1741085470.8217702,0.12217922531635474,1.4652403923499122,0.2960011669574279,-0.5931611917417378,nan
1741085470.8256743,0.2917225559499013,1.3634100643823799,0.13338747325680952,-0.3925880607458483,nan
1741085470.8296056,0.38968934220342055,0.46651120526919926,-0.056195578228747795,-0.03222273631116271,nan
1741085470.8335094,0.2917549338544898,-0.7278407484794124,-0.21586789500750533,0.3351406918142588,nan
1741085470.8374135,-0.02579447387575485,-1.5159997530606657,-0.31837422681286465,0.5676604430013059,nan
1741085470.8413177,-0.4235113443047063,-1.429775308273779,-0.33241391047992963,0.5883210333359333,nan
1741085470.8452215,-0.656363687279474,-0.5394545178786071,-0.21464994471992777,0.39694014344452827,nan
1741085470.8491256,-0.5324264438009563,0.5935492324507361,0.04419889251185104,0.05151695460526473,nan
1741085470.8530297,-0.06629931581116509,1.2883630333673395,0.3603530678590538,-0.350911062963906,nan
1741085470.8569336,0.493858081974638,1.1859318542634176,0.5606820443193964,-0.6797553175230262,nan
1741085470.8608377,0.8062607475425252,0.45529531916763616,0.4809452856644102,-0.7838348824934667,nan
1741085470.8647416,0.6595968352809833,-0.3689544156366676,0.10033421855604649,-0.5460249469105269,nan
1741085470.8686457,0.1255241619369017,-0.7840319225368215,-0.39958060386806504,0.02222464773856784,nan
1741085470.8725498,-0.47617051028473684,-0.6523151433810449,-0.7222174701800772,0.7107832963677646,nan
1741085470.8764808,-0.7842816241365362,-0.23396882449723633,-0.6476775464888411,1.1550909311196125,nan
1741085470.8803847,-0.6325329296326496,0.0787958121070935,-0.19378246821311262,1.025385820653292,nan
1741085470.8842888,-0.14891212090322362,0.09452944178479986,0.3791704413802425,0.27055803674965156,nan
1741085470.888193,0.34862355873437467,-0.04887454003734273,0.7333318484704883,-0.7615396271092926,nan
1741085470.8920968,0.5768749606379399,-0.05341985590536732,0.6727649877940592,-1.4651625144317624,nan
1741085470.8960009,0.4648785887416696,0.22854949750734613,0.26082027234345007,-1.3439505115939654,nan
1741085470.899905,0.16177862788055467,0.6181189822516718,-0.24201011113474122,-0.377723709029613,nan
1741085470.9038088,-0.1105408153190844,0.7321997226233791,-0.5618099196738072,0.8891551170081381,nan
1741085470.907713,-0.22838936685406633,0.31662724144241083,-0.5755306351706292,1.6535212899149176,nan
1741085470.911617,-0.22426384967690904,-0.48541063145834185,-0.34620135710464855,1.3852374312741398,nan
1741085470.915521,-0.20215212388279835,-1.1697788218536882,-0.03125948474447424,0.22064797854485876,nan
1741085470.919425,-0.20528431497363975,-1.2155729989130728,0.23869973111561293,-1.0867464165988114,nan
1741085470.9233556,-0.16735899918710107,-0.48720016272265715,0.4110918012279199,-1.661262876925858,nan
1741085470.9272594,0.004605290436204791,0.619270223279385,0.47479125692750945,-1.115173941827111,nan
1741085470.9311635,0.29560054534734587,1.4159957607632907,0.40401384776244803,0.1656589336997001,nan
1741085470.9350674,0.5341636881261345,1.3881582858025292,0.16162516086206036,1.2835920012386313,nan
1741085470.9389715,0.4999932768475243,0.5482756927986758,-0.23014085248048397,1.4643735910426956,nan
1741085470.9428756,0.1165186992851061,-0.5758454244295924,-0.6269070405440416,0.6089418449458373,nan
1741085470.9467795,-0.4347967917597854,-1.3042862070096088,-0.7960099196745591,-0.6428937218036442,nan
1741085470.9506836,-0.7976505702305383,-1.2508321320819034,-0.5588681367817271,-1.3846118888500438,nan
1741085470.9545877,-0.6861527560739926,-0.5381366731053984,0.050782898881708866,-1.101852321367996,nan
1741085470.9584916,-0.11437752536994547,0.343580926953533,0.7448847953889914,-0.03262470832413268,nan
1741085470.9623957,0.5758156822794559,0.8955179772032329,1.1184936950057054,1.0287448952309526,nan
1741085470.9662998,0.9313223762451743,0.9111533935523403,0.8983585273565389,1.3246093345341612,nan
1741085470.97023,0.7029276616961533,0.525178758962807,0.1404490241000916,0.6762408314730313,nan
1741085470.974134,0.028687978920591814,0.03145465128265959,-0.766532581318354,-0.417957732403322,nan
1741085470.978038,-0.654214190679252,-0.3436458219138351,-1.3110219181471259,-1.1764945603548542,nan
1741085470.981942,-0.9090434294858244,-0.5341821242097546,-1.1591866466202778,-1.1051022692418961,nan
1741085470.985846,-0.5941970051110813,-0.5665556179881697,-0.361253772181509,-0.318660736620506,nan
1741085470.9897501,0.05631182333358116,-0.4501636701257818,0.6640689163161594,0.5963720255595408,nan
1741085470.993654,0.6134902591267262,-0.16057344394755976,1.3592138105250247,1.0364808538009447,nan
1741085470.997558,0.751553258974888,0.2702345765361454,1.337957109246706,0.792878110736324,nan
1741085471.0014622,0.44609079697644316,0.6718608695421462,0.600556756607202,0.13191622891657287,nan
1741085471.005366,-0.05413091702874558,0.787577455193829,-0.4637049575624181,-0.46653199108316445,nan
1741085471.0092702,-0.432238678207887,0.46075990670849387,-1.285713985336471,-0.6710850589320019,nan
1741085471.0131743,-0.5151987226592524,-0.19165229305993334,-1.4238844085764155,-0.4825467532936731,nan
1741085471.0171044,-0.3434874435039391,-0.7917534238211597,-0.8049262604239421,-0.14065202894083892,nan
1741085471.0210083,-0.07974844695666945,-0.9354167699011149,0.23313206987306642,0.11627491801109426,nan
1741085471.0249124,0.1373321594787126,-0.49221494372997954,1.1239628209627124,0.2192402456537296,nan
1741085471.0288165,0.26709018105655363,0.26727631434175664,1.3869100456463779,0.2465181943158833,nan
1741085471.0327203,0.32925807200296764,0.8395074546442727,0.8975460687969538,0.277032017235477,nan
1741085471.0366244,0.3229793579972247,0.8440025124319114,-0.04422343294084154,0.2834249509740073,nan
1741085471.0405285,0.2022992543378379,0.30103018427963213,-0.8948185738922373,0.1683298058567867,nan
1741085471.0444324,-0.05986486535798714,-0.38638299256408776,-1.1915969463279856,-0.10256151346621274,nan
1741085471.0483365,-0.386518205282113,-0.7365721657673264,-0.8216768115804296,-0.4130799792757927,nan
1741085471.0522406,-0.5924774868255682,-0.5449060535269437,-0.06618253188813193,-0.5543057766942867,nan
1741085471.0561445,-0.49755621483239226,-0.01629935415816448,0.6029688811114884,-0.3892978215526553,nan
1741085471.0600486,-0.08144439154742653,0.4207259668758933,0.8310659795964414,0.017614623184625523,nan
1741085471.0639784,0.45212219978234425,0.4598247621157348,0.583147358270434,0.4257573303633165,nan
1741085471.0678825,0.778305855928617,0.14199046023900685,0.11314587281806571,0.5858472122828493,nan
1741085471.0717864,0.6668096533886521,-0.212743066959799,-0.2553864682997237,0.4175527700542149,nan
1741085471.0756905,0.15576626210349676,-0.2948326148045831,-0.3589045309532927,0.056172684655909286,nan
1741085471.0795944,-0.4534310355850461,-0.06551367412676644,-0.26398069680689656,-0.26203316192600257,nan
1741085471.0834985,-0.789402878301619,0.22823898936024536,-0.14761549157032022,-0.3752940961897235,nan
1741085471.0874026,-0.658835757358708,0.28659250616273035,-0.1126652390048418,-0.29112459344171265,nan
1741085471.0913064,-0.1711541578824078,0.02998420237960588,-0.10618743584945232,-0.137380303627872,nan
1741085471.0952106,0.34862086925975677,-0.324963148132681,-0.0058473559043765,-0.03040869243554596,nan
1741085471.0991147,0.5908674732615149,-0.45157574509676346,0.21759578188667933,0.0171973879377001,nan
1741085471.1030185,0.46485977041027415,-0.20028517237797025,0.4262172971009748,0.07494952556509801,nan
1741085471.1069226,0.13077603407612598,0.2607228963149072,0.41489261483296963,0.19288952590061154,nan
1741085471.1108544,-0.1496234323214994,0.5737480220081751,0.10740604763525871,0.3240284349810952,nan
1741085471.1147585,-0.21781279657122032,0.4824518848467807,-0.33126390934065947,0.34762110333214163,nan
1741085471.1186624,-0.1192151286310782,0.041994900510851224,-0.5886910809305533,0.17529005162292657,nan
1741085471.1225665,-0.030398637104354035,-0.42534301067917296,-0.4497589875465448,-0.15379943191593037,nan
1741085471.1264706,-0.0834343063467472,-0.5881060308191819,0.00781077603053908,-0.47409601195982615,nan
1741085471.1303744,-0.23775229561858321,-0.3602147291071554,0.44638434967586527,-0.5952659470003097,nan
1741085471.1342785,-0.30828992448435416,0.05427820113497999,0.5258863627397433,-0.4271952362083919,nan
1741085471.1381826,-0.13036592909601702,0.34928143449181503,0.18523642367954307,-0.03751160248746795,nan
1741085471.1420865,0.272198043055358,0.3653812348470157,-0.29112098276630854,0.3912245754025209,nan
1741085471.1459906,0.6590775452896801,0.18701844731536252,-0.49459557458210757,0.6633119310453001,nan
1741085471.1498947,0.7251270509431661,0.02053961447893132,-0.23349201003639602,0.660128765028279,nan
1741085471.1537986,0.331070010837469,-0.017465807199429684,0.288480516649609,0.3770970319268743,nan
1741085471.15773,-0.35794320281102054,0.0015806553557389299,0.6190712377912972,-0.08654767719917394,nan
1741085471.1616342,-0.9416946915726561,-0.0770821142379167,0.427277401231106,-0.5595557301417281,nan
1741085471.165538,-1.0327643237380901,-0.29091738029400727,-0.2011007326909777,-0.8431932409471691,nan
1741085471.1694422,-0.5213191137393148,-0.46916893320215064,-0.7953797786178498,-0.7786212879519354,nan
1741085471.1733463,0.3276296297561957,-0.36295493765929765,-0.8548311206237589,-0.3332007403138954,nan
1741085471.1772501,1.0220087005443514,0.10126734019183385,-0.2550404664758207,0.3387344247626413,nan
