timestamps,TP9,AF7,AF8,TP10,Right AUX
1741085379.282779,-0.12051241499757488,0.8781275668756794,0.5037113378918898,-0.547958792981713,nan
1741085379.2866828,0.013509583051021462,1.2312605926686655,1.554158870119415,-0.34788391605270463,nan
1741085379.2905865,0.1910200357226775,0.894833046753077,1.391861768287682,0.027105827231109013,nan
1741085379.2944903,0.20840668449977898,0.107784808497448,0.23454411372592218,0.31848319147566967,nan
1741085379.298394,-0.018549013962481202,-0.6540736424428764,-0.9827249158851074,0.35833245847705864,nan
1741085379.3022978,-0.34351037312664745,-0.981799376640746,-1.3417855270228272,0.17774670404715584,nan
1741085379.3062015,-0.48051292496634196,-0.7627505445620436,-0.6281727491066543,-0.04209832213595697,nan
1741085379.3101053,-0.24260205780930258,-0.20280569020145084,0.546591897767061,-0.12890850946094198,nan
1741085379.3140092,0.2675224108835994,0.3435954056700327,1.2536969209981725,-0.056345596433040226,nan
1741085379.3179128,0.6919275788069381,0.6017651861252441,0.9688445851231616,0.050733411383524635,nan
1741085379.3218167,0.6771770826275113,0.5143482522552892,-0.05329089974089405,0.042175593328037296,nan
1741085379.3257203,0.16519929476121642,0.22204397164809814,-1.0170676819891342,-0.1106357614218627,nan
1741085379.3296545,-0.5244758915349489,-0.06768395583448582,-1.2173763415238004,-0.2756634677086778,nan
1741085379.3335583,-0.9076349555620558,-0.2177623901856608,-0.558117794526937,-0.26813387943683853,nan
1741085379.337462,-0.6938923664932908,-0.21794427080152512,0.427401142173986,-0.019546935542567076,nan
1741085379.3413658,-0.014511322372933032,-0.1458174834058888,1.0282763379439426,0.33587227525663854,nan
1741085379.3452694,0.6642963358394969,-0.08355759087265258,0.8936923889088235,0.5403180041941082,nan
1741085379.3491733,0.8824796295690699,-0.05856975790662234,0.23904980380859536,0.4066214117159703,nan
1741085379.353077,0.5205425722360909,-0.04307166177119182,-0.3990793156070767,-0.022277858483665234,nan
1741085379.3569808,-0.1287636970682329,0.0022227953940176883,-0.6140902214706343,-0.4804088498639563,nan
1741085379.3608847,-0.5991370344890437,0.08375530680111211,-0.40646587230380565,-0.658594367632062,nan
1741085379.3647883,-0.6042479762515003,0.16515746599227882,-0.09055844738697251,-0.42725347863957724,nan
1741085379.3686922,-0.22817488292535046,0.19457641578465285,0.0396029485073384,0.06569798745079224,nan
1741085379.3725958,0.1837349342051238,0.14375865480084554,-0.03097868271427475,0.4976294874898967,nan
1741085379.3765295,0.3251060403108267,0.028433529654201466,-0.07442538847962527,0.5986937901840446,nan
1741085379.380433,0.16491100503821526,-0.10230923622702104,0.10831652165151079,0.33479680118367194,nan
1741085379.384337,-0.06701332729259017,-0.19576496009871275,0.44926879072400916,-0.08601894296179546,nan
1741085379.3882406,-0.11376867848968168,-0.2212219871423907,0.6393498433871634,-0.37908623334859054,nan
1741085379.3921444,0.06941011408183353,-0.17620812330485788,0.40459823607627077,-0.3877149623249027,nan
1741085379.3960483,0.27947182479657484,-0.07645377893420302,-0.21247012282821987,-0.17328094226255644,nan
1741085379.399952,0.2596321637962899,0.055133324082716366,-0.8264127871120331,0.06481597105118862,nan
1741085379.4038558,-0.05162054139064327,0.18906898342422362,-0.9826591114748985,0.16041067492172498,nan
1741085379.4077594,-0.43929786738641924,0.2835608224610489,-0.5174990198951775,0.10053914219332653,nan
1741085379.4116633,-0.5766084543403815,0.2883490240228203,0.291673998820795,0.005102809257029622,nan
1741085379.415567,-0.3012803549817178,0.1690170786247541,0.9158677295138432,-0.0018393472064069242,nan
1741085379.4194708,0.23010819654876394,-0.05777994621593586,0.9589104160001979,0.08958806087123841,nan
1741085379.423404,0.6453635764869327,-0.3067072094517261,0.43648434670261155,0.16939281826974337,nan
1741085379.4273078,0.6400819538368647,-0.4501483830109798,-0.2610953255494559,0.11561393854759179,nan
1741085379.4312115,0.2141245973109612,-0.38686800712255864,-0.6778150934349271,-0.08193611304589785,nan
1741085379.4351153,-0.3284562999870084,-0.11482185604199621,-0.6190062131357473,-0.29322080088645014,nan
1741085379.439019,-0.6136933296397502,0.24508300329931398,-0.24660813545986515,-0.3445007250133901,nan
1741085379.4429228,-0.4769196385848084,0.503221237216549,0.10510874031658463,-0.16267620277983957,nan
1741085379.4468267,-0.06785010278120641,0.5100725134334779,0.21592683506664204,0.15247065789551917,nan
1741085379.4507303,0.2906297779219545,0.2523015139017247,0.12684236011460012,0.3914558950750303,nan
1741085379.4546342,0.3635660193598332,-0.1310233085590272,0.04510973494245838,0.38786876908843165,nan
1741085379.4585378,0.17094664276179944,-0.4291760766539547,0.11655502565627823,0.14240912718614807,nan
1741085379.4624417,-0.06419931647586265,-0.4875972472939331,0.27862612560433125,-0.17780829299984066,nan
1741085379.4663453,-0.1265131836326703,-0.2981196531454265,0.32267514656573515,-0.36269317252325994,nan
1741085379.4702783,0.007666630707458974,0.007747764863237299,0.10267011076395775,-0.3089894490218174,nan
1741085379.4741821,0.1650322311893112,0.25330422723097995,-0.301562599675696,-0.08348667749915097,nan
1741085379.4780858,0.1439380930743804,0.3288102297991057,-0.6171715493091728,0.14193461382843917,nan
1741085379.4819896,-0.09362436632340934,0.2436491841759442,-0.5868951870298336,0.22509245290633334,nan
1741085379.4858932,-0.3725425981219288,0.09102044697757444,-0.18168925631707808,0.15068028596002303,nan
1741085379.489797,-0.44104215415861747,-0.0352668463011994,0.35907221329364714,0.01963266838756084,nan
1741085379.4937007,-0.1816837687733418,-0.10163629538354026,0.6943408644036413,-0.05000480640139641,nan
1741085379.4976046,0.27515937273765423,-0.13081098611901687,0.6231876938472967,-0.02305843274610099,nan
1741085379.5015085,0.6287711744677409,-0.15045912973949832,0.21569133996225598,0.033838620582255986,nan
1741085379.505412,0.6198995520508056,-0.15113176504631967,-0.2569933307884038,0.02487494789497378,nan
1741085379.509316,0.21890324454709686,-0.09603570272741059,-0.5237829397608013,-0.07707048864824013,nan
1741085379.5132196,-0.3458602810475452,0.02799824740860414,-0.4852502683584207,-0.19380255683481126,nan
1741085379.5171523,-0.7351300793107507,0.17191727675655444,-0.23786554981308733,-0.2014245367083005,nan
1741085379.521056,-0.7143686697412749,0.24406148699175104,0.03834084853301869,-0.040456844028115016,nan
1741085379.5249598,-0.2936669406511182,0.18055238583944092,0.2167704663197269,0.2143248181667353,nan
1741085379.5288634,0.28882938797049523,0.007631765461269327,0.27805620873869963,0.3880561696195684,nan
1741085379.5327673,0.7139389809928423,-0.16390784214796936,0.26367931508761083,0.32826242600124517,nan
1741085379.5366712,0.7597352152656933,-0.21740727408118907,0.20090588881218024,0.02844270117007743,nan
1741085379.5405748,0.411032249439001,-0.12219556787288792,0.08037162503855887,-0.34294767617380933,nan
1741085379.5444787,-0.14579261998735907,0.03892749649074183,-0.09965812773254132,-0.5403826710133004,nan
1741085379.5483823,-0.624764736345744,0.1346182981426677,-0.28189962823278264,-0.40684032030889267,nan
1741085379.5522861,-0.7824639575068763,0.09260808352919193,-0.3599759647849877,0.00610986444392761,nan
1741085379.5561898,-0.5363023879353293,-0.03933585958214136,-0.25597666817730114,0.4529089461455245,nan
1741085379.5600936,-0.008430378125293752,-0.1330495357800757,0.00012372862507267307,0.6438870063746336,nan
1741085379.564026,0.5281076149794182,-0.09031068516859588,0.26717126457227497,0.4367817496921268,nan
1741085379.5679297,0.7848177842536055,0.0681547746179283,0.38196985592903177,-0.05838324505744294,nan
1741085379.5718336,0.6145556111109988,0.2127518688588609,0.2758305128426846,-0.5375626704086323,nan
1741085379.5757372,0.10437904867241515,0.21021438032287879,0.025424056164785245,-0.6936517455942839,nan
1741085379.579641,-0.45996227089525027,0.03830942975674962,-0.2039971484858221,-0.41809114148138515,nan
1741085379.583545,-0.7527942495296136,-0.18712158804641296,-0.27805620262789155,0.12175471825527284,nan
1741085379.5874486,-0.603922804947157,-0.2991599307777268,-0.18179934287645783,0.5857489919454408,nan
1741085379.5913525,-0.10820936112154743,-0.21193541883464542,-0.012929859348490207,0.6807227663271445,nan
1741085379.595256,0.4282675546390751,0.010438198113208112,0.10535031133534825,0.35194317602980385,nan
1741085379.59916,0.678746407396729,0.20538629150417456,0.11585082382472378,-0.1826306983843266,nan
1741085379.6030636,0.5021658276046553,0.24136611613743694,0.05299369372205133,-0.5791355943135958,nan
1741085379.6069674,0.02947496545879324,0.11819770590144878,-0.006093075565412713,-0.5959059617189942,nan
1741085379.6108992,-0.42722001698923245,-0.043513198921579614,-0.01289527806140628,-0.2474516396239962,nan
1741085379.614803,-0.5805204789889559,-0.11145732284129094,0.02025112939061687,0.21851749364113057,nan
1741085379.6187067,-0.3505447715571998,-0.05390517420005543,0.04542586037471881,0.4992844840395627,nan
1741085379.6226106,0.09373894240227808,0.04104790622411703,0.028779764659162276,0.4412454869962585,nan
1741085379.6265144,0.45468709273910224,0.05378473428694827,-0.022684081196109495,0.12748403965467917,nan
1741085379.630418,0.5015340001084125,-0.05049895119143511,-0.07461625570741955,-0.20425601726976642,nan
1741085379.634322,0.21276173317150404,-0.18195818815230672,-0.09688562657007094,-0.34196702928700706,nan
1741085379.6382256,-0.21980784417025062,-0.2010919965650723,-0.080298901397859,-0.2406629293190798,nan
1741085379.6421294,-0.5178544842011544,-0.046030344570442576,-0.029604790652773407,-0.02626676632993501,nan
1741085379.646033,-0.48908837455392157,0.19880268009432991,0.04740494384025727,0.12562406871654042,nan
1741085379.649937,-0.14153331720084458,0.3566439207320799,0.13426422687431255,0.12995171112076379,nan
1741085379.6538408,0.322222663123694,0.2955650065384693,0.1909819915159155,0.04024995442852289,nan
1741085379.6577723,0.6222862569249334,0.037386411667766385,0.1601562895822233,-0.023279015210059466,nan
1741085379.6616762,0.5632327880787565,-0.2521337615461177,0.010500175964239468,0.006869787756579644,nan
1741085379.66558,0.1523376958693376,-0.38535956299632784,-0.20975271354134098,0.08579124319711849,nan
1741085379.6694837,-0.3919447832539698,-0.28925574312862173,-0.36719721340375533,0.10580255493297712,nan
1741085379.6733875,-0.7529066001448944,-0.04900272668829361,-0.318704354852108,0.0069958713231232875,nan
1741085379.6772912,-0.6962092675145313,0.16972894704413016,-0.030607480713945846,-0.15374099279295383,nan
1741085379.681195,-0.21916594806791617,0.24933209218999497,0.3535765583623273,-0.2412335805494964,nan
1741085379.6850986,0.42570515428870614,0.19332978680826013,0.5753457613449474,-0.15865979038587547,nan
1741085379.6890025,0.8631081574618746,0.09237625915808528,0.4367461354255377,0.05866112395339272,nan
1741085379.6929064,0.8178175793975871,0.02618076451417695,-0.031008741786510276,0.25789653043881317,nan
1741085379.69681,0.2937478311772095,-0.004419208474792223,-0.5466648714341084,0.28616333790032317,nan
1741085379.7007139,-0.4123213986742945,-0.055890572516565346,-0.7503027842514554,0.1156113090722173,nan
1741085379.7046475,-0.8848209059864902,-0.15853758754496697,-0.46153275643983516,-0.12946699306988632,nan
1741085379.7085514,-0.8473228788572996,-0.2580980709686631,0.16576704789781527,-0.26915849319773777,nan
1741085379.712455,-0.33583500431282476,-0.24701994494893542,0.7234895077840825,-0.21002912808128438,nan
1741085379.716359,0.33019631901094465,-0.06551568216410636,0.8251325948414255,-0.015562280093789327,nan
1741085379.7202625,0.7594546090456037,0.21802328743384153,0.38398735916621707,0.15252770008417904,nan
1741085379.7241664,0.7363194026531052,0.42875421762177074,-0.3139044361195466,0.17082998250591652,nan
1741085379.7280703,0.3359811375094649,0.4063191674858693,-0.8037974853499228,0.05225755523222423,nan
1741085379.731974,-0.16081425068505223,0.13350419018896054,-0.766303970551028,-0.07625933552093475,nan
1741085379.7358778,-0.4748892891951875,-0.23386843988836784,-0.24570626591283046,-0.09350402063733237,nan
1741085379.7397814,-0.4989660180592192,-0.4674947975732449,0.3940555284038802,0.006206080688656267,nan
1741085379.7436852,-0.31737806842958677,-0.42503340174520715,0.7356621763284039,0.110934111477262,nan
1741085379.7475889,-0.08930783051916764,-0.14658440520443936,0.5948896084610299,0.09868897629307732,nan
1741085379.7515225,0.08652724324131358,0.18179817068625967,0.12092726905835781,-0.04229623149693871,nan
1741085379.7554264,0.21137826683261215,0.36436270052226993,-0.34503098248142533,-0.1916831500504959,nan
1741085379.75933,0.3164339235965763,0.3245606736737041,-0.5259798562370419,-0.19930103386576847,nan
1741085379.763234,0.3739237144590038,0.133867342519296,-0.3812615031636307,-0.025325799027346236,nan
1741085379.7671378,0.29382134717473707,-0.06638051945987043,-0.08217197151429377,0.20761539486925668,nan
1741085379.7710414,0.021831740797110526,-0.17437609680621793,0.15766801637450387,0.30524399857039497,nan
1741085379.7749453,-0.3549002260833506,-0.1801912131557885,0.24135213481069445,0.16596842396728806,nan
1741085379.778849,-0.6134359760882373,-0.13382485923875082,0.21462217715814427,-0.12075379749145818,nan
1741085379.7827528,-0.5409659336328453,-0.07707882578622742,0.1663886696813264,-0.33321195499946354,nan
1741085379.7866564,-0.1177328559745735,-0.010338567752460288,0.11956412959861736,-0.29393088779878257,nan
1741085379.7905602,0.4215305468087569,0.07962592926631422,0.021778562155661676,-0.020705594056577757,nan
1741085379.794464,0.7245147295392521,0.17066820037357736,-0.16186370315853701,0.27707851665046335,nan
1741085379.798397,0.5726631940091254,0.19761952688498668,-0.357766952663958,0.36146089895801925,nan
1741085379.802301,0.05600550536659337,0.1061299528848233,-0.40333638144463096,0.15920490580172647,nan
1741085379.8062046,-0.4753693993410685,-0.07877472704650211,-0.1825486380956264,-0.17361021229118154,nan
1741085379.8101084,-0.6602767424369463,-0.2420115048405233,0.23584923015899056,-0.3726008865615379,nan
1741085379.814012,-0.39100403203297357,-0.25347836754481,0.5946743407642568,-0.27664042288022767,nan
1741085379.817916,0.11111444081627404,-0.07737455481468426,0.6140007557969933,0.04123032260966476,nan
1741085379.8218198,0.469392824983249,0.17779093131510892,0.2133738437916825,0.3307454301994804,nan
1741085379.8257234,0.4394194231878744,0.32364868927500456,-0.38857098772352827,0.36384629120869244,nan
1741085379.8296273,0.08596967533965083,0.2330780415770324,-0.7962507406443898,0.11547263439837059,nan
1741085379.833531,-0.2854361039413584,-0.05037211591815521,-0.7097823944783773,-0.2192968456667679,nan
1741085379.8374348,-0.3804563244864677,-0.3281558264330865,-0.15083836138949486,-0.382830832304299,nan
1741085379.8413384,-0.1458843350061206,-0.3865986971929511,0.532426194872754,-0.25754066763589084,nan
1741085379.8452713,0.20336765125602835,-0.15985556234601928,0.8953060689112294,0.04886228919162106,nan
1741085379.8491752,0.37218606556787276,0.20956375798547647,0.6998429560784518,0.2982455789065218,nan
1741085379.8530788,0.22713625218899564,0.4642549418894858,0.07461179497825786,0.3131581465533669,nan
1741085379.8569827,-0.10479814761698852,0.4146152922492231,-0.5794357588465132,0.10754119553507843,nan
1741085379.8608863,-0.35257050143802815,0.07751821880627714,-0.8625017538992773,-0.14208680290723008,nan
1741085379.8647902,-0.326489889799802,-0.33046029306006974,-0.6313199728524511,-0.24955702662348395,nan
1741085379.868694,-0.06385681639810226,-0.540034604790508,-0.06544841529511175,-0.16334876690597047,nan
1741085379.8725977,0.21797056266055406,-0.41114181677872047,0.48021472245055435,0.012650896392629953,nan
1741085379.8765016,0.30937537767989925,-0.023879181335689295,0.7124927527330852,0.1257113284224907,nan
1741085379.8804052,0.1732759517051219,0.37868668991197085,0.5591676122048709,0.10620420382377853,nan
1741085379.884309,-0.046265708311031044,0.5499458280887347,0.16348600558907464,0.011261300873676503,nan
1741085379.8882127,-0.16486819036710007,0.3923582865105695,-0.24540576071078735,-0.047486039015031956,nan
1741085379.8921454,-0.1162396140121854,0.008787451387307955,-0.4921153037703909,-0.016170254769922822,nan
1741085379.8960493,0.00853059791761364,-0.3694302248197375,-0.51585588269132,0.054746799060781996,nan
1741085379.899953,0.06452421711578488,-0.5237839508875851,-0.34728941533653185,0.0688676065914391,nan
1741085379.9038568,-0.003922619320210593,-0.3724116003089134,-0.058952379677001676,-0.012709857591934126,nan
1741085379.9077606,-0.11342794864107696,-0.010017378950804198,0.2586868255581075,-0.12410206268284628,nan
1741085379.9116642,-0.12770879231793508,0.3508624587767672,0.49672452239858156,-0.15144527455551338,nan
1741085379.915568,0.0036215383287764497,0.5008475300800943,0.5432524075124041,-0.0434219064941226,nan
1741085379.9194717,0.18501335358437732,0.3520208578236361,0.33873210408952303,0.1280925072990076,nan
1741085379.9233756,0.25309735554506724,-0.00932488217536647,-0.05928864119703326,0.2192215547104478,nan
1741085379.9272792,0.1255816786907903,-0.36738853213292255,-0.46730953393520347,0.13832294660708885,nan
1741085379.931183,-0.11385103911041726,-0.5007769917094509,-0.6599420176135161,-0.06533147887661762,nan
1741085379.935087,-0.2760621933576656,-0.3191163455786132,-0.5089356936805196,-0.23148441078866877,nan
1741085379.9390192,-0.22554443310158562,0.07161229672776934,-0.08099375194462508,-0.2189896575730429,nan
1741085379.942923,-0.001072579001191135,0.4253598626162677,0.3868361426065946,-0.027887666223828555,nan
1741085379.946827,0.21030135294692306,0.5096580506027145,0.630334081417934,0.19293038667013832,nan
1741085379.9507306,0.22912203186698213,0.26162277811884294,0.525101860026674,0.26410748300903997,nan
1741085379.9546344,0.038642746852464493,-0.16180907176745393,0.15992870427864334,0.12400571476781896,nan
1741085379.958538,-0.1948668384431521,-0.48285791823217433,-0.23393301546495143,-0.11761958258776567,nan
1741085379.962442,-0.25860962315022884,-0.49001789280800034,-0.44206894672939734,-0.26732118746851247,nan
1741085379.9663455,-0.07524334855315684,-0.18349924919568292,-0.39710880043504837,-0.20555589055881393,nan
1741085379.9702494,0.2222875313764816,0.2268458148493844,-0.1915077754874465,0.016337079519357586,nan
1741085379.9741533,0.3892659621854762,0.47133994103619054,0.020535846891958177,0.21976497824729646,nan
1741085379.978057,0.2646973289568408,0.40829588423400365,0.14258946559766453,0.24571744566060585,nan
1741085379.9819608,-0.09301292865648712,0.11174223584903238,0.18178104370974443,0.08227434416885163,nan
1741085379.9858925,-0.4396891704982427,-0.2010180050408085,0.197208393641666,-0.1314958712992025,nan
1741085379.9897962,-0.5230897904161194,-0.33800186468791743,0.2126130143085656,-0.22472927673783896,nan
1741085379.9937,-0.26762300987917864,-0.2622759529211408,0.18161669981943815,-0.1346323273980169,nan
1741085379.9976037,0.1720720381925789,-0.08690353458857564,0.04083741638583638,0.04911121223295784,nan
1741085380.0015075,0.5218648867210918,0.04540714011994077,-0.1989083951282441,0.1678828069332879,nan
1741085380.0054114,0.5735935161545753,0.0845268639140233,-0.41504552018770374,0.13015045759087124,nan
1741085380.009315,0.3104524067330086,0.09049775131144715,-0.44072906312108495,-0.0162739878111348,nan
1741085380.0132189,-0.10397088717410481,0.14019143408408222,-0.19732255355598807,-0.1334692448858186,nan
1741085380.0171225,-0.4441611976533817,0.2208003231960941,0.21404702878591952,-0.11687386265963148,nan
1741085380.0210264,-0.5534916746908662,0.22163972560719986,0.5488631630244638,0.015269437868519753,nan
1741085380.02493,-0.4068161736456791,0.04380346279223359,0.575610713392302,0.14161400948908043,nan
1741085380.0288339,-0.09115333746728811,-0.2699622579113039,0.24574396998949696,0.14587136778015833,nan
1741085380.0327654,0.25406709584290804,-0.5171274283294521,-0.25160289523121115,0.017984179771475203,nan
1741085380.0366693,0.49177977522148014,-0.4729066012917705,-0.6021107249781251,-0.13797070577298937,nan
1741085380.040573,0.5242953800758718,-0.08630461588451853,-0.5757973421016187,-0.19312860152878247,nan
1741085380.0444767,0.32399770561239893,0.4329310560841538,-0.18751855161994127,-0.10172965370068553,nan
1741085380.0483804,-0.04099702020245736,0.7326111304529744,0.3080046683375325,0.06381901499086998,nan
1741085380.0522842,-0.4111637220041865,0.572766847740125,0.5870483250053448,0.17677123510214013,nan
1741085380.0561879,-0.5965210120895696,0.023723320935093887,0.4755706816927135,0.16040255223370875,nan
1741085380.0600917,-0.4814401810040878,-0.5583845015391522,0.06330392621297978,0.04377211675688124,nan
1741085380.0639956,-0.1103815442210901,-0.7774648680431416,-0.36446596688179345,-0.07371402617267932,nan
1741085380.0678992,0.3171302355419265,-0.48600909421452065,-0.5260998546502039,-0.1114308530308949,nan
1741085380.071803,0.5589542792101652,0.10467932584831993,-0.33234463279722987,-0.0698022037142511,nan
1741085380.0757067,0.48385673483835506,0.5805669468683287,0.06470288890183776,-0.014514921958268888,nan
1741085380.0796406,0.1577500489766649,0.6293083771061876,0.3891359086062892,-0.004003618275716593,nan
1741085380.0835445,-0.20433216721851913,0.2602318561940971,0.43507608519374147,-0.03134212744274106,nan
1741085380.0874484,-0.38855055285037554,-0.2241706539866504,0.19874601945393428,-0.035292615143464316,nan
1741085380.091352,-0.3239807513634765,-0.4728160366326853,-0.13756516537942629,0.03080137742234694,nan
1741085380.0952559,-0.11169349593184814,-0.34838762130780127,-0.34670776974133477,0.13884766046267433,nan
1741085380.0991595,0.07352877084744364,-0.005419184883503124,-0.3142802088982223,0.19545924168499734,nan
1741085380.1030633,0.12381184113825745,0.2619499664180999,-0.10123818237744345,0.11980644917923663,nan
1741085380.106967,0.06744577697826137,0.264211298730865,0.12284075697865174,-0.07515093024150286,nan
1741085380.1108708,0.017785957665818166,0.05140102628974943,0.21435228330127037,-0.2717567283559266,nan
1741085380.1147747,0.055103975446231676,-0.15928548133592382,0.15300987030136504,-0.325084214546769,nan
1741085380.1186783,0.1482044111723145,-0.184803783397964,0.03399094568985114,-0.17281730792435823,nan
1741085380.1225822,0.18376031698597675,-0.027926150164663866,-0.027842889598437722,0.10835573676595309,nan
1741085380.1265156,0.07553397930103482,0.14442933853013562,0.0020264086345597745,0.34663857554529287,nan
1741085380.1304195,-0.14411866777188304,0.16437745012582136,0.055173069378272696,0.3895005333744639,nan
1741085380.1343234,-0.33285346201013716,0.016388151841677887,0.030671581743926233,0.20590674579158924,nan
1741085380.138227,-0.3438543736860792,-0.15404029851885903,-0.10259287480661881,-0.09511648134151043,nan
1741085380.1421309,-0.14296703469398775,-0.17855999933215028,-0.2599647532675615,-0.3380292728146878,nan
1741085380.1460345,0.15757441203540054,-0.023478813370006058,-0.29565425700998044,-0.39077449049712687,nan
1741085380.1499383,0.37533422309911313,0.17529648437151374,-0.12118766097578959,-0.23726262734711545,nan
1741085380.1538422,0.38302217518539633,0.23126316098757238,0.20416243529096942,0.026945311531937587,nan
1741085380.1577458,0.1881198844864661,0.07520273934328374,0.4879477435493101,0.26021288609405907,nan
1741085380.1616497,-0.08554154300761625,-0.17624490214518676,0.5252366789842896,0.3527487659558955,nan
1741085380.1655533,-0.2883512281569169,-0.31311491880925163,0.24533143171324578,0.2734238733103822,nan
1741085380.1694572,-0.33390783911817007,-0.2081085373719262,-0.22107297363353529,0.07153829559243001,nan
1741085380.1733904,-0.22882161420424732,0.07330380045558282,-0.6087063312507199,-0.1543558616116648,nan
1741085380.177294,-0.04212172872121088,0.32155572487731604,-0.6803270458555122,-0.3007301673284107,nan
1741085380.181198,0.14397611336663813,0.3491497809550946,-0.3787511109811072,-0.3013938097822044,nan
1741085380.1851015,0.26366084886216906,0.13647947650367695,0.13306598647710494,-0.15664227706848366,nan
1741085380.1890054,0.27454907695888653,-0.15939561762177754,0.5705591677240371,0.06279053331895383,nan
1741085380.1929092,0.1641262814800299,-0.33304478099576756,0.6994173852781613,0.24561016269659638,nan
1741085380.1968129,-0.033429571321434155,-0.28548120697061485,0.4696757621894023,0.2965695856517777,nan
1741085380.2007167,-0.2295758335969875,-0.08205595637353151,0.030618531240667532,0.19136464161161545,nan
1741085380.2046204,-0.31251757155751314,0.12087885244106494,-0.37344520279730825,-0.0062703304039149295,nan
1741085380.2085242,-0.21654988282764773,0.20554403148505518,-0.550968609648041,-0.18187637009753613,nan
1741085380.2124279,0.016742840740355924,0.16728727915174788,-0.45931226358707417,-0.2412086726167957,nan
1741085380.2163317,0.2446917480799883,0.08366867889872882,-0.1983912095453351,-0.16714660875434895,nan
1741085380.2202644,0.3122539883503115,0.024227771537917057,0.07673888446765355,-0.022827602988577937,nan
1741085380.2241683,0.16707408934374482,-0.00802939393650847,0.2543231558166591,0.09911594788087603,nan
1741085380.2280722,-0.09045699282776772,-0.054204777242809345,0.31053398802929666,0.14077985395339793,nan
1741085380.2319758,-0.2728135327905496,-0.13012440332986014,0.28407520462311553,0.10823817273305446,nan
1741085380.2358797,-0.24568205358853096,-0.18839020012342417,0.21704809945828332,0.048736538289090414,nan
1741085380.2397833,-0.034599769136429,-0.15579411033895577,0.1166813831280595,0.00245127024964362,nan
1741085380.2436872,0.19179391305373505,-0.012114462953001635,-0.03284499874361092,-0.026296173094406638,nan
1741085380.2475908,0.25465398939558814,0.1691005536716569,-0.22500037176461507,-0.05581191294213408,nan
1741085380.2514946,0.10919057026743267,0.2654636423343065,-0.3979597213377701,-0.09083005493629255,nan
1741085380.2553985,-0.11879928838809135,0.20382997034968253,-0.4511710848151402,-0.10441595708079635,nan
1741085380.2593021,-0.23725753973584549,0.02536029040615919,-0.3086517326537194,-0.06063302145923977,nan
1741085380.263206,-0.14861049251842418,-0.14368769553747943,0.013792986892825173,0.04138345315293128,nan
1741085380.2671385,0.06748156008693242,-0.19366772175225966,0.38980652906387736,0.1469688000632303,nan
1741085380.271042,0.2209705442958345,-0.11793693312048242,0.6353031340391216,0.17706621049842816,nan
1741085380.274946,0.1738766523646806,-0.00833592495805327,0.6076282891754328,0.09197752382990527,nan
1741085380.2788496,-0.03847850760295602,0.03473172637776044,0.2919310634833987,-0.06593377382390049,nan
1741085380.2827535,-0.23243958858350874,-0.0050691768248239824,-0.17988263938021737,-0.1927073576885368,nan
1741085380.2866573,-0.2299342481551794,-0.0499569731318716,-0.5917999690782109,-0.19713265469750316,nan
1741085380.290561,-0.013614576713438294,-0.010186635271583186,-0.7525579748594492,-0.07175802604026114,nan
1741085380.2944648,0.2489615239683528,0.11801461845162511,-0.5890331849370871,0.0980966183951858,nan
1741085380.2983685,0.3369169290474948,0.2326866765105481,-0.17525967005425813,0.19703135676658762,nan
1741085380.3022723,0.15788136280797177,0.209519751774674,0.31105722913360245,0.16475453797094478,nan
1741085380.306176,-0.16948266552744956,0.018413499404163328,0.6726368291926862,0.03611806652098063,nan
1741085380.3100798,-0.40197036072995956,-0.23180093930407236,0.7712434804100091,-0.09343687122089252,nan
1741085380.314012,-0.3594063554666917,-0.36680325838130257,0.5702669488672335,-0.1444798709619838,nan
1741085380.3179157,-0.06377567810702697,-0.2821366444794993,0.13805702859195215,-0.10739534214284673,nan
1741085380.3218195,0.27887046507671853,-0.02803968684697187,-0.3750527270188432,-0.03286942270190948,nan
1741085380.3257232,0.4352285678983263,0.22788731331335146,-0.77651621321398,0.02382221250622347,nan
1741085380.329627,0.3137997331683874,0.32882270730813346,-0.8889960580406847,0.04901013909817462,nan
1741085380.3335307,0.01738981236688462,0.24086872444426777,-0.6234976666719217,0.0660708784150969,nan
1741085380.3374345,-0.2501699005705782,0.059814978947810675,-0.0446220169492612,0.09125341462576224,nan
1741085380.3413384,-0.3374458719862304,-0.08357169935617609,0.617328645121548,0.10096974865166113,nan
1741085380.345242,-0.2367101016051692,-0.13020572159065005,1.0446434943206089,0.05028082817107673,nan
1741085380.349146,-0.05505541278008456,-0.1188598628943541,0.98880758610608,-0.07071037291057387,nan
1741085380.3530495,0.09005128048781945,-0.11879120369699739,0.42834817504614114,-0.19995891077373792,nan
1741085380.3569534,0.15357916414097256,-0.14287896517048965,-0.3783168609654034,-0.23354881492600735,nan
1741085380.3608851,0.16254366390683453,-0.13010519058617714,-1.006760197497727,-0.11020018083502041,nan
1741085380.364789,0.15376891696349362,-0.016065475674256497,-1.1044012842911244,0.11955636253074708,nan
1741085380.3686926,0.12331998273282457,0.1784358028458163,-0.6124729794510314,0.30817603049556647,nan
1741085380.3725965,0.03888429918630053,0.33353978243066,0.18023891126444724,0.31273769296589204,nan
1741085380.3765001,-0.10304614634918945,0.31732674607743333,0.8063981490392977,0.10900033083480014,nan
1741085380.380404,-0.2409866129028788,0.10326511124910016,0.9147661117764934,-0.17666893481147117,nan
1741085380.3843079,-0.27966518421834846,-0.18851335244255502,0.4952285663191932,-0.35176513180172614,nan
1741085380.3882115,-0.16815245181696017,-0.3715871140715989,-0.12536841228691833,-0.2983661838390332,nan
1741085380.3921154,0.0453866830713133,-0.3340016621612324,-0.5198995210319656,-0.06051139052503617,nan
1741085380.396019,0.23699108060076163,-0.12168451710364166,-0.4642733170190281,0.19153621255509548,nan
1741085380.3999228,0.2947431444191475,0.10623480959885681,-0.08667337641073987,0.2914400556701762,nan
1741085380.4038265,0.19917167831013433,0.2100974963506385,0.24912611549891345,0.1970524187849876,nan
1741085380.4077582,0.02945651730634826,0.17414716225313842,0.23960067274193286,0.007205344001189468,nan
1741085380.411662,-0.10660920675987198,0.09417260524138188,-0.11028956838298509,-0.13103217915089943,nan
1741085380.4155657,-0.1553233442472464,0.06712313867855876,-0.4830951706679788,-0.1411870215934783,nan
1741085380.4194696,-0.14155383541528332,0.09102692056417966,-0.5008839198712474,-0.06308179319684831,nan
1741085380.4233735,-0.12062550031149988,0.07256353758238467,-0.043055283837528616,0.0047580821686787934,nan
1741085380.427277,-0.1106314830553027,-0.06349386084309104,0.6215448020193433,0.004851550265016957,nan
1741085380.431181,-0.07395777584406256,-0.26966052052711953,1.005797923748911,-0.03127517095420715,nan
1741085380.4350846,0.033222603356807046,-0.385697627648896,0.7638318438381907,-0.02779090883830932,nan
1741085380.4389884,0.1932371282796634,-0.27008680511921723,-0.029127655444059267,0.04609048406955345,nan
1741085380.442892,0.3126023070036461,0.05790771589054899,-0.8956923268977557,0.13270152810746755,nan
1741085380.446796,0.2856740116284805,0.39949636813733386,-1.2735877526423767,0.13546358691325425,nan
1741085380.4506998,0.08690327862101875,0.5147007217831168,-0.9056164906471438,0.018132934374614926,nan
1741085380.4546337,-0.1899587849666245,0.3120088997902998,-0.01867872783240323,-0.14237854521670926,nan
1741085380.4585376,-0.3862163297406794,-0.07061456582050299,0.836547541404091,-0.20903251550397592,nan
1741085380.4624412,-0.387060733099063,-0.36828120560706884,1.1632721280591631,-0.10593606200243158,nan
1741085380.466345,-0.1985787577766652,-0.3949535178751493,0.836919014899375,0.0997177418256993,nan
1741085380.4702487,0.06593136153031039,-0.18159152459672864,0.14357817992938363,0.237723279816814,nan
1741085380.4741526,0.27214014333173475,0.0678943014753886,-0.46418950430820294,0.1752330111711523,nan
1741085380.4780564,0.34790086174536233,0.16057372222461075,-0.6899126040197998,-0.05873175201175768,nan
1741085380.48196,0.3005575296985928,0.07540018302903963,-0.5513677331824394,-0.27847183004389336,nan
1741085380.485864,0.17239044133653966,-0.03884095126212168,-0.28159621037551236,-0.28567656378830375,nan
1741085380.4897676,-0.005919450031384136,-0.02104318156698746,-0.08945879298476812,-0.04001796170172186,nan
1741085380.4936714,-0.21258682259518757,0.1374957489668251,0.004866763913517379,0.28858253424905483,nan
1741085380.4975753,-0.39425825655802477,0.2761843120159039,0.1290067506126953,0.4403232038358793,nan
1741085380.5015087,-0.45071710190607567,0.21577005653968315,0.3704243340236682,0.2702778526425194,nan
1741085380.5054126,-0.2907592233552521,-0.060328095021209706,0.6294350955302969,-0.1262032442808695,nan
1741085380.5093162,0.07061380788359733,-0.3651313486201866,0.6630356350465971,-0.4731631821745549,nan
1741085380.51322,0.4657169903350335,-0.45553921405111386,0.29744423742587156,-0.5174136572801886,nan
1741085380.517124,0.6495960503953571,-0.24333787664539108,-0.3708519353419629,-0.2182043766838438,nan
1741085380.5210276,0.46849846811131823,0.11968131113972914,-0.9732105001524615,0.22368063411521946,nan
1741085380.5249314,-0.0033550301569320136,0.364944479875637,-1.0989597940292597,0.5162773056155555,nan
1741085380.528835,-0.48251428842865063,0.33417812871859776,-0.59748161292437,0.48537503467691134,nan
1741085380.532739,-0.6612078559505002,0.10797482173799407,0.2802434170605764,0.18261044221363448,nan
1741085380.5366428,-0.42969589542643305,-0.08168279000219385,1.0219176871349316,-0.17770280928955884,nan
1741085380.5405464,0.038078610240331046,-0.07596471457431295,1.1866107671996144,-0.3860470642735114,nan
1741085380.5444503,0.4118647360661323,0.058684475812893835,0.6942108555596023,-0.3709881938974473,nan
1741085380.5483835,0.4526492726836657,0.09996490982907948,-0.13268009261540872,-0.2062740474705571,nan
1741085380.552287,0.18623783988863693,-0.09509937413685828,-0.7961200433722546,-0.014202539776941846,nan
1741085380.556191,-0.1352447652617918,-0.41035383209716736,-0.9489521618630192,0.1328661729203335,nan
1741085380.5600946,-0.24973424692537255,-0.5340018186226905,-0.5908669388507044,0.23039280887958555,nan
1741085380.5639985,-0.09879330969648402,-0.23707018798622972,-0.016217112935301217,0.28630409174999333,nan
1741085380.5679023,0.13849436970925427,0.3729290653161885,0.4192356230685717,0.27073002488756287,nan
1741085380.571806,0.21509622235354292,0.8708699746830497,0.5282137705741208,0.13555461433504024,nan
1741085380.5757098,0.0396321673266788,0.8305220829887078,0.3638125087045083,-0.11217671844439712,nan
1741085380.5796134,-0.2405093235733363,0.19345125703271857,0.11606969948036397,-0.3648242438444989,nan
1741085380.5835173,-0.36843905697573265,-0.6309115185069115,-0.05536658688739286,-0.46197230271257067,nan
1741085380.587421,-0.20622625781228676,-1.050699840079262,-0.11644459287788161,-0.3094249052824645,nan
1741085380.5913248,0.13775182386653723,-0.753240156913746,-0.12862014478020778,0.029222033608644643,nan
1741085380.5952578,0.39546728229527756,0.03454990896600472,-0.1499787090959012,0.3568355130204816,nan
1741085380.5991614,0.36609783689497816,0.7161162623855346,-0.16945752493222108,0.47663948378340837,nan
1741085380.6030653,0.08604150959857232,0.80016284666502,-0.12942561349733167,0.33255066852794773,nan
1741085380.606969,-0.20617313339652704,0.2915574919510625,-0.00392350249664872,0.041962138750547315,nan
1741085380.6108727,-0.2791363770604878,-0.3304828574239913,0.15016703973239687,-0.2041036021456257,nan
1741085380.6147766,-0.10803409638096559,-0.5310140295025114,0.22400095298790815,-0.2866335136457449,nan
1741085380.6186802,0.11140786624150671,-0.17869585277424652,0.14796889972977872,-0.22769018092662002,nan
1741085380.622584,0.14685705465435206,0.35033513952082534,-0.03594067893557502,-0.1332510947761581,nan
1741085380.6264877,-0.052188648257052085,0.5166795870522025,-0.18907547727397522,-0.07499049647520092,nan
1741085380.6303916,-0.29771461012781764,0.11139266588913713,-0.1769979849912657,-0.0280038330277535,nan
1741085380.6342955,-0.323981477535054,-0.5373944884015343,0.01736081640409323,0.07746999037410883,nan
1741085380.638199,-0.029613921987272758,-0.8377475279913142,0.2591032330207946,0.24692197545998276,nan
1741085380.6421318,0.4102951787140687,-0.4584531160100408,0.3433424501249416,0.3730590422003364,nan
1741085380.6460357,0.6649963716587701,0.35516745751640755,0.14622758758448798,0.31230236970207637,nan
1741085380.6499393,0.5065638534468432,0.9639820623539122,-0.2598546832233004,0.027855323725304495,nan
1741085380.6538432,-0.0057143625801038,0.8725080996897043,-0.6186435475221923,-0.33598661875082514,nan
1741085380.657747,-0.5628396615969099,0.15724892597903453,-0.6420867917197149,-0.5356559686459839,nan
1741085380.6616507,-0.8280452234414214,-0.5952370768634456,-0.21634694708118507,-0.4155278927504099,nan
1741085380.6655545,-0.6611668962640836,-0.7960625323572327,0.4763689310989952,-0.04465956634071188,nan
1741085380.6694582,-0.17947419030023007,-0.3635442145474621,1.0231814327684603,0.32322149586932697,nan
1741085380.673362,0.36053061709209266,0.22279887779738636,1.023114448573707,0.4448489669699154,nan
1741085380.6772656,0.7332574494469444,0.38099594985884877,0.36936368726912455,0.27715448880183513,nan
1741085380.6811695,0.8285884454346104,-0.013102400123109814,-0.6216010790305663,-0.0013235637448679258,nan
1741085380.6850734,0.6276875626233629,-0.4879137249537402,-1.3550732084727484,-0.15642421852941568,nan
1741085380.6889982,0.16011898954562406,-0.4183085941361,-1.3236685345464732,-0.10441595593997394,nan
1741085380.692902,-0.473330946053715,0.33221810827018516,-0.46928612007444165,0.027299974105654514,nan
1741085380.6968057,-1.042538598157849,1.174108746430812,0.7202444134332778,0.03978269197992515,nan
1741085380.7007096,-1.2175814770462,1.24188627473156,1.4901470949049562,-0.1281963041678776,nan
1741085380.7046132,-0.757646783041184,0.1956667039340284,1.3218111061006466,-0.3222562397532713,nan
1741085380.708517,0.24183797725422101,-1.3356067017522493,0.3178491057855766,-0.3101808830811615,nan
1741085380.7124207,1.2737201098626298,-2.138768015685822,-0.8314315102159101,-0.015554241428714305,nan
1741085380.7163246,1.6702035990758475,-1.399686688955731,-1.3202520582990125,0.3755245844047551,nan
1741085380.7202284,1.0723848187002993,0.5170768287270329,-0.822565269304449,0.5533512510768027,nan
1741085380.724132,-0.2288114527171852,2.213248052286364,0.2381631636621401,0.35982739644612755,nan
1741085380.728036,-1.4036163423627164,2.3154328516799145,0.9870483785852285,-0.052833730788524914,nan
1741085380.7319396,-1.6448446362371725,0.6340631148377383,0.7803426098486863,-0.34520360598841887,nan
1741085380.7358716,-0.7886782577209767,-1.5653859635806722,-0.24152712179592617,-0.30331390412651194,nan
1741085380.7397752,0.5113984276683816,-2.500851721576223,-1.1978852166497498,-0.052137503860809425,nan
1741085380.743679,1.2563052424568255,-1.3353033050601812,-1.1413116827980467,0.0560840432024487,nan
1741085380.7475827,0.8943729968879406,1.0370547496012523,0.12314035930644311,-0.189823388406906,nan
1741085380.7514865,-0.2000642410017131,2.610840676853926,1.7404523135004044,-0.5744461006838731,nan
1741085380.7553902,-0.9994387404148276,1.8944891339767165,2.3536082417700874,-0.571601478212905,nan
1741085380.759294,-0.6854107828567324,-0.750401707686071,1.1646527879414699,0.16085021867482469,nan
1741085380.763198,0.5873093990962177,-3.2190881285436412,-1.2930081508986095,1.3163604704419125,nan
1741085380.7671015,1.7050613398087064,-3.2687078511706416,-3.34758041723317,1.9838840145665084,nan
1741085380.7710054,1.4695379997949123,-0.4140294352844521,-3.33157438719952,1.3050536732518674,nan
1741085380.774909,-0.32157594208781487,3.439927048894674,-0.8921567911427732,-0.7056436862231402,nan
1741085380.778813,-2.5006288079057155,5.274279768948968,2.5451116171008636,-2.886050170987337,nan
1741085380.7827444,-3.2846524969444633,3.278653003928734,4.625856082431879,-3.5785193132112756,nan
1741085380.786648,-1.6755235875793975,-1.5620378606457281,3.721715789398315,-1.862578483442299,nan
1741085380.790552,1.5779319163456633,-5.9437639203205475,0.2071148128472391,1.542775893798868,nan
1741085380.7944558,4.303631405122371,-6.566492788864916,-3.6442470194390433,4.508619919667019,nan
1741085380.7983594,4.406919911248384,-2.626770091331218,-5.176446984364047,4.866336244662486,nan
1741085380.8022633,1.4816771119363703,3.419204010991023,-3.2475501787056453,2.0138463887424223,nan
1741085380.806167,-2.7170813774553264,7.479896015629147,0.8808100506033912,-2.450465197169055,nan
1741085380.8100708,-5.39221678405704,6.711104384723293,4.368041457553425,-5.655039006343171,nan
1741085380.8139746,-4.665622864445939,1.5579729456039701,4.794426464787935,-5.391911650128334,nan
1741085380.8178782,-0.9500013188808996,-4.542894016308029,1.902604621869746,-1.7029109593680043,nan
1741085380.821782,3.3051435296743996,-7.577784486346271,-2.204292309720903,3.066464753741216,nan
1741085380.8256857,5.329703826498814,-5.720423558831556,-4.578860128191193,5.841989737995071,nan
1741085380.8296196,3.953903387718991,-0.4700785281266491,-3.5649733844067977,4.920766733715267,nan
1741085380.8335233,0.3329338294356617,4.567475880415202,0.012070214601134752,1.090698602443252,nan
1741085380.8374271,-3.0081647166746905,6.25980665315689,3.4750523506225814,-3.0172871964599004,nan
1741085380.8413308,-4.029073672561391,3.9827993327195617,4.274249932247403,-4.826475630688868,nan
1741085380.8452346,-2.5161287623884085,-0.26131603222434213,1.8521159350273193,-3.5444985917703677,nan
1741085380.8491385,0.030997657951859305,-3.5270429752556063,-1.9750327806468704,-0.4944730046441308,nan
1741085380.8530421,1.7430547863137837,-4.021526898628246,-4.377676673270652,2.0814667163335105,nan
1741085380.856946,1.8059138050574206,-2.0894191881123545,-3.5903222580691168,2.7265480320100344,nan
1741085380.8608496,0.8523041696016332,0.44404123301459836,-0.17486203879194387,1.6568943320456673,nan
1741085380.8647535,0.1278300114941251,1.8382763979316972,3.427627090244091,0.24754013008475725,nan
1741085380.8686574,0.2586718190461975,1.6212122166061493,4.681862010867652,-0.31377758801060956,nan
1741085380.872561,0.7261751723396929,0.590417521222631,2.750513321408911,-0.009813932346105203,nan
1741085380.8764944,0.48365605824061353,-0.1406745620618176,-0.9850831111982937,0.1925530646339208,nan
1741085380.8803983,-0.8776819545051446,-0.12146072925261889,-3.980383081156133,-0.5428203861813956,nan
1741085380.884302,-2.5102360106278856,0.22697454401784448,-4.324718333760665,-1.9322173538915477,nan
1741085380.8882058,-2.877221103182118,0.2103568418130299,-1.9771837929876048,-2.654085875258073,nan
1741085380.8921096,-1.102751043308357,-0.38121066920717284,1.3664798089938663,-1.5065055771514881,nan
1741085380.8960133,2.03952085470586,-1.0600573509891043,3.5567451311629203,1.3343771400298896,nan
1741085380.8999171,4.433449738043697,-1.12166589936808,3.42808579171638,4.10397546808437,nan
1741085380.9038208,4.127486453193412,-0.33638398541296355,1.4033579346056173,4.621746067910318,nan
1741085380.9077246,0.9217227931139402,0.7913503112274075,-1.0245481461719723,2.020353137685968,nan
1741085380.9116282,-3.250744396201762,1.4246823292687998,-2.4133399194975698,-2.3454917177946037,nan
1741085380.915532,-5.560664279346725,1.092290764310532,-2.245515749703745,-5.638088627566319,nan
1741085380.919436,-4.296942066473596,0.07166379890454659,-1.0254659524011613,-5.493560561322048,nan
1741085380.923369,-0.16872228571516168,-0.8587509436542418,0.2964604393348989,-1.7799025685213057,nan
1741085380.9272728,4.109826912709879,-1.0625226068695073,1.0286207543304675,3.1822157449480923,nan
1741085380.9311764,5.6906211492315,-0.5258977776787965,1.0649731164800502,6.161045394751372,nan
1741085380.9350803,3.5717042054312933,0.20889326080878376,0.7214413660559801,5.233206194012808,nan
1741085380.9389842,-0.7404856771425947,0.5534726293494144,0.3511364194114211,1.0879550697564533,nan
1741085380.9428878,-4.335785726777486,0.355819152641052,0.09176389768501841,-3.501505093331026,nan
1741085380.9467916,-4.935254746141169,-0.050407295310172566,-0.11125221505935648,-5.61892417353175,nan
1741085380.9506953,-2.3863936506512813,-0.22418692625179776,-0.32829207288916173,-4.144517053837933,nan
1741085380.9545991,1.392731088253231,-0.041614819124537336,-0.5277831589347358,-0.35062795540050173,nan
1741085380.958503,3.871681307592563,0.2253347151633426,-0.6097129413599306,3.1573127559178666,nan
1741085380.9624066,3.644392366819672,0.223212692919707,-0.5114922052113152,4.282387395224855,nan
1741085380.9663105,1.223935848372898,-0.09902277381632583,-0.2565477427658412,2.7230513262284437,nan
1741085380.9702432,-1.5458970237643037,-0.41758347195466394,0.08875307471555015,-0.10280695861590798,nan
1741085380.974147,-2.890382505779264,-0.3509680727915091,0.46874256252772806,-2.258818683106489,nan
1741085380.978051,-2.249452572693551,0.13373323557739342,0.8189047098841844,-2.627833272067387,nan
1741085380.9819546,-0.42551576806174835,0.6263537228951878,0.9999908575625994,-1.451895792196951,nan
1741085380.9858584,1.2045683134866987,0.6146508135512555,0.8056113571692806,0.14560992472106138,nan
1741085380.989762,1.7078771105040538,-0.024646300422266648,0.11558744728775124,1.1167501490784888,nan
1741085380.993666,1.0996316834938293,-0.8370401941349285,-0.8979154568334021,1.148963785416727,nan
1741085380.9975696,0.09023529026064465,-1.1151026667868602,-1.724351542966853,0.6303354035756411,nan
1741085381.0014734,-0.5802715067145463,-0.4973121015808442,-1.7661294893606239,0.12570265384926635,nan
1741085381.0053773,-0.6505648833691352,0.6654386969002798,-0.776584707393924,-0.10588683631939316,nan
1741085381.009281,-0.36018059806762776,1.5177494481005334,0.8420220082001199,-0.18057993314263823,nan
1741085381.0131848,-0.0953980654590024,1.3518387743231262,2.1743998976553107,-0.3025748327012073,nan
1741085381.0171173,-0.031768991897560724,0.18870656089896673,2.3515787045756555,-0.47411395386192245,nan
1741085381.0210211,-0.06134935721763106,-1.192386276807031,1.1690682634589376,-0.4908884749101791,nan
1741085381.0249248,0.006231842125079723,-1.8202413714825914,-0.7049848395906259,-0.1939007094265978,nan
1741085381.0288286,0.2098062109628667,-1.2563120628041853,-2.13298784239948,0.30368415235956997,nan
1741085381.0327325,0.39325310485377624,0.08875551403088054,-2.2665708608695714,0.6591590067692513,nan
1741085381.036636,0.3675409239148965,1.2838865592599007,-1.1156924362175784,0.5865529083088732,nan
1741085381.04054,0.10288121362448795,1.5759139556413695,0.4929540039623831,0.12159101227644645,nan
1741085381.0444436,-0.23278496701647247,0.9050631687103345,1.5321092154558493,-0.38621057996763647,nan
1741085381.0483475,-0.41526550172744503,-0.13967151198665334,1.4926692241755397,-0.5580997622971585,nan
1741085381.0522513,-0.3472481750633946,-0.8372498120003692,0.6660738668708421,-0.2996677414377912,nan
1741085381.056155,-0.11980534143050602,-0.87259219373328,-0.19173860502071619,0.1312703047232854,nan
1741085381.0600588,0.08844873500082917,-0.47380098416433153,-0.5052897711503213,0.35872230174927483,nan
1741085381.0639908,0.16848344866124668,-0.09669686800905805,-0.2961649393694552,0.2150691482219796,nan
1741085381.0678947,0.15003424684182126,0.015133904459724942,-0.05080879052730446,-0.12605353615580356,nan
1741085381.0717983,0.13319859781278012,-0.0029521777104237006,-0.1931571491684238,-0.32064074487775845,nan
1741085381.0757022,0.1637353766335702,0.13856643800457602,-0.6474789588247688,-0.17039080705740403,nan
1741085381.0796058,0.17934968817787458,0.5139234342845834,-0.8880119285887306,0.1981378835855547,nan
1741085381.0835097,0.0790807284769593,0.8394198623750723,-0.4398209678268064,0.44698555470856943,nan
1741085381.0874135,-0.15311716799764827,0.7100568594853034,0.6111774236795637,0.32870421202215855,nan
1741085381.0913172,-0.39368389015969896,0.008407087229945206,1.5708631553353247,-0.09065516725466698,nan
1741085381.095221,-0.45626692716717276,-0.8962476511547569,1.6419005837357945,-0.48152325210076974,nan
1741085381.0991247,-0.24371398551272494,-1.3712110080530506,0.5920318189171591,-0.5275829546561172,nan
1741085381.1030285,0.1524280997235459,-1.0101331763851462,-0.9728523832012006,-0.18877006221031029,nan
1741085381.1069324,0.4945893247962459,0.013053545689208721,-1.993977224080492,0.271862223355259,nan
1741085381.110864,0.5596339580339534,1.0339816570882105,-1.7364403479609556,0.5115301651975568,nan
1741085381.1147678,0.29802634834928865,1.3787903117731963,-0.35811576645258575,0.3832360262477905,nan
1741085381.1186717,-0.12724976174962654,0.8597180061299311,1.1847719635180918,0.03171182162584314,nan
1741085381.1225753,-0.4501240776507177,-0.10540659044009856,1.8370701917325658,-0.25596103495495776,nan
1741085381.1264791,-0.4795422482737736,-0.8345014751533069,1.21586903332682,-0.2982157446424147,nan
1741085381.1303828,-0.2219209890651684,-0.8988200543047558,-0.13563288334437923,-0.14592581665004134,nan
1741085381.1342866,0.1318040721839707,-0.40455004271813644,-1.1936698789913138,0.007776955308510772,nan
1741085381.1381905,0.3398943752269218,0.16299526106369214,-1.237723940943587,0.030890451994553557,nan
1741085381.1420941,0.27255482198340397,0.37092274415407755,-0.36252359017300856,-0.02944753781644149,nan
1741085381.145998,-0.0018633799500611117,0.174023838523227,0.6581372539913828,-0.021130828457403373,nan
1741085381.1499016,-0.26222363144741856,-0.11051712883503904,1.0145565134552945,0.12797298744664187,nan
1741085381.1538055,-0.28566766578578945,-0.13399531083411556,0.4856351244104565,0.3039978131157503,nan
1741085381.157737,-0.012063826644609034,0.15528866094345142,-0.43610174669265445,0.2965688488100674,nan
1741085381.1616406,0.3871527956158195,0.4718268121343576,-0.9818495370324465,0.011938453832766729,nan
1741085381.1655445,0.5974980660481457,0.46300628527570453,-0.7266876576988524,-0.39161311843577484,nan
1741085381.1694484,0.37380397131995485,0.04124421075154249,0.10371775168416832,-0.5931631118818772,nan
1741085381.173352,-0.25144713566428145,-0.516176235618076,0.8549854025075716,-0.37213984451163845,nan
1741085381.1772559,-0.9196540255638286,-0.785646402434134,0.9790266701709348,0.17458059235853296,nan
1741085381.1811595,-1.133914516187694,-0.5449499055701545,0.4387672501471364,0.6637814877691192,nan
1741085381.1850634,-0.6001898753206142,0.044649487770961484,-0.3196282621450735,0.7074889470157821,nan
1741085381.1889672,0.4998502841375827,0.5695096681956962,-0.7600518665125667,0.22943512653021367,nan
1741085381.1928709,1.5284175220999867,0.6897913877765477,-0.6658602775945459,-0.4461506883414196,nan
1741085381.1967747,1.7557618692358559,0.38726084033857416,-0.24118975409782123,-0.8226699715976543,nan
1741085381.2006783,0.8685354959559548,-0.05865219072399888,0.13418292525156147,-0.6087870683719481,nan
1741085381.2046125,-0.7288969964634929,-0.32397070382957666,0.24605443827400142,0.05030045861850627,nan
1741085381.2085161,-2.0805874297993614,-0.2950102225863395,0.18169976265881152,0.6745921717210952,nan
1741085381.21242,-2.266086820866227,-0.11597707619043449,0.1694632874882345,0.8091088086826363,nan
1741085381.2163239,-1.041391992183234,-0.013422041688936024,0.3030362261467085,0.36370784346799245,nan
1741085381.2202275,0.9221294627847278,-0.07359665747206871,0.42438049692776714,-0.32729459964878005,nan
1741085381.2241313,2.414708323189955,-0.17508371829823416,0.2799493686455979,-0.7641767447846187,nan
1741085381.228035,2.4676846328263395,-0.12704554316297645,-0.19622775514156185,-0.6525861510784238,nan
1741085381.2319388,1.0139605593854268,0.12464738459816126,-0.745642038790226,-0.10334744670028015,nan
1741085381.2358427,-1.0402435063711486,0.41854856435500887,-0.945685271076953,0.476052158614016,nan
1741085381.2397463,-2.4040037023711505,0.5025053127985192,-0.5537633660320255,0.6945749051983613,nan
1741085381.2436502,-2.2552247402561707,0.2543095324468687,0.25372372872830296,0.447696212087183,nan
1741085381.2475538,-0.7695925808576385,-0.1961004539513768,0.9656876550553201,-0.04676145975599493,nan
1741085381.2514875,1.036129410152326,-0.55215740378236,1.099430333245758,-0.4431328974783894,nan
1741085381.2553914,2.0196378101267665,-0.5748713544739237,0.5628130473150362,-0.5196179295174269,nan
1741085381.259295,1.6709365828594505,-0.26099880484755816,-0.27296016790320976,-0.29799070124247345,nan
1741085381.2631989,0.38783819800342545,0.16610071437669946,-0.8503776486351493,0.028238480693916674,nan
1741085381.2671025,-0.8865601397186893,0.4350005766390768,-0.834628070600294,0.2631638037595082,nan
1741085381.2710063,-1.3585538248081808,0.4210783303632038,-0.3357685746807443,0.3284238922371312,nan
1741085381.2749102,-0.8935485427595697,0.20532512641255327,0.2184803324335869,0.2602549762355705,nan
1741085381.2788138,-0.0030444964233560944,-0.029266566390577158,0.4398301650535617,0.12761489107820054,nan
1741085381.2827177,0.6185089938177538,-0.15505197114740077,0.27049758891488423,-0.030304598567562298,nan
1741085381.2866213,0.6155998116606248,-0.17349440769831184,-0.01889525801942518,-0.19443377186475858,nan
1741085381.2905252,0.16398007579249446,-0.16029929906184473,-0.10186695257207272,-0.31923704435891276,nan
1741085381.2944288,-0.2619293010801362,-0.15775927912760251,0.10466067718227036,-0.32436699179014983,nan
1741085381.298362,-0.30973402202624417,-0.12887259173700966,0.3701530669985879,-0.15490840624953045,nan
1741085381.302266,-0.007940008820451561,-0.015310302139425837,0.36454747767211254,0.1411393041821694,nan
1741085381.3061695,0.3165017245948423,0.1677386659147075,-0.030203135602105944,0.40394096756768166,nan
1741085381.3100734,0.35078311667482076,0.3067352229751865,-0.5805805091068378,0.4552791283901786,nan
1741085381.3139772,0.05863169873235672,0.27457653767948453,-0.860789546253241,0.2335321907287795,nan
1741085381.3178809,-0.31416056886968063,0.05406249096408456,-0.58984893957296,-0.14064100121282078,nan
1741085381.3217847,-0.4664199711695887,-0.21875954388953886,0.12395133648878603,-0.43315049756631224,nan
1741085381.3256884,-0.29032317041783534,-0.346072153038391,0.8321391425408065,-0.45762756235340424,nan
1741085381.3295922,0.062077151447089696,-0.22760031168411443,1.0591634078369605,-0.20784039602768647,nan
1741085381.3334959,0.3269609643758575,0.04818642641957193,0.6439325854471962,0.14111728516405414,nan
1741085381.3373997,0.34525604000233323,0.2666591876796504,-0.1460247087408083,0.36285998684661586,nan
1741085381.3413036,0.16402684743171295,0.25886016871894174,-0.8073120817506062,0.33896616865667756,nan
1741085381.3452363,-0.041737926814255415,0.04064406952384653,-0.9496485178503435,0.12725161041646824,nan
1741085381.34914,-0.13366051773038848,-0.19997756164330438,-0.5439909381358293,-0.10355642617989186,nan
1741085381.3530438,-0.10899566460034736,-0.2595875067067857,0.09662981202373729,-0.20925707589366177,nan
1741085381.3569477,-0.06149555325895905,-0.08946089334114529,0.563798044926188,-0.16494016488039986,nan
1741085381.3608513,-0.06386251579419662,0.16456903941875092,0.6297465817873842,-0.053481434249304106,nan
1741085381.3647552,-0.09435743286511403,0.28626345871108017,0.35756342108697925,0.025039360230602676,nan
1741085381.3686588,-0.0738706470883336,0.17178666057514805,-0.004139454331061477,0.036181580200338986,nan
1741085381.3725626,0.033566524999527045,-0.08372454928465216,-0.22901199917877468,0.0191299304253936,nan
1741085381.3764663,0.16452593615224412,-0.26835052714790314,-0.25469560714499495,0.0267689289046793,nan
1741085381.3803701,0.2053324816807028,-0.23321564070574322,-0.16980736947900313,0.06393008177625352,nan
1741085381.384274,0.10201035073678613,-0.016608045192306096,-0.09227839811382273,0.08370226682208916,nan
1741085381.3881776,-0.0762854140508758,0.19221101409948002,-0.06145915168418303,0.04129425102116495,nan
1741085381.3921103,-0.18723811841420293,0.21694614034714021,-0.03150175838445774,-0.05094676534078617,nan
1741085381.396014,-0.13940919484198736,0.04514574807376172,0.04881951619429332,-0.12395527568064668,nan
1741085381.3999178,0.021729483554515577,-0.16254265756443725,0.1601229074762614,-0.11082772360406032,nan
1741085381.4038215,0.14805515822677273,-0.21213514532128203,0.2172651723818424,-0.010816317590488605,nan
1741085381.4077253,0.11830477075742289,-0.045944738953090695,0.14976928277953924,0.10186564895737935,nan
1741085381.411629,-0.05029754889951993,0.2022315068222728,-0.020549939031872824,0.1360643540986029,nan
1741085381.4155328,-0.2095373127335123,0.31440061136016095,-0.1817354674701052,0.06014819682628236,nan
1741085381.4194367,-0.2048474378557933,0.17026611607557116,-0.21791033086035533,-0.06895614020071313,nan
1741085381.4233403,-0.011403565095273509,-0.14624935568020198,-0.10631801707476575,-0.14974460322820715,nan
1741085381.4272442,0.23618782572661381,-0.4040492214095805,0.06082577276748588,-0.11666991910003272,nan
1741085381.4311478,0.34794455132449154,-0.40091283200661243,0.15170194220765584,0.009000373978996602,nan
1741085381.4350517,0.22963881773124384,-0.11952872614215553,0.10453498917467734,0.13746666182545333,nan
1741085381.438984,-0.04413142600060028,0.25708611074442045,-0.022803160029352548,0.1793768893570982,nan
1741085381.4428875,-0.29145179509911856,0.47907010788397003,-0.10682328008448305,0.10848951541863988,nan
1741085381.4467914,-0.3622101866512027,0.40688164833761425,-0.06966210831291778,-0.027788571933253164,nan
1741085381.450695,-0.23847611920940703,0.10041655919258224,0.05019875773829643,-0.14927243759151018,nan
1741085381.454599,-0.022385859543292703,-0.23695672024813189,0.13203988935640404,-0.19578977295540118,nan
1741085381.4585028,0.16108247675568116,-0.40591460132653273,0.0846143474239179,-0.1527198867733133,nan
1741085381.4624064,0.25185268603245253,-0.33713265103223344,-0.06295969022067584,-0.042477220619518294,nan
1741085381.4663103,0.2619718579293147,-0.11270535924966801,-0.17654860178708304,0.09540669475364093,nan
1741085381.470214,0.21690477564344107,0.1140509216524781,-0.13366016946139025,0.21370832824502006,nan
1741085381.4741178,0.10853693658030404,0.22738067693215142,0.056194542792511744,0.25931631198705013,nan
1741085381.4780214,-0.08223644030781933,0.20800895160171567,0.23815226469539402,0.18768627332205784,nan
1741085381.4819252,-0.3169955668501537,0.11522735344859106,0.2318753808830663,-0.0026200340513982136,nan
1741085381.485857,-0.46985184786636713,0.02447886441630557,-0.005584096705378578,-0.2399194248608523,nan
1741085381.4897609,-0.39528147161853827,-0.025164333498173427,-0.313729715521416,-0.3937400158818886,nan
1741085381.4936647,-0.05787450358213179,-0.041515785946868645,-0.43215017074879924,-0.3468924700867591,nan
1741085381.4975684,0.38905586273941206,-0.05421730751934152,-0.20871166294419374,-0.08587962569030577,nan
1741085381.5014722,0.6683886641049576,-0.08248393420361945,0.2505484166495544,0.26183748401588447,nan
1741085381.5053759,0.5662337971467108,-0.11893549321540563,0.6241964681414153,0.48932605523870826,nan
1741085381.5092797,0.1057475555847769,-0.13453211260296222,0.60125878982407,0.4429524743222178,nan
1741085381.5131836,-0.43818409038080836,-0.09688946044539985,0.12940129416758006,0.13520335315169763,nan
1741085381.5170872,-0.7151923418566832,0.007556666949641252,-0.5103950187152214,-0.2510533669876161,nan
1741085381.520991,-0.5459564690598467,0.1556753293590965,-0.8790654472848652,-0.47991723157264554,nan
1741085381.5248947,-0.05341769410274433,0.28414694124453577,-0.6909917400366943,-0.42125956099169837,nan
1741085381.5287986,0.42520044850685274,0.3109487490836318,-0.03403773741952292,-0.1350581311950769,nan
1741085381.53273,0.5817615943565368,0.18157783532776164,0.6731924860938958,0.18059241913508525,nan
1741085381.536634,0.3520883213618196,-0.08187510606025797,0.9663727683976613,0.33585599378320996,nan
1741085381.5405376,-0.05724702230158673,-0.36601615674999133,0.6589030262420336,0.2768268952006854,nan
1741085381.5444415,-0.34125445699711177,-0.5116708574490619,-0.03260090001352383,0.10030260657884127,nan
1741085381.548345,-0.3264855898400267,-0.40608023129283627,-0.6505613245980779,-0.04540959154570257,nan
1741085381.552249,-0.08141529513122912,-0.06670970842101054,-0.8214739230318104,-0.08418852042576899,nan
1741085381.5561528,0.16571662482139804,0.34605243431112415,-0.5011848867397456,-0.05712368395447233,nan
1741085381.5600564,0.22040211769456305,0.6093374382303546,0.03281908167569659,-0.058343657384586654,nan
1741085381.5639603,0.06667146134160352,0.5685956267652383,0.4163677181157183,-0.12703822194084446,nan
1741085381.567864,-0.14328654793112072,0.2351004945011902,0.46496965476143975,-0.19796116414443957,nan
1741085381.5717678,-0.22874530371352164,-0.21627163704670269,0.26714287791122643,-0.15907337641250538,nan
1741085381.5756714,-0.12490556112514546,-0.5493518603706095,0.053608417111108364,0.03276654585293856,nan
1741085381.5796056,0.08102166260739832,-0.6022459238962372,-0.023941224479696797,0.2838945900566195,nan
1741085381.5835092,0.2352112938029653,-0.37020596461855215,-0.007320690291406755,0.4140902780769491,nan
1741085381.587413,0.23948667028770965,0.009247385946077975,-0.048857060985664384,0.2951291853389868,nan
1741085381.5913167,0.11001452640946319,0.34672929347135456,-0.22120239221183427,-0.03295340961597334,nan
1741085381.5952206,-0.05981034216540498,0.501602422271656,-0.40759071654286916,-0.36921589519726744,nan
1741085381.5991244,-0.18127183698025479,0.43535533102825347,-0.38784861644666857,-0.4883511094093953,nan
1741085381.603028,-0.22081514719978382,0.20383859314380398,-0.05468618351840952,-0.30625106885884973,nan
1741085381.606932,-0.18873613327101316,-0.08596576266395109,0.4358888651902905,0.054037802143349384,nan
1741085381.6108356,-0.10017570718130187,-0.32123744550573224,0.7362353370876179,0.3500800814335191,nan
1741085381.6147394,0.03800962489710779,-0.41622694584563025,0.5708556582014895,0.3961708058095914,nan
1741085381.6186433,0.2007860474972221,-0.3365194256577309,-0.015136237331776263,0.19335146664055705,nan
1741085381.622547,0.3187871125990376,-0.11624671549098785,-0.6417488941331008,-0.08442750643818174,nan
1741085381.6264806,0.3012438720738705,0.14491169630621048,-0.8550893693173456,-0.23262218736657267,nan
1741085381.6303844,0.10803420974058801,0.32053603843679823,-0.4758510082565933,-0.17223468962552418,nan
1741085381.634288,-0.1887784038515078,0.3246444066031897,0.2412919002771411,0.001975736122687371,nan
1741085381.638192,-0.42191552612704186,0.1679750972179855,0.779082108963949,0.11394466738835618,nan
1741085381.6420956,-0.43264360799194745,-0.042843818692087546,0.742132421614249,0.05951204180878617,nan
1741085381.6459994,-0.19038221376549017,-0.17451548923581076,0.16034425333831867,-0.1058689025736326,nan
1741085381.6499033,0.16901413827110448,-0.16095466215444287,-0.5285804501337159,-0.21569977836988502,nan
1741085381.653807,0.4267253129793958,-0.05001752713374243,-0.8094243882355837,-0.1367003003502266,nan
1741085381.6577108,0.42991038603933907,0.038824797987780046,-0.4785384138125916,0.10958385340717,nan
1741085381.6616144,0.19444766264774657,0.01715671126064042,0.20854447595138215,0.3488837022588124,nan
1741085381.6655183,-0.11554732884206392,-0.09240847129779894,0.7401738345660924,0.3830901300841458,nan
1741085381.669422,-0.3112231652189551,-0.17002307476883,0.7370489127568581,0.14787341495457607,nan
1741085381.673355,-0.3065452250105839,-0.10207100168013816,0.22287873118729062,-0.22410717898864838,nan
1741085381.677259,-0.15520295215156937,0.10872647223771391,-0.4209978577436737,-0.48726546478804184,nan
1741085381.6811628,0.017779826954439977,0.32354713743178487,-0.759648541818998,-0.45580885396244397,nan
1741085381.6850665,0.11971814327896409,0.3657643591243338,-0.6147367502048104,-0.13879971068001445,nan
1741085381.6889703,0.1413277233196393,0.16535852403985296,-0.1470875574966416,0.2619698241043555,nan
1741085381.692874,0.1256713473157249,-0.16891241887382724,0.3186962604720183,0.4904061217782135,nan
1741085381.6967778,0.10222716016637898,-0.41691792740007416,0.5500853646840803,0.4111182063426722,nan
1741085381.7006817,0.05790186602074804,-0.4094182309674335,0.5268186916615374,0.09644211326342361,nan
1741085381.7045853,-0.029428465072964385,-0.15853347390863756,0.35870212002839647,-0.23335365480481965,nan
1741085381.7084892,-0.13789733970203477,0.15082925997090818,0.12548623258658037,-0.36911134454461564,nan
1741085381.7123928,-0.19481135506623617,0.3058140454498521,-0.1803920307793091,-0.25441437863970306,nan
1741085381.7162967,-0.1352278078213749,0.2313516434467806,-0.5532483878937607,-0.010181322868244129,nan
1741085381.7202294,0.025521824799040013,0.040860923882315506,-0.8435268059798934,0.16905941163847618,nan
1741085381.7241333,0.18109390660448868,-0.07127894166324858,-0.7811369610523222,0.16487954275381317,nan
1741085381.7280369,0.21000991938588964,-0.006106205277943428,-0.1970839239096537,0.017692029458511102,nan
1741085381.7319407,0.08031951667427664,0.14608955866376158,0.7295209072382685,-0.11699939788286155,nan
1741085381.7358446,-0.11121079544437494,0.18152035533797906,1.4574265751296112,-0.10162513586320375,nan
1741085381.7397482,-0.20992636436439763,-0.027161623785011194,1.4041312542995208,0.06616292401950478,nan
1741085381.743652,-0.13174588707603413,-0.3861486498929089,0.41049199420175825,0.24506702610961378,nan
1741085381.7475557,0.06062093016505911,-0.6156288561331623,-1.0221757056331104,0.26042219535676053,nan
1741085381.7514596,0.2051328676687441,-0.45834099446903503,-1.9761100252659918,0.05024248938784416,nan
1741085381.7553635,0.17684053029167715,0.0925995548858876,-1.7356015711967185,-0.26769859585912953,nan
1741085381.759267,-0.002954962978131241,0.7335921945871606,-0.34588519266106943,-0.4668644774226994,nan
1741085381.763171,-0.1824215977931667,1.0286702474509155,1.3345579611533895,-0.37608155579380625,nan
1741085381.7671034,-0.21005386735448262,0.7143987497907442,2.1855404760519046,-0.01684654700539437,nan
1741085381.7710073,-0.0674798415136814,-0.08756676520068318,1.6142147828374682,0.39322802735390033,nan
1741085381.774911,0.11469998443288544,-0.9155224781245014,0.002055494257609501,0.582513931024757,nan
1741085381.7788148,0.17527070324012042,-1.2548500241624319,-1.5438110875810693,0.4155470577099964,nan
1741085381.7827184,0.07054944120981207,-0.8759902487112206,-1.9751548572383888,-0.006713258465110359,nan
1741085381.7866223,-0.08368570311692329,0.00885857942717765,-1.0514629651921124,-0.41278459452117167,nan
