timestamps,TP9,AF7,AF8,TP10,Right AUX
1741051031.2746844,-0.23573477022711706,-0.31778227703045037,0.3311881436337901,-0.5260646115686318,nan
1741051031.27859,0.4987068937425584,0.4988108307598475,1.3835962372691073,-0.10654147722605539,nan
1741051031.2824955,1.1325699964710574,1.0703154703980615,1.566768759719347,0.41825597091896755,nan
1741051031.286401,1.148980999787955,1.0015036264042394,0.8172943572110044,0.7148025293883765,nan
1741051031.2903066,0.382679786272646,0.3152081481288574,-0.3303686095215673,0.5771881383913453,nan
1741051031.294212,-0.780100555363561,-0.5630713897186109,-1.142507225904372,0.061288708840338386,nan
1741051031.2981176,-1.602939330677072,-1.0968302188947836,-1.1849789700494,-0.5383146177728771,nan
1741051031.3020232,-1.4933638765526858,-0.9895374873353019,-0.5643182717404565,-0.8583353449451743,nan
1741051031.3059287,-0.4413614064830511,-0.35102677970501006,0.22692630998233218,-0.6851004918036692,nan
1741051031.3098342,0.9303142274749799,0.41338294737471504,0.6980399657130603,-0.09124101615325284,nan
1741051031.3137398,1.7632640030600795,0.882645116368641,0.6728067186374919,0.5945526889922902,nan
1741051031.3176453,1.5376166143435868,0.862183448018851,0.321772728910913,0.9732149356087927,nan
1741051031.3215618,0.4175929686072221,0.4440744656130159,-0.04901982778429287,0.810867985312767,nan
1741051031.3254673,-0.8733833958637546,-0.10865993487610996,-0.2419644834422739,0.18381294905691334,nan
1741051031.329373,-1.5499758627435316,-0.5351954386915203,-0.25492595836129356,-0.5584193723797407,nan
1741051031.3332784,-1.2756101548268577,-0.6891196881719985,-0.1904395739838766,-0.9952545910753423,nan
1741051031.337184,-0.33565289505715645,-0.5549941063646576,-0.11838508725328,-0.8829123542325416,nan
1741051031.3410895,0.6179445044645157,-0.21222667844197804,-0.03157387169833849,-0.2965478494128757,nan
1741051031.344995,1.0339819090065834,0.20168930143646405,0.08736947370707615,0.4210331613198084,nan
1741051031.3489006,0.7972728540471438,0.5211577029361211,0.1896399916763324,0.8703206262397531,nan
1741051031.352806,0.21918934475926916,0.6017116238229091,0.17868087460878104,0.8310061450709929,nan
1741051031.3567116,-0.25843973132794656,0.39394296495254394,0.01686486422616113,0.37543958984989556,nan
1741051031.3606172,-0.3910007628571382,-0.0033804811894366953,-0.19405109949378635,-0.2033340739095139,nan
1741051031.3645227,-0.24980034384122535,-0.3736220323120134,-0.2646519474218898,-0.5886661230367506,nan
1741051031.3684385,-0.0822273786161519,-0.5063365494575257,-0.08266063521150278,-0.6255558951106432,nan
1741051031.3723443,-0.06622242351647474,-0.3402640679377663,0.25288046248489454,-0.37814097844147926,nan
1741051031.3762498,-0.17013279105027884,-0.012999608347777258,0.4698716756075399,-0.04206588771494387,nan
1741051031.3801553,-0.21565489101082733,0.23635322082018717,0.33357567784588876,0.20497576498522344,nan
1741051031.3840609,-0.06536430557788776,0.24781157686890087,-0.13403074165539772,0.30135884084828574,nan
1741051031.3879664,0.23676906022162483,0.0629768118834003,-0.6225458996116117,0.29146606602458885,nan
1741051031.391872,0.48869168851828076,-0.1153113971410726,-0.7448479440655195,0.2419371676145796,nan
1741051031.3957775,0.49044638621009656,-0.09996355827645835,-0.34243773173272524,0.17051650787080824,nan
1741051031.399683,0.2048726278471204,0.11135492076369666,0.3603582821947333,0.04855955359297776,nan
1741051031.4035885,-0.20892287094452477,0.3217388988348638,0.8924518898637557,-0.13616345928905696,nan
1741051031.407494,-0.5086162272196548,0.2973467778799802,0.8730504163279014,-0.326285539050039,nan
1741051031.4113996,-0.5340830971817003,-0.022201880346946857,0.2948860628563724,-0.41140004601653773,nan
1741051031.4153197,-0.301175252070403,-0.44354763100451033,-0.4653543262991214,-0.30893303249539644,nan
1741051031.4192252,0.0330334969177217,-0.6482823286531689,-0.917289788848837,-0.041764676286345774,nan
1741051031.4231308,0.2897794912681285,-0.4386120997694919,-0.7997542837138535,0.25805242741257933,nan
1741051031.4270363,0.37604279335225627,0.0936592145662029,-0.2403916672689498,0.43040219516944234,nan
1741051031.4309418,0.31034376621935994,0.6142436651592768,0.3711457804891884,0.39269313066203126,nan
1741051031.4348474,0.17094504950785025,0.7801335361846274,0.6763639498162112,0.18836514441939234,nan
1741051031.438753,0.02574501361826985,0.4834073238597005,0.5749143752110731,-0.05608995436940767,nan
1741051031.4426584,-0.09914286480501758,-0.07830229041246349,0.23140218994287834,-0.22532720897617117,nan
1741051031.446564,-0.20159849347639075,-0.5510737362249662,-0.10262040470282925,-0.2823290144965828,nan
1741051031.4504695,-0.27011344056953424,-0.672177487279843,-0.27985334775096304,-0.26045195574027163,nan
1741051031.454375,-0.2741374178647525,-0.4291959380984368,-0.311823615726223,-0.20172256609475506,nan
1741051031.4582806,-0.1871968406268833,-0.027026068638946892,-0.27922461396741655,-0.10863455817076627,nan
1741051031.4621954,-0.018310247596287618,0.28637215101093777,-0.2165444173573185,0.041986297439792285,nan
1741051031.466101,0.17932175523727986,0.3863556594238767,-0.09057851536811513,0.23960803342880058,nan
1741051031.4700065,0.33108897899393125,0.31105231207300477,0.11906077737386568,0.4018843836967105,nan
1741051031.473912,0.37685213787624694,0.17420466322640266,0.33888835275803214,0.4107299614472741,nan
1741051031.4778175,0.29454191765513515,0.05198984396469746,0.4230047923956796,0.20651070676111563,nan
1741051031.481723,0.1020657530760561,-0.05518714866664786,0.274387878265872,-0.13824925085069015,nan
1741051031.4856288,-0.15200679485160776,-0.1714275926295839,-0.04557878231217121,-0.4400341354393088,nan
1741051031.4895344,-0.39535533899102565,-0.27653210888835333,-0.334638052701543,-0.5204625369088789,nan
1741051031.49344,-0.5378438659248886,-0.2997045606717331,-0.3984388622949335,-0.33372211730112306,nan
1741051031.4973454,-0.4922590759817166,-0.18528400350422203,-0.2092634471266438,-0.0027869257797483713,nan
1741051031.501251,-0.21912805169714258,0.03669496685730729,0.06751628779530844,0.26992628624460613,nan
1741051031.5051565,0.2223752112619411,0.25077255014469146,0.21138668404784872,0.3496854150523498,nan
1741051031.5090756,0.6597130097813592,0.33600062973962536,0.13446793047795177,0.2567456400596707,nan
1741051031.5129812,0.8639537822413074,0.257187281322098,-0.04596856494645114,0.12426421152498754,nan
1741051031.5168867,0.6700322672612462,0.0857932930641763,-0.11877178734160926,0.06613144661520344,nan
1741051031.5207922,0.09748158444899017,-0.06721611225846644,0.020395534016252517,0.07212958694062233,nan
1741051031.5246978,-0.6132414859885209,-0.14310131638943546,0.25842941449516943,0.02605992240990531,nan
1741051031.5286033,-1.0969203797853027,-0.16676276024084113,0.3511612685058293,-0.1647278842086844,nan
1741051031.5325089,-1.0589681641414292,-0.19233440742915783,0.14167791090382723,-0.44310217726915324,nan
1741051031.5364144,-0.46188873704265543,-0.22206674168289464,-0.2769564490973593,-0.6021625692596694,nan
1741051031.54032,0.41871150154681025,-0.18626671024858768,-0.6046785704205949,-0.4340075893117203,nan
1741051031.5442255,1.122631179111072,-0.014444067165488237,-0.5624381128290994,0.0803580754676922,nan
1741051031.548131,1.2589995766327133,0.2648117718296688,-0.12418262478486888,0.6980973799368653,nan
1741051031.5520365,0.7389918664233475,0.4975038287799814,0.4400429685893514,1.038857320706178,nan
1741051031.5559545,-0.15926866810892348,0.4974771622433022,0.7526945607950282,0.8357083112812551,nan
1741051031.55986,-0.9440809674774637,0.19743715124678335,0.6041564658206845,0.1361037664841434,nan
1741051031.5637655,-1.1959782243697763,-0.26758280483987495,0.10088116397402265,-0.6984743251894617,nan
1741051031.567671,-0.8116704703548162,-0.62673655112892,-0.423131143347734,-1.2044204493476607,nan
1741051031.5715766,-0.053286814247538436,-0.6530116366775243,-0.6523038424162938,-1.0987534506162104,nan
1741051031.5754824,0.6270546411956653,-0.32296638209750234,-0.4978179557637848,-0.44423160451595667,nan
1741051031.579388,0.8715653650479043,0.16611972522563986,-0.119598123187817,0.4040713676185959,nan
1741051031.5832934,0.6237965514568055,0.5336175877260751,0.22745078623760212,1.0193666988984633,nan
1741051031.587199,0.1272173394335569,0.6000796667033979,0.3793154406116752,1.1367207543979863,nan
1741051031.5911045,-0.27122738741126245,0.382203215492288,0.3364835653120236,0.759727523373452,nan
1741051031.59501,-0.3656450316057282,0.04249045067781589,0.19769923877384765,0.10594761062019462,nan
1741051031.5989156,-0.20938738056727488,-0.24425868786934302,0.04693293707603806,-0.5363641571965824,nan
1741051031.6028328,-0.031045485963454515,-0.39165869111078455,-0.09429603129982751,-0.9361169146004986,nan
1741051031.6067386,-0.024744703262971523,-0.4033564590142105,-0.22387572834325167,-0.9766239113613091,nan
1741051031.610644,-0.18396493321859936,-0.30844812415613215,-0.29904401882263687,-0.6571857829435022,nan
1741051031.6145496,-0.31089328741840744,-0.11761609989037593,-0.2459051226393028,-0.08113854335402922,nan
1741051031.6184552,-0.19364011114213658,0.15139012173593996,-0.04216292319539137,0.5558901203496066,nan
1741051031.6223607,0.19160835300338133,0.41786983225730734,0.21529862998818713,1.0038497237960091,nan
1741051031.6262662,0.6214185562265843,0.5365428114897808,0.349343329202984,1.0478064324170087,nan
1741051031.6301718,0.7690637170248044,0.3876394004353819,0.24114093728493532,0.625331848955492,nan
1741051031.6340773,0.4519829468859948,-0.003219107695378089,-0.04753754646862551,-0.1034144484014893,nan
1741051031.6379828,-0.20487002694130144,-0.43111412914066893,-0.29337268979334846,-0.8037902311044446,nan
1741051031.6418884,-0.8225494591662045,-0.6250314279781939,-0.28273394175624694,-1.1318091724286266,nan
1741051031.645794,-1.011946892109366,-0.44281116879631416,-0.0026391329282039622,-0.9258604871659423,nan
1741051031.649711,-0.6376656099133745,0.005117983214574239,0.32017967348103343,-0.3016440825244231,nan
1741051031.6536164,0.08664730652905533,0.41752952687993616,0.3889299167541371,0.41591279034691636,nan
1741051031.657522,0.7386272436102761,0.5188222349933332,0.09105565614013013,0.8808660166335517,nan
1741051031.6614277,0.9610025793870385,0.26582769851692206,-0.3768928491563589,0.912002620652894,nan
1741051031.6653333,0.6764130074793674,-0.12267895654729037,-0.6374927502201861,0.5626203012572779,nan
1741051031.6692388,0.10336338484886408,-0.34272125062862546,-0.43029460834697547,0.04841610891109966,nan
1741051031.6731443,-0.4170210756347272,-0.24733692775331598,0.1568817936836634,-0.396311252714007,nan
1741051031.6770499,-0.6437028481157432,0.04353758994172261,0.7220001839347142,-0.6307554428896867,nan
1741051031.6809554,-0.5518553728948006,0.25517753805284404,0.8396331912020162,-0.6306439892445925,nan
1741051031.684861,-0.2849498178763247,0.19638092605377766,0.38861864284784625,-0.4427864770689987,nan
1741051031.6887665,-0.012437048299035901,-0.0780531519904461,-0.34247536268903944,-0.1347925969404156,nan
1741051031.692672,0.18178329186237885,-0.3180085626852422,-0.8603279941763174,0.2171048783293109,nan
1741051031.6965888,0.30474291732451253,-0.2972119576384219,-0.825945559994317,0.5144237695518007,nan
1741051031.7004943,0.38004029341933826,-0.011986455628961876,-0.2915862916628287,0.6423298240737214,nan
1741051031.7043998,0.3839963946233752,0.31162397770493877,0.35968626200162906,0.5198669570932022,nan
1741051031.7083054,0.25914523123994243,0.408656986968991,0.710323251062916,0.1665738374298764,nan
1741051031.712211,-0.010007056264118748,0.19985045075802751,0.6007459307612592,-0.27478037626413,nan
1741051031.7161164,-0.33742508413555816,-0.14282583546426642,0.19902782130345686,-0.5966524408115851,nan
1741051031.720022,-0.5595503923566978,-0.34484959224777156,-0.17855254629209202,-0.6409380673124693,nan
1741051031.7239275,-0.5365425550782275,-0.26216176525896795,-0.3246646004902,-0.39385498990189227,nan
1741051031.727833,-0.2544441507035076,0.003118221135539882,-0.26287398283182545,0.006172836829781912,nan
1741051031.7317386,0.153326269020302,0.20231867598004288,-0.15836010842284107,0.3542803519234831,nan
1741051031.7356443,0.4839448591986439,0.16479823357100695,-0.12794411323175603,0.4987501426176347,nan
1741051031.7395499,0.5850706297837068,-0.05160097438312165,-0.13380938496647274,0.4146289477230062,nan
1741051031.7434654,0.4323278748645622,-0.21720970295140812,-0.05093792433775774,0.1909788754924384,nan
1741051031.747371,0.12043267259963439,-0.14405635596199343,0.1702819448059398,-0.04456001207593503,nan
1741051031.7512765,-0.2080546495663905,0.13381563961469545,0.41293157982692563,-0.20236699262763483,nan
1741051031.755182,-0.4351862920864972,0.3765228382042058,0.47133181768062893,-0.260095022392082,nan
1741051031.7590876,-0.4987682731208953,0.3429709252652065,0.2349667019612765,-0.24145566966286466,nan
1741051031.762993,-0.38733553295275785,0.008919975555482643,-0.1882066990134011,-0.17799802810127796,nan
1741051031.7668986,-0.1316516305786253,-0.3929314783032919,-0.5288141153451076,-0.08843172906648175,nan
1741051031.7708042,0.19059756229211613,-0.5521074483932853,-0.5563555588127578,0.016665599315902894,nan
1741051031.77471,0.45643160955162415,-0.33208009242238834,-0.25813182924691697,0.12177126946542836,nan
1741051031.7786155,0.5364834236245087,0.11582770955335213,0.15288751248370436,0.20346089745571186,nan
1741051031.782521,0.36942378421659666,0.4713084142230064,0.4066294159409843,0.23905558588670392,nan
1741051031.7864265,0.022121136442151284,0.4964502679380597,0.37876464786281044,0.2149702145723353,nan
1741051031.7903416,-0.32557509620339453,0.21144855172631774,0.16225422497165137,0.127339381022688,nan
1741051031.7942472,-0.4835715522618035,-0.14406059932957038,-0.04024681514671219,-0.01835936712757068,nan
1741051031.7981527,-0.3785227875965246,-0.31916288457269965,-0.09784094088752815,-0.19833368493392242,nan
1741051031.8020582,-0.10711209802048657,-0.24627456452931973,-0.0462546877538205,-0.3567662400530118,nan
1741051031.8059638,0.13582499126604747,-0.06258296265170406,-0.022185630608509768,-0.40980417771555233,nan
1741051031.8098693,0.20672220011003922,0.042866372333001515,-0.10972438123924416,-0.285566413068676,nan
1741051031.8137748,0.12208033004422049,0.0069007845938625365,-0.24653542226142713,0.013452552471906845,nan
1741051031.8176804,0.032606122270346594,-0.06646627885286062,-0.2772272025907326,0.3734811873762872,nan
1741051031.821586,0.07729798913896213,-0.0300392179957539,-0.10394158450635205,0.605254713532797,nan
1741051031.8254914,0.23906821401332687,0.1419341966610824,0.20515455660756293,0.5515601767682389,nan
1741051031.829397,0.33470577502520826,0.3090270777638082,0.4510715626903562,0.20199736157443188,nan
1741051031.8333025,0.16718757491504257,0.2874179088160778,0.45608960879711075,-0.2734488941368372,nan
1741051031.8372173,-0.27377644530849843,0.030033979683963142,0.20323687835713145,-0.6136481679189321,nan
1741051031.8411229,-0.7373044919744998,-0.3044561830969314,-0.1529783956468575,-0.6294997991379718,nan
1741051031.8450284,-0.8543207375216431,-0.4664966336009644,-0.4069047882808047,-0.32806314416392846,nan
1741051031.848934,-0.41700231608725163,-0.3216952337561973,-0.44568827801097877,0.09571379393760986,nan
1741051031.8528395,0.4133951547648444,0.03080367006546089,-0.3001756154866359,0.39694974846217773,nan
1741051031.856745,1.1505646865534536,0.3342299712567375,-0.07939132362402834,0.4459129237297376,nan
1741051031.8606505,1.2830825486801907,0.38218969024406385,0.13035754557010198,0.29589099829830945,nan
1741051031.864556,0.6362213748215959,0.1805143553787739,0.3022082442999023,0.1075541660972465,nan
1741051031.8684616,-0.4653118859019905,-0.07476863850899435,0.4213853567013069,0.0003808555321217767,nan
1741051031.8723671,-1.369701381829607,-0.17892949083860918,0.4287321386489461,-0.03939638731306327,nan
1741051031.8762727,-1.5076562115275276,-0.09509691563986837,0.24269445629836034,-0.11572162765013667,nan
1741051031.8801782,-0.7676804400934678,0.03129282277265777,-0.13915652978193663,-0.28641739326551435,nan
1741051031.8840973,0.4198673347114951,0.028794171583984486,-0.5595893746470756,-0.4634318888475795,nan
1741051031.8880029,1.3506758056547146,-0.12123167969154428,-0.7521944197547829,-0.4552941558615689,nan
1741051031.8919084,1.4884195138213423,-0.25436875339151704,-0.5247911682036676,-0.13500057801372528,nan
1741051031.895814,0.7892574893974913,-0.177776558141931,0.05833467084887018,0.4035648757624029,nan
1741051031.8997195,-0.29561576964629244,0.12752458878025716,0.6632741627457003,0.8490883149425459,nan
1741051031.903625,-1.123825708288803,0.44853487920358714,0.8920053844611754,0.8666771373381504,nan
1741051031.9075305,-1.2595197300182286,0.4983404981371678,0.572224231345936,0.3537322992045734,nan
1741051031.911436,-0.7089478442310816,0.1682181851009149,-0.09472847706082134,-0.4401469655846592,nan
1741051031.9153416,0.13534696336744556,-0.3454342938296848,-0.661574120617902,-1.0418090695801334,nan
1741051031.9192472,0.7736392965293776,-0.6659291790329543,-0.7571920058829434,-1.060958340536485,nan
1741051031.9231527,0.9020150735451963,-0.5285122947758014,-0.35833791993711633,-0.4619439164218076,nan
1741051031.9270582,0.5520933351154402,-0.004897715254636977,0.20398600341460224,0.3979652421151095,nan
1741051031.9309762,0.00946385451298281,0.5319813938471123,0.5103810991515179,0.9985575354346589,nan
1741051031.9348817,-0.4009418273940926,0.6872281057968703,0.378510824087694,0.99625519112551,nan
1741051031.9387872,-0.5075383711609747,0.34935263940164,-0.012772985821896739,0.43713769379111383,nan
1741051031.942693,-0.35044459399337463,-0.22270694840652666,-0.29540226348596216,-0.29770167720949525,nan
1741051031.9465985,-0.09918702396166175,-0.6015083193371209,-0.2304737060527699,-0.7621988672928164,nan
1741051031.950504,0.08651141263780678,-0.5204878304565664,0.09548692968866987,-0.7321330023752509,nan
1741051031.9544096,0.15043530960727028,-0.06959929488297792,0.35830928565964015,-0.3146276571039113,nan
1741051031.9583151,0.1375861109164082,0.39154753496868494,0.287909520656042,0.17214555635425655,nan
1741051031.9622207,0.1210719417139639,0.5230289085866402,-0.08875312030325413,0.4369040403040126,nan
1741051031.9661262,0.12801588506532202,0.2601058545483787,-0.46313539262886144,0.39235827951131586,nan
1741051031.9700317,0.1225056601724439,-0.16173388552855344,-0.5067945534295445,0.16209340036315023,nan
1741051031.9739373,0.051542519368201006,-0.41434697142254723,-0.15572093392279787,-0.05477369632001359,nan
1741051031.9778547,-0.09065221170732239,-0.3355489796313901,0.32676114369270987,-0.13732333750030545,nan
1741051031.9817603,-0.2372731030171846,-0.031950161304662994,0.5644939796175429,-0.10149377665647871,nan
1741051031.9856658,-0.2875486276907157,0.23827167380348344,0.37994265734686233,-0.0426835959012276,nan
1741051031.9895713,-0.18273806197778591,0.28523466722924656,-0.06089612414949706,-0.03287310012213913,nan
1741051031.993477,0.03902631550822201,0.12287288923908113,-0.3923773509284599,-0.06365950929237771,nan
1741051031.9973826,0.2551289245322468,-0.07731773131082428,-0.35883321025821363,-0.07236039127048655,nan
1741051032.0012882,0.335227135153819,-0.15189173569374245,-0.026451298230048263,-0.01411759480206605,nan
1741051032.0051937,0.22985186512285474,-0.07748811078513322,0.2821952484459665,0.0891183622074105,nan
1741051032.0090992,0.0060794101736920516,0.03611556167435724,0.27386425055510033,0.16292987907914877,nan
1741051032.0130048,-0.19783632198750375,0.06623020927463072,-0.05465416671747014,0.14121111244052373,nan
1741051032.0169103,-0.2671490200440625,-0.008959285518641521,-0.4058145715505656,0.02105381397808878,nan
1741051032.0208158,-0.18524690525790707,-0.10250503583564621,-0.4337794160240123,-0.13019659010206652,nan
1741051032.0247328,-0.0337503798559352,-0.11107957462128701,-0.04903262358011522,-0.21751917728509626,nan
1741051032.0286384,0.07878727031473691,-0.013284225920660114,0.48339982670367765,-0.17801356618096792,nan
1741051032.032544,0.10077342602159453,0.11552136244663123,0.7412413988821468,-0.01999837600766609,nan
1741051032.0364494,0.06656241566359893,0.17625585447955033,0.48204235701870424,0.17781783584114147,nan
1741051032.040355,0.04964629418023949,0.13124049112699232,-0.15256299693508066,0.30338881436423504,nan
1741051032.0442605,0.0837574495572769,0.02358130965283774,-0.7314936064199447,0.26745498260905176,nan
1741051032.048166,0.12404449854237742,-0.07620700303005279,-0.8536189533227183,0.05653504110715796,nan
1741051032.0520716,0.08685929391031773,-0.13335085942270553,-0.44115955536487367,-0.24202336889349377,nan
1741051032.055977,-0.06293892450198615,-0.15766773397664532,0.21627356427988675,-0.46518074252983793,nan
1741051032.0598826,-0.25507782357945574,-0.1587391855542429,0.6881146206085715,-0.453770474012343,nan
1741051032.0637884,-0.34643627237008867,-0.10927641953807828,0.7124128425065471,-0.155766278620558,nan
1741051032.067694,-0.22888140526518327,0.029100407355612805,0.35187915118672447,0.309333683252682,nan
1741051032.0716105,0.07023262249900135,0.23509272641394702,-0.10189628013397947,0.6843257576748986,nan
1741051032.075516,0.3815992500804764,0.39193503665283186,-0.37181713262311006,0.7125780953833091,nan
1741051032.0794215,0.4992798448702815,0.34954610189625007,-0.38126483058904276,0.3099435720191889,nan
1741051032.083327,0.3261644458390283,0.05585166135723745,-0.24986954530454916,-0.344914181546081,nan
1741051032.0872326,-0.04920195236486828,-0.35478921138778174,-0.13658484662816214,-0.8832398877370917,nan
1741051032.0911381,-0.40527804697398684,-0.6160314556226458,-0.08765623694211225,-0.9600339442724485,nan
1741051032.095044,-0.5334521771464317,-0.5140430913088111,-0.022387355259270707,-0.481297393336096,nan
1741051032.0989494,-0.37142609027229845,-0.0670887528384615,0.14626081453078513,0.31034181073737516,nan
1741051032.102855,-0.03090964334280588,0.4538016065555751,0.38190404766245467,0.9640854756303071,nan
1741051032.1067605,0.290637414085801,0.7020348347797071,0.5162083131376811,1.0930825239929773,nan
1741051032.110666,0.43953341024071346,0.5073532501908521,0.38031645971058214,0.616448422804895,nan
1741051032.1145716,0.3818486857190201,0.006942013112274115,-0.03277716182846796,-0.18896964700879182,nan
1741051032.1184871,0.18601568311542485,-0.4533074443472173,-0.5177923877207963,-0.8618727877311153,nan
1741051032.1223927,-0.04979303871612719,-0.575206762152548,-0.774281075716516,-1.0394553635866488,nan
1741051032.1262982,-0.2537965048205096,-0.3224131521008162,-0.6122039403330058,-0.6652977647177625,nan
1741051032.1302037,-0.38269661682563855,0.07379284568713157,-0.09433551503663036,0.004474770829202892,nan
1741051032.1341093,-0.3952334051187731,0.31361482637659094,0.4909677477371178,0.5835534472158416,nan
1741051032.1380148,-0.2513461428566416,0.264532753208568,0.8091410987078627,0.7926480661468008,nan
1741051032.1419203,0.04278720983408642,0.0426668589973767,0.6869902518145276,0.5978246149426922,nan
1741051032.1458259,0.3858575331320183,-0.11570364254714796,0.21136738184051207,0.18048849764978933,nan
1741051032.1497314,0.5963529322002675,-0.07088738194766853,-0.3369490361841984,-0.2116920820756752,nan
1741051032.1536372,0.513920872367975,0.1047652029588116,-0.6598635151951128,-0.41616605835603654,nan
1741051032.1575427,0.12712524600330222,0.20672619047225832,-0.6120287844882673,-0.4148634120783371,nan
1741051032.1614482,-0.37742260289551016,0.09492905376705953,-0.2653306486742871,-0.2890312290160638,nan
1741051032.1653633,-0.7064672622930374,-0.17045454946173216,0.1565949194962873,-0.1302609296811892,nan
1741051032.1692688,-0.6471496432670861,-0.3738682446999524,0.4208797722095329,0.01723695987932824,nan
1741051032.1731744,-0.21946789158543262,-0.32909197564107656,0.41610860084567136,0.1512336968687376,nan
1741051032.17708,0.32401684879110404,-0.04179895326196714,0.19951791480962935,0.26834020034550027,nan
1741051032.1809855,0.6607743371204202,0.2898907514798187,-0.05802831601635715,0.33390128938834346,nan
1741051032.184891,0.6098381980508213,0.4343146343789999,-0.1898849888892854,0.29564721725039894,nan
1741051032.1887965,0.2403531420760458,0.3065834838223488,-0.14035306252632448,0.12954922893805368,nan
1741051032.192702,-0.19621861537319213,0.020602943061789152,0.006787048857514366,-0.12205734838547683,nan
1741051032.1966076,-0.4499581525060889,-0.21989625742464508,0.09743686568701565,-0.3546554317224137,nan
1741051032.2005131,-0.4301414024749798,-0.28611043477517545,0.02907791509070878,-0.45137596167853955,nan
1741051032.2044187,-0.2271301087066516,-0.20202839753064397,-0.16074065704183124,-0.3494771466357942,nan
1741051032.2083242,-0.004340472554134237,-0.08259820760545422,-0.309980518809555,-0.0825302523830338,nan
1741051032.2122388,0.13419522158266425,-0.008568613032024714,-0.2515906229119917,0.228857158282265,nan
1741051032.2161443,0.1916002903272501,0.036448815433061096,0.04452796699005348,0.43565302400141387,nan
1741051032.2200499,0.22002505410902093,0.11297629580252354,0.4177314313181134,0.43815855582692453,nan
1741051032.2239554,0.2321454412396949,0.22285741384654284,0.6071455845519446,0.24037416744895365,nan
1741051032.227861,0.177588159970114,0.27387269229336675,0.4356455113041807,-0.051208751351154415,nan
1741051032.2317665,0.008550369505573726,0.16119085014048795,-0.04384419187608672,-0.2868195048413166,nan
1741051032.235672,-0.2341978389967698,-0.10720359573829429,-0.556577573989542,-0.35825891653964365,nan
1741051032.2395775,-0.4107100946973282,-0.37108404747804496,-0.7778469750617172,-0.25811307215006085,nan
1741051032.243483,-0.37596796654724685,-0.4249472526904489,-0.5535032695756144,-0.074724319750656,nan
1741051032.2473886,-0.1071338033034988,-0.19359168370922264,-0.01060317713391799,0.07457946351442107,nan
1741051032.2512944,0.24978079206164527,0.17975544692701492,0.524586202288484,0.12544451209539792,nan
1741051032.2552,0.4679770597772482,0.42653150226610403,0.7433192063061623,0.10334555119293483,nan
1741051032.2591186,0.40313283872313427,0.36430343325647446,0.5500950414098114,0.08683315658978367,nan
1741051032.263024,0.10308597540781161,0.05072070306915405,0.10219048961340559,0.12643042246595199,nan
1741051032.2669299,-0.22669720447336372,-0.2582045647243358,-0.3212510610950492,0.1877402184716913,nan
1741051032.2708354,-0.3762661051064453,-0.3192665730809253,-0.5105153289179538,0.17270202795447082,nan
1741051032.274741,-0.2808828536808964,-0.10609587146228283,-0.4356028392874322,0.009977332396018336,nan
1741051032.2786465,-0.05054718850278735,0.17137303855377786,-0.21330856360275563,-0.25780875750166343,nan
1741051032.282552,0.13547013040094352,0.25311005111021506,0.01378887186024363,-0.4709544490778902,nan
1741051032.2864575,0.17337222162456983,0.0613098702614491,0.17403542380588036,-0.45397243741624954,nan
1741051032.290363,0.09792216844331274,-0.22599903475032448,0.26984287667922374,-0.15456583280940256,nan
1741051032.2942686,0.02135709905495326,-0.32985716072964094,0.31339793441514024,0.28872224399382534,nan
1741051032.2981741,0.0157095648774275,-0.12240834938908947,0.2791791503375923,0.6157095169480817,nan
1741051032.3020797,0.05035140912521451,0.24603989569957127,0.12873279415159636,0.6138787183075985,nan
1741051032.3059976,0.03841134067342705,0.4634400015982533,-0.11944500937108311,0.26864414156208555,nan
1741051032.3099031,-0.05902146784740155,0.3225890475222638,-0.3560535787577276,-0.21850043648494474,nan
1741051032.3138087,-0.17650863343050816,-0.09121061938182524,-0.43572362584567614,-0.5619315881080984,nan
1741051032.3177142,-0.19564176938276442,-0.458398359683338,-0.2871260777138687,-0.5796608930212779,nan
1741051032.3216197,-0.060545861081800836,-0.48620762209921536,0.016257766261375043,-0.30161664295689233,nan
1741051032.3255253,0.1515443781491681,-0.15254019072856162,0.29503972912015825,0.07378827782704486,nan
1741051032.3294308,0.27842978588227174,0.2757031103885523,0.38992803869345016,0.33067589626871907,nan
1741051032.3333366,0.2068284411263296,0.46578393722213995,0.27367179452342244,0.37390577265242714,nan
1741051032.3372421,-0.023247770397787478,0.2926482907652531,0.05676071619725264,0.2567366045090333,nan
1741051032.3411477,-0.2398520196581964,-0.06979670804637203,-0.11379874369662699,0.09787920260895135,nan
1741051032.3450532,-0.27522251854895347,-0.31205171360355355,-0.17058588021671106,-0.024564961724358975,nan
1741051032.3489587,-0.10374893723875113,-0.2582466824891396,-0.1553726255725332,-0.10986796848546397,nan
1741051032.3528764,0.13638179213665402,-0.004402853906854458,-0.1443424003907602,-0.18547013277320445,nan
1741051032.356782,0.25753869295550585,0.1896339461847788,-0.1504575709076507,-0.23864988767271159,nan
1741051032.3606875,0.17574780135583704,0.1484442738904661,-0.10590578428123494,-0.20975366407081233,nan
1741051032.364593,-0.027262184630495203,-0.06006039152540936,0.05220177993735699,-0.06020983477054208,nan
1741051032.3684986,-0.1823057991661698,-0.19953810488360507,0.27764090344483977,0.1548356738989278,nan
1741051032.372404,-0.1783681930310326,-0.10182139751154108,0.4084853277731537,0.2959194595616449,nan
1741051032.3763096,-0.04726639845286213,0.1583602276400115,0.2905760939378948,0.244628738240887,nan
1741051032.3802152,0.08166550265232707,0.32067582807710604,-0.06521070646821592,0.020201097356046444,nan
1741051032.3841207,0.10709521178573626,0.18500297221230944,-0.44137450181957194,-0.20695932149800894,nan
1741051032.3880262,0.04193460631055349,-0.17888969428692084,-0.5537145168611118,-0.24069866897772743,nan
1741051032.3919318,-0.016975224963329386,-0.46212969148196104,-0.2795270878188966,-0.032675498928713555,nan
1741051032.3958375,0.0004432659793145079,-0.38026735227339575,0.21484408645654807,0.2483483656349689,nan
1741051032.3997545,0.060128870589021055,0.056193130338966106,0.5728718573508884,0.33344333619302663,nan
1741051032.4036603,0.06062083776862772,0.5141241633607712,0.5161418110035446,0.08218547279860686,nan
1741051032.4075658,-0.049358080703906355,0.6000755575904585,0.07314198898987842,-0.3636776172909136,nan
1741051032.4114714,-0.19240306545500863,0.20088550618062972,-0.4253755716070216,-0.6500301201842744,nan
1741051032.415377,-0.21464353007703887,-0.39398974449549534,-0.5961857331301882,-0.47807194206918674,nan
1741051032.4192824,-0.035850247406626665,-0.7107933704287321,-0.3061702630263706,0.13003114380679498,nan
1741051032.423188,0.24177004536489272,-0.48094816994622785,0.2176696646987948,0.7919441611214207,nan
1741051032.4270935,0.3864312731810661,0.12529430595374008,0.5657510661501168,1.0148035821408985,nan
1741051032.430999,0.23086109536224977,0.6273350311720577,0.4713278807387219,0.5654250206240414,nan
1741051032.4349046,-0.15438269526113338,0.6270532998033094,0.020183220192780234,-0.3213248768819584,nan
1741051032.43881,-0.47729974939487896,0.1389139591094281,-0.4256487236490859,-1.0733860476210144,nan
1741051032.4427156,-0.4477663939655647,-0.4234451525386419,-0.5247892844911449,-1.1750920845908897,nan
1741051032.446637,-0.03617810467158899,-0.5964259462098308,-0.22739295388698838,-0.5391964529360873,nan
1741051032.4505424,0.46068852812876593,-0.2569062599306362,0.20127891919625182,0.421809138022715,nan
1741051032.454448,0.6317689056898212,0.27863762761800037,0.41570283537317715,1.0832434785746343,nan
1741051032.4583535,0.29080924892523796,0.531637535905182,0.27823783808350083,1.0438607550509447,nan
1741051032.4622593,-0.33740206048787236,0.2779603435010351,-0.04348343553777633,0.3898086550789635,nan
1741051032.4661648,-0.7608391079141522,-0.2553160674096874,-0.24453681179237385,-0.3983249696700004,nan
1741051032.4700704,-0.604949557715147,-0.5846655458039859,-0.16062445624010382,-0.8095938083719578,nan
1741051032.473976,0.06438944089158995,-0.3915323051990921,0.0911826727189617,-0.6558404488292541,nan
1741051032.4778814,0.7555171992207631,0.19188817398478608,0.23105582615227993,-0.15796701720900727,nan
1741051032.481787,0.9171582105020055,0.6818087249272241,0.08525022982137645,0.27237335919507644,nan
1741051032.4856925,0.378869707455373,0.6478696633399186,-0.23868548338466927,0.36138902763202885,nan
1741051032.489598,-0.4892201909157931,0.08190920862539357,-0.4334119301287043,0.15215225878745434,nan
1741051032.4935138,-1.0408710065755817,-0.5836010678979362,-0.2660152652225058,-0.08554978261792641,nan
1741051032.4974194,-0.8475462211804813,-0.8257899897249917,0.1942643885552741,-0.11245178715546324,nan
1741051032.501325,-0.035494493881973344,-0.45741880833961956,0.6022077059175894,0.07995781998734149,nan
1741051032.5052304,0.8034498624330307,0.2262106477178803,0.6089724445829902,0.2834987190290299,nan
1741051032.509136,1.061209452886353,0.6966780549509239,0.1580554028656619,0.27134085161390814,nan
1741051032.5130415,0.5714920915212689,0.6227795949266197,-0.4463423248488905,0.0016453129825790623,nan
1741051032.516947,-0.2792797621660154,0.12151469556357715,-0.7644533544220969,-0.34321120110066267,nan
1741051032.5208526,-0.8650333908498031,-0.36925550879320157,-0.5615279873023975,-0.5054574237194707,nan
1741051032.524758,-0.7995578678749926,-0.47212185944044155,0.011073975227221488,-0.35738841358969525,nan
1741051032.5286636,-0.2044351882983158,-0.1739681637927536,0.5380933980209217,0.004733201877993617,nan
1741051032.5325692,0.42864784701919434,0.1980945145840592,0.6621007730604087,0.34432204801676763,nan
1741051032.5364747,0.6455357952770141,0.28890383380918927,0.34412728679869087,0.46489299726038585,nan
1741051032.54039,0.3676811207715426,0.03157893776823189,-0.13689090169163484,0.3383536574059861,nan
1741051032.5442955,-0.09847064252436878,-0.30649221200517507,-0.4262286525615249,0.09077299521051502,nan
1741051032.548201,-0.35615588988362523,-0.3768475779010274,-0.36654777223477203,-0.12015346918698429,nan
1741051032.5521066,-0.24887168502992066,-0.06979803006964756,-0.08469173482078284,-0.22050883237859042,nan
1741051032.5560122,0.047004882303317036,0.3819386178065264,0.15480074454313728,-0.23776414573531301,nan
1741051032.5599177,0.21997391495010385,0.6016690865118135,0.18246734304765846,-0.2277656396243042,nan
1741051032.5638232,0.11526018066537062,0.39027200159955805,0.04195514686460593,-0.19714801412074043,nan
1741051032.5677288,-0.13992363152392776,-0.10844175791492555,-0.08853266137613798,-0.0999754507817093,nan
1741051032.5716343,-0.2749636622503643,-0.5329491209449522,-0.07727926958381635,0.09199788705404696,nan
1741051032.5755398,-0.1379490100844195,-0.5999082531648813,0.048335702697885834,0.3206334482504994,nan
1741051032.5794454,0.16098342807009786,-0.3129123981549974,0.14876052029488088,0.4509732402357406,nan
1741051032.583351,0.351055666133406,0.08109142406182934,0.11757715149330822,0.36449283570546964,nan
1741051032.5872655,0.24962138473125867,0.3234697261090808,-0.01888469578214744,0.06274342291650321,nan
1741051032.591171,-0.06881190239142448,0.3432951445167621,-0.13623468813628076,-0.307884348093745,nan
1741051032.5950766,-0.334793372075641,0.2558510652416499,-0.1369912609130973,-0.5389098675516256,nan
1741051032.598982,-0.3203171113286346,0.19207110056019386,-0.04000678616698482,-0.4934163854472252,nan
1741051032.6028876,-0.0385151136739523,0.1474776061497577,0.049069524215722055,-0.1946323615678141,nan
1741051032.6067932,0.2687254459029712,0.007019700688998138,0.04987444451613582,0.19089859887741836,nan
1741051032.6106987,0.34135548295427215,-0.2832091497049146,-0.013549342886827881,0.45816432076590125,nan
1741051032.6146042,0.12319652813514922,-0.5838436744395596,-0.045231116876168376,0.48176976782380576,nan
1741051032.6185098,-0.19651176897081066,-0.6298284640664802,0.014193536856159508,0.27434626047670296,nan
1741051032.6224153,-0.3515360084378578,-0.2656960004403925,0.11626096597433039,-0.038161044166254016,nan
1741051032.6263208,-0.22400754225955627,0.3620684781693658,0.1477859234013935,-0.29477660927896,nan
1741051032.6302266,0.06838424226914804,0.8553989460779012,0.049232687687969165,-0.38087013156695687,nan
1741051032.6341453,0.28869393165728535,0.8520364068697189,-0.11170827536723765,-0.275328503387092,nan
1741051032.6380508,0.285773424981007,0.3227191185323131,-0.1934661709125362,-0.05124943257464206,nan
1741051032.6419563,0.10437077070194832,-0.381022752042946,-0.11775743226221592,0.16428762296728805,nan
1741051032.6458619,-0.08544128477788089,-0.7872968870271774,0.0436848352366247,0.25561214430533247,nan
1741051032.6497674,-0.1567155455604415,-0.6660970615200331,0.12868846438579654,0.1825120235755157,nan
1741051032.6536732,-0.12683283899152736,-0.19167024575557665,0.045825441550992836,0.007703236327461512,nan
1741051032.6575787,-0.1024100606607889,0.23016498208907926,-0.11780662580969972,-0.13834819430656878,nan
1741051032.6614842,-0.13646624201244487,0.31615459571936266,-0.1624810601894943,-0.14515018652939143,nan
1741051032.6653898,-0.15321619686037274,0.13003481537614417,0.02576875960719914,-0.007674782886675034,nan
1741051032.6692953,-0.02760559062133763,-0.01727129076314385,0.32729350084489034,0.15877371414389874,nan
1741051032.6732008,0.25266761600446225,0.10559028399871279,0.4530024621439489,0.20006040098425457,nan
1741051032.6771064,0.5113201166967547,0.40207306841295815,0.19681077975351174,0.049866518255194545,nan
1741051032.681029,0.4962088204250451,0.5174470889064514,-0.3372043643910146,-0.19912425120875923,nan
1741051032.6849346,0.10603334302773075,0.17831601317747373,-0.7577615949815363,-0.3501393647765996,nan
1741051032.6888402,-0.46907203090187116,-0.5020691743373328,-0.6823927424915875,-0.25550898092204183,nan
1741051032.6927457,-0.8420852766054409,-1.0462854053902384,-0.07765973094796896,0.05018899016880665,nan
1741051032.6966512,-0.7115284501810054,-0.9774359922406605,0.6579905099942126,0.3549962743731591,nan
1741051032.7005568,-0.11112016252663139,-0.23172322631952316,0.9757206458794223,0.42561066917395857,nan
1741051032.7044623,0.5861505841417649,0.7389266393952822,0.6158890994462182,0.19757719732159781,nan
1741051032.7083678,0.9287356045733587,1.283332760528495,-0.16062053416960018,-0.16007977576353147,nan
1741051032.7122736,0.7122354021775248,1.0418903441698644,-0.7643378623264053,-0.372278985326711,nan
1741051032.7161791,0.11416865674138107,0.21321584524022244,-0.7535171965301657,-0.2825724794850187,nan
1741051032.7200847,-0.4609433099452002,-0.6185266087036358,-0.19907350626001385,0.012626360528312668,nan
1741051032.7239902,-0.688394152121486,-0.9444296617918732,0.3819740566122294,0.2431590636568199,nan
1741051032.7279077,-0.5306021015765354,-0.693851723685988,0.48153315109623496,0.20090464899107568,nan
1741051032.7318132,-0.19568627230178548,-0.21138269415972313,0.055209216300926484,-0.06848690534387392,nan
1741051032.7357187,0.08111644370156848,0.09949533896974831,-0.43079099420563527,-0.2945957222295215,nan
1741051032.7396243,0.2205766989981984,0.13003134231793978,-0.4231876808708426,-0.22296206371231805,nan
1741051032.7435298,0.29364644487908703,0.1029379652397513,0.18437700343482882,0.1358603909656112,nan
1741051032.7474353,0.36753904327276826,0.27995605307742627,0.892269406371676,0.47997109170699764,nan
1741051032.7513409,0.38636302082481205,0.634941783442354,0.9914026127942083,0.4627963654414323,nan
1741051032.7552464,0.22351889542477385,0.8201361996211125,0.20488224887045073,0.01688896003440277,nan
1741051032.759152,-0.1436559028878355,0.48022040764786605,-0.9857838871575919,-0.5357220934082755,nan
1741051032.7630575,-0.5292325194337081,-0.36399613277137544,-1.6573940189385572,-0.7177649694196198,nan
1741051032.7669632,-0.6459960331357101,-1.2275130027142371,-1.1879224197953446,-0.30881761202299834,nan
1741051032.7708688,-0.35871081425322815,-1.4869989242687967,0.18597758744727094,0.41484158967864565,nan
1741051032.7747858,0.15129689678029057,-0.8709552989798545,1.49393562359372,0.8535026206869789,nan
1741051032.7786913,0.4968934267548403,0.29604946751214667,1.7788564350448874,0.5727912143792439,nan
1741051032.7825968,0.41246478819885146,1.3091336397147284,0.8654366423908221,-0.28347562761791045,nan
1741051032.7865024,0.013641551520827778,1.5871086789144808,-0.49941839463622656,-1.0320770958256136,nan
1741051032.790408,-0.2745654805968313,1.0558205916041759,-1.2715189369761992,-0.9693514514672751,nan
1741051032.7943134,-0.10354578791319238,0.1204173210051961,-0.9810353586206972,0.015156436872870944,nan
1741051032.798219,0.42528644435773655,-0.7010899353173893,-0.10016017265515184,1.2462452881779515,nan
1741051032.8021245,0.7678300200471992,-1.1334734468536138,0.4261653131297278,1.7119254010030873,nan
1741051032.80603,0.3911277245550433,-1.1954513835467833,0.08598834940808717,0.8587060879360535,nan
1741051032.8099356,-0.6758142862239116,-0.9769518985637703,-0.6737049980678909,-0.8839571033112895,nan
1741051032.813841,-1.6996067132034738,-0.44691413340577896,-0.8232483338115884,-2.3100307866344862,nan
1741051032.8177466,-1.727720489152927,0.45451609352050765,0.2404151347709177,-2.2852789981835597,nan
1741051032.8216631,-0.3881588182645543,1.5209572769236082,1.9391703669170648,-0.6263301050245603,nan
1741051032.8255687,1.6450568352695345,2.1501298728972076,2.775690820640201,1.672033850427919,nan
1741051032.8294742,2.9833096952153437,1.666133333775721,1.5421992590616687,3.0788681623471827,nan
1741051032.8333797,2.502387756445603,-0.05186782391435162,-1.465504958161872,2.5970594657954127,nan
1741051032.8372853,0.2571289012720228,-2.1798247759791716,-4.318528806216609,0.47903982449342697,nan
1741051032.8411908,-2.4111155135743982,-3.2884664614271206,-4.715099028950419,-1.9416174481369841,nan
1741051032.8450963,-3.7395225193666746,-2.34129131535028,-1.7905940694261258,-3.1737671151355586,nan
1741051032.849002,-2.787585490450377,0.35923137786093223,2.9364022310862907,-2.56214764252846,nan
1741051032.8529074,-0.13295220326138293,3.1176875097831274,6.362917346026702,-0.6399144961882602,nan
1741051032.856813,2.5212203144486165,3.924360843140129,5.923013267839313,1.3581980812480243,nan
1741051032.8607185,3.5436740586793767,1.9796325288154084,1.5277376604975719,2.3865107504947907,nan
1741051032.864624,2.478553981800724,-1.5174261370285018,-4.1616833779664635,2.191480611728459,nan
1741051032.8685398,0.24412418884083015,-4.06576792721943,-7.441288044260968,1.23780567714893,nan
1741051032.8724453,-1.6630919398546045,-3.6730762963409593,-6.09660067061511,0.1493279031564808,nan
1741051032.8763509,-2.278265731071934,-0.4549020553075561,-0.9539773711834691,-0.7780612511118086,nan
1741051032.8802564,-1.714621605073818,3.2770464695615646,4.670887443422392,-1.5786124463011326,nan
1741051032.884162,-0.7897755926239511,4.648440614182834,7.231778178141742,-2.223607032444764,nan
1741051032.8880677,-0.16251305736418667,2.428162435632499,5.305080503964961,-2.3212033909831247,nan
1741051032.8919733,0.20738937747992245,-1.8929179970574137,0.40364303292117326,-1.3219209455087264,nan
1741051032.8958788,0.8056644875429938,-5.08062170626304,-4.2244106628619615,0.8571782806370062,nan
1741051032.8997843,1.8044742706182637,-4.560588202793109,-5.847504595779045,3.3581587460300653,nan
1741051032.9036899,2.5853351767236266,-0.45363592732402463,-3.930680458466902,4.6289952120829,nan
1741051032.9075954,2.1094959056742297,4.359408078584733,-0.1702871164823758,3.4161657164429884,nan
1741051032.911501,-0.07795407409792848,6.290007526983176,2.9314799634702515,-0.15302409812558265,nan
1741051032.915416,-3.0864059752952975,3.725043372293457,3.7787189741003804,-4.28667196977153,nan
1741051032.9193215,-4.966105878924351,-1.68411368970651,2.4785098951772335,-6.449187538141604,nan
1741051032.923227,-4.0307873177699864,-6.14337164391393,0.3552876438519395,-5.001296332624311,nan
1741051032.9271326,-0.281950073874026,-6.45485341067973,-1.2143426861876006,-0.44573152968237206,nan
1741051032.9310381,4.238695750097769,-2.3479126297124204,-1.6785945805915938,4.674238318976604,nan
1741051032.9349437,6.622895060754339,3.326382190766121,-1.3509036287951308,7.2810509763443605,nan
1741051032.9388492,5.079511380422691,6.66563076195525,-0.8189255489323379,5.726359829920695,nan
1741051032.9427547,0.3061457150131774,5.498953972217503,-0.3694773349274169,0.8907238933689267,nan
1741051032.9466603,-4.818250916765455,0.8404695631709075,0.09291647490765699,-4.345733690971606,nan
1741051032.9505658,-7.0905522812180966,-3.9851225424947194,0.6945147691372239,-6.921566029080268,nan
1741051032.9544713,-5.114576455195073,-5.798181460407088,1.259059941387324,-5.489881205539159,nan
1741051032.9583771,-0.2085986685735144,-3.741842217877851,1.3648374985721112,-1.1552428169650455,nan
1741051032.9622917,4.529454212870018,0.3560197419960636,0.7419716198917714,3.367348693392863,nan
1741051032.9661973,6.300389310547297,3.5400836043449093,-0.3869525773682681,5.528169131356604,nan
1741051032.9701028,4.3537188635745645,3.9031838942960064,-1.375116754874319,4.445832068487881,nan
1741051032.9740083,0.2543722166044587,1.7519915415029774,-1.6041224049251668,1.215358740093701,nan
1741051032.9779139,-3.3715193665589185,-0.9571748040033013,-0.9451164375230088,-2.030488621418003,nan
1741051032.9818194,-4.6001893835138,-2.2791279080601097,0.1567098802593872,-3.5477752351164016,nan
1741051032.9857252,-3.245529542446067,-1.6684912394690554,1.0302259291387852,-2.9271346683258734,nan
1741051032.9896307,-0.605145348173925,-0.10579523576695558,1.2530942722548262,-1.0481826761022432,nan
1741051032.9935362,1.6648269644035234,0.9437813578563377,0.8710721638816878,0.7418123474121139,nan
1741051032.9974418,2.6059029700993643,0.7633536179049372,0.23616620233224472,1.5460525487629835,nan
1741051033.0013473,2.2573374412103586,-0.18158858112264586,-0.3259025201264712,1.3253615488157524,nan
1741051033.0052528,1.2227271307249765,-0.8346085766969569,-0.6997817048478154,0.6517643545582034,nan
1741051033.0091715,0.06338229499308738,-0.5422784444758066,-0.894459880905041,0.13430817250200122,nan
1741051033.013077,-0.9520666161589953,0.4194182579788027,-0.8570443409656338,-0.009489367757736154,nan
1741051033.0169828,-1.6806477933994133,1.1687464538000878,-0.44934727592666696,0.024736480499346288,nan
1741051033.0208883,-1.8809851539278537,1.028470022012406,0.3461783948895643,-0.07408576276995447,nan
1741051033.0247939,-1.2866508699114578,0.09326920417577513,1.2112379014095416,-0.4129085776365624,nan
1741051033.0286994,0.05175118063582556,-0.898360523136817,1.5635291743706503,-0.8016775630784524,nan
1741051033.032605,1.5405415421920976,-1.2148915870632537,0.9690499463913484,-0.9185887138192369,nan
1741051033.0365105,2.279403892975463,-0.713451490301891,-0.408808837292394,-0.5713284557711023,nan
1741051033.040416,1.6876053333211216,0.12131588886088471,-1.7533239498258808,0.14670646937619505,nan
1741051033.0443215,0.031804738238197884,0.6509694955787749,-2.0921381933543013,0.8994009176583437,nan
1741051033.048227,-1.6396334308604488,0.612315937265173,-1.0357581030361787,1.2997899721899022,nan
1741051033.0521326,-2.198574013388815,0.25018386516492586,0.8261666555947388,1.1216374559098208,nan
1741051033.0560505,-1.2733734585803913,-0.005017703340050795,2.2502140758682363,0.41658482786171935,nan
1741051033.059956,0.4446092496220594,0.030510214447657776,2.2108373983817504,-0.5087283723454523,nan
1741051033.0638616,1.7003446640587199,0.15879270777453602,0.6780990170394087,-1.2331320367079976,nan
1741051033.0677671,1.616814426331029,0.059939339176204455,-1.313735663388366,-1.4144767595078773,nan
1741051033.0716727,0.34880194631218664,-0.33134808770143837,-2.3948784593202617,-0.9543449178849894,nan
1741051033.0755782,-1.0641631357108872,-0.7101659785203838,-1.8513852613182116,-0.05724563577236819,nan
1741051033.0794837,-1.5250271712837193,-0.667870032886271,-0.12847224733638615,0.8560090368003517,nan
1741051033.0833893,-0.7282688439417018,-0.0959221051673462,1.531176262685079,1.3525983726034356,nan
1741051033.087295,0.6346351325792269,0.654892722290204,2.020931995097284,1.2095712294463912,nan
1741051033.0912006,1.4553517593139966,1.0267087644134827,1.1507381666951446,0.5281993184699062,nan
1741051033.0951061,1.0924630728727343,0.7136197897199782,-0.3040153286540092,-0.3305659473010075,nan
1741051033.0990117,-0.14565242947025966,-0.06996220560295452,-1.2707996252369638,-0.9522881962532642,nan
1741051033.1029289,-1.2795327343858143,-0.7502423299282308,-1.1982011845123233,-1.089004656893581,nan
1741051033.1068344,-1.4450537033296742,-0.8527638969103207,-0.3829949457816947,-0.7604785579926826,nan
1741051033.11074,-0.5490707857118472,-0.37178433125187277,0.39587938685716134,-0.1913838334748182,nan
1741051033.1146455,0.7051361892244082,0.25596418158724726,0.5694865668347439,0.3482188487666013,nan
1741051033.118551,1.3992366283471014,0.5367955212017084,0.2015460647071905,0.679338484313942,nan
1741051033.1224566,1.0960740901281014,0.3253256511846365,-0.1771662914307051,0.7504219989499863,nan
1741051033.1263623,0.11077019253225895,-0.0931040570547593,-0.12060259549260494,0.5900938520609,nan
1741051033.1302679,-0.8056229715834378,-0.2938483663296969,0.31033970766229596,0.25339248391383384,nan
1741051033.1341734,-1.063688222551205,-0.1042015939279673,0.624124278206861,-0.1821403992865284,nan
1741051033.138079,-0.6276469317493055,0.2547261024598126,0.38408932015634906,-0.5880458348076193,nan
1741051033.1419845,0.06383221266840249,0.39173535502924267,-0.3478018837579961,-0.791443196599008,nan
1741051033.14589,0.5111485019115561,0.12242231036406258,-1.0154839275029386,-0.6560250189863807,nan
1741051033.1498067,0.5248336189595795,-0.34621636231725184,-1.0276717028827298,-0.19474612203261582,nan
1741051033.1537125,0.2738965444809531,-0.5924413260254543,-0.27606944797332406,0.3856397737236114,nan
1741051033.157618,0.04138545570780096,-0.3611232476983746,0.7370097558350549,0.7758540273844127,nan
1741051033.1615236,-0.045430990291959975,0.1919104793002072,1.2785421089542215,0.7527634320814366,nan
1741051033.165429,-0.0698272328998805,0.6158887583078443,0.9594559782125318,0.33478999929749953,nan
1741051033.1693347,-0.15904127462227938,0.5478723072093629,0.03165264891063388,-0.21942881899326147,nan
1741051033.1732402,-0.2989595105212805,0.03169668292238954,-0.8264197044461168,-0.5806629369266798,nan
1741051033.1771457,-0.3288851900650467,-0.5068923404985253,-1.0443338041725356,-0.5678002656706196,nan
1741051033.1810513,-0.1199084737718639,-0.6141370973190444,-0.5727052879643211,-0.25499938684058643,nan
1741051033.1849568,0.2500932497074819,-0.19262735198056757,0.14237820923943306,0.10774833816075773,nan
1741051033.1888623,0.5150700453270998,0.41079400768627494,0.5636784948802601,0.29056289628364024,nan
1741051033.1927679,0.4382733357520655,0.6898598221561687,0.48453712940081783,0.23965175287549909,nan
1741051033.1966841,0.03674184759108913,0.39830361945192144,0.12656145112042216,0.07875393513654483,nan
1741051033.20059,-0.4008444733920985,-0.2455370125645706,-0.1261793806690535,-0.026342537653454946,nan
1741051033.2044954,-0.5377706923348526,-0.7356860507073556,-0.08709285837261276,-0.013049026011832098,nan
1741051033.208401,-0.26982890920149194,-0.6859162856570277,0.10066176001527614,0.04625906239469061,nan
1741051033.2123065,0.18173764654263758,-0.1316456372417556,0.15135278979520517,0.040388679890342956,nan
1741051033.216212,0.4517591162250417,0.5120569379483421,-0.05740927256088519,-0.05709185318014836,nan
1741051033.2201176,0.3355246351578509,0.7862565251858957,-0.3543970830599606,-0.156773942708678,nan
1741051033.224023,-0.04430927522731793,0.5344417922300729,-0.4373228305356606,-0.14383435820489054,nan
1741051033.2279286,-0.35061403018299675,-0.0130339940058405,-0.16920668414713141,-0.0019133794042253956,nan
1741051033.2318342,-0.3247637436538185,-0.45741703689643204,0.2725462662066491,0.15284477378449216,nan
1741051033.2357397,-0.0054735948633721655,-0.5477024073280571,0.537202594369579,0.16985572030968799,nan
1741051033.2396452,0.3135200631471591,-0.3326079951343292,0.40711219657370284,0.010863845611356908,nan
1741051033.2435608,0.3454474012812007,-0.05126949528394914,-0.007528812492791856,-0.19289242704570858,nan
1741051033.2474663,0.06121508629724359,0.10544786649561606,-0.3627022533004491,-0.2399461465644375,nan
1741051033.2513719,-0.28849766749232797,0.13818288850240987,-0.3806079609771378,-0.04061249318459831,nan
1741051033.2552774,-0.395227652250762,0.17399236301818644,-0.08801910641836606,0.277472994706154,nan
1741051033.2591832,-0.16231291854101504,0.28268181507231355,0.21887144291678312,0.44761783030460195,nan
1741051033.2630887,0.21245338494906943,0.37013356115554,0.24933728251389642,0.27959884978289096,nan
1741051033.2669942,0.40986596873851905,0.2616930141648072,-0.015757971104688958,-0.1611428461481703,nan
1741051033.2708998,0.2646133904511622,-0.10033527139466963,-0.30686419809093274,-0.5704424203726877,nan
1741051033.2748053,-0.09588813340265155,-0.5396296469761033,-0.3143558414256479,-0.6250048954932268,nan
1741051033.2787108,-0.3654837091942271,-0.7408592195314789,0.019745647648140054,-0.24035286938818315,nan
1741051033.2826164,-0.3227203310819024,-0.49787197997216004,0.43097982103774507,0.34150282547844807,nan
1741051033.286522,-0.015048348130987318,0.0916975011866833,0.5525272880692907,0.7167615204960146,nan
1741051033.290437,0.2905189278901667,0.6623704643037657,0.2377056974345384,0.6185625204064202,nan
1741051033.2943428,0.3402971957465519,0.8368598727677832,-0.29782545183272435,0.11930796141411867,nan
1741051033.2982483,0.10580005805761221,0.5053050811785912,-0.6430207165327119,-0.4232466890905465,nan
1741051033.3021538,-0.2038778801054105,-0.09465273006163136,-0.528683944822201,-0.6358568365502423,nan
1741051033.3060594,-0.3299920989615204,-0.5603357913851024,-0.04828171093933451,-0.4054948677086521,nan
1741051033.309965,-0.18270757751966943,-0.6217070219401291,0.4239525056908298,0.052031285921602055,nan
1741051033.3138704,0.0965195298918597,-0.3194978484253288,0.5439122294321467,0.37727436799722436,nan
1741051033.317776,0.2715359286872149,0.06585926933859045,0.27068819959509866,0.3521783221809438,nan
1741051033.3216815,0.21680862169793266,0.2587434928326033,-0.1255651902877434,0.05699944942505235,nan
1741051033.325587,0.010542287350885842,0.19720957218004534,-0.31482357930404914,-0.2190583882533914,nan
1741051033.3294926,-0.15574140709440995,0.041942068502715174,-0.18983952447998048,-0.2303600874364659,nan
1741051033.333398,-0.1568712070138288,-0.0020071622326382163,0.06508126091509793,0.021133946380710263,nan
1741051033.337313,-0.035952553501024276,0.1173549164614024,0.16807051145659962,0.2956778534182431,nan
1741051033.3412185,0.05786043056611588,0.25568283411519727,0.011683269961820212,0.3254695672287713,nan
1741051033.345124,0.027133481960941935,0.21465128272883902,-0.23646085316683213,0.04682035242778944,nan
1741051033.3490295,-0.07542801789581043,-0.06116556908662841,-0.2948871078209121,-0.3380440020909215,nan
1741051033.352935,-0.10308251486997475,-0.4090274262940679,-0.04320466789358131,-0.5202089727515113,nan
1741051033.3568406,0.027700121548440027,-0.5639389774812087,0.34265840790975083,-0.3339886196604207,nan
1741051033.3607461,0.23162397195789622,-0.37167547044166993,0.5261571066568501,0.10526140716025156,nan
1741051033.3646517,0.310589539888669,0.07705645042075361,0.30569581315760913,0.48588324600204597,nan
1741051033.3685572,0.13295071030111175,0.5018396988183237,-0.18918996984556266,0.5383470051894437,nan
1741051033.3724627,-0.22256918657919766,0.6334862861379221,-0.5815862876487178,0.2378903679648403,nan
1741051033.3763683,-0.4974761882355386,0.4030091183329548,-0.5513740329974062,-0.18542589767311193,nan
1741051033.3802738,-0.45049562163538415,-0.02297808053932153,-0.10624916135382549,-0.43055406923897577,nan
1741051033.3841927,-0.06404419002760102,-0.3759547059230669,0.4127211276382701,-0.35330591766838676,nan
1741051033.3880982,0.4158290939794999,-0.47480670241843653,0.602300722826101,-0.060541308054789855,nan
1741051033.3920038,0.650541208936273,-0.3270712285990129,0.32294510218522393,0.19442597670929598,nan
1741051033.3959093,0.462194923002008,-0.08184766470536713,-0.19018230219077792,0.22193676314598276,nan
1741051033.3998148,-0.02983885613407324,0.10568831599863769,-0.52191920677691,0.040592920783924694,nan
1741051033.4037204,-0.4956634269385063,0.18001731181245478,-0.4149920914302945,-0.1543688408018191,nan
1741051033.407626,-0.6348014897418751,0.1859602011891929,0.027131455277943913,-0.16501122479785124,nan
1741051033.4115314,-0.3831160356299334,0.18645129964963228,0.43448935051300197,0.03864470582012745,nan
1741051033.4154372,0.06407375317926771,0.1856056948731566,0.47716390921413415,0.28931903367816864,nan
1741051033.4193428,0.41303282864686613,0.12867141755159212,0.12894510710245424,0.3566829111708201,nan
1741051033.4232483,0.47909483797573316,-0.026602052136793956,-0.32310034760330514,0.13739079854936248,nan
1741051033.4271538,0.2851449120196154,-0.2393415743663667,-0.5199712530798212,-0.24940418234860937,nan
1741051033.4310718,-0.0002698196582868208,-0.387533603952646,-0.3174682102280441,-0.5371433005851967,nan
1741051033.4349773,-0.20785749182827448,-0.35054878698994485,0.11288543778557592,-0.5030881328678697,nan
1741051033.4388828,-0.271011004981366,-0.1089422940900907,0.4373293422581917,-0.13449945415095838,nan
1741051033.4427884,-0.22346529865686143,0.2205612095153327,0.4285254560917285,0.3516577203185613,nan
1741051033.446694,-0.12725131061288,0.44898069865020956,0.12867382009349027,0.6496584757725992,nan
1741051033.4505994,-0.015451522481514374,0.4365547142212378,-0.21154926886937858,0.5673001422141146,nan
1741051033.454505,0.10287231389194178,0.18654337261349851,-0.3479206642789122,0.15101796852858385,nan
1741051033.4584105,0.2028475778965011,-0.1543828657489004,-0.2257357252367341,-0.3469135226972531,nan
1741051033.462316,0.23124212106551162,-0.38897975137066126,0.00931440084479919,-0.6312433344436383,nan
1741051033.4662216,0.14728610952402646,-0.39216933494799977,0.15857191031548046,-0.5460581731033124,nan
1741051033.470127,-0.022666608782769066,-0.18334091233300637,0.13613257574571638,-0.16120139106836998,nan
1741051033.4740326,-0.18101838895702352,0.09506286853546811,0.01567623295628635,0.2835736652759917,nan
1741051033.47795,-0.22521259630369425,0.27352184250293776,-0.06289490341732461,0.5316473465819878,nan
1741051033.4818556,-0.13236563421912195,0.2611968399600922,-0.02820909880357304,0.4600987381460736,nan
1741051033.4857612,0.016855982497216405,0.09500231571737536,0.0679604788471848,0.13933529853237223,nan
1741051033.4896667,0.10465326463529226,-0.09491122096956942,0.11405719992850227,-0.22435990223638225,nan
1741051033.4935722,0.07851115056443203,-0.1766107945801346,0.050516414149426946,-0.41907562181922975,nan
1741051033.4974778,-0.003612691897067518,-0.10384290200408415,-0.07542836180802921,-0.3490243126910878,nan
1741051033.5013835,-0.031216918808614935,0.056651439661553726,-0.15695194027136136,-0.07956771958352526,nan
1741051033.505289,0.04673339378478542,0.17442389406470446,-0.1268020323013364,0.21309274334336484,nan
1741051033.5091946,0.16038376850890565,0.1479440584628935,-0.015329879973137287,0.351465831384694,nan
1741051033.5131001,0.17334336152719837,-0.021297698831737544,0.08244359647193014,0.2597311739653617,nan
1741051033.5170057,0.01322946201006756,-0.22383723396895477,0.0955124078640871,0.0028286671740883284,nan
1741051033.5209112,-0.23815668013343724,-0.3121152426418449,0.037798924961618297,-0.25676598662293953,nan
1741051033.5248282,-0.38677284341437984,-0.20074239228938667,-0.01281075661888588,-0.35674445957206913,nan
1741051033.5287337,-0.28008385785166184,0.06924232056765549,0.005344707300094851,-0.23048623998733384,nan
1741051033.5326393,0.05175824568030531,0.34657353730269347,0.07431941035711681,0.05332035721946013,nan
1741051033.5365448,0.3932983383320882,0.4587823279164321,0.10942848121016013,0.3287729268721908,nan
1741051033.5404503,0.49620569802277376,0.3188183267680453,0.03837821908687509,0.4272624205648317,nan
1741051033.5443559,0.271733317462662,-0.0173276960486127,-0.12306374237877661,0.2758615687875583,nan
1741051033.5482614,-0.13244772380122688,-0.3771721540632837,-0.26707218838377417,-0.055736266973391846,nan
1741051033.552167,-0.4377794905356759,-0.5656874206560852,-0.26984612530579194,-0.38781620213882795,nan
1741051033.5560727,-0.44227034870178844,-0.47154284932123963,-0.08978702342852367,-0.527653549058604,nan
1741051033.5599782,-0.1664420521207172,-0.12755330154731123,0.18883346571087437,-0.37933184834319683,nan
1741051033.5638838,0.17483108449192664,0.3036661721971875,0.4017325348285728,-0.00496709346546386,nan
1741051033.5677893,0.34539222479553067,0.608220716797706,0.4088283296929957,0.4003592513947639,nan
1741051033.5717056,0.26250800049736156,0.6246506336132278,0.1856878439639042,0.6112388047199447,nan
1741051033.5756114,0.036925363593058605,0.3258784195421445,-0.15694892482393166,0.4984912963061126,nan
1741051033.579517,-0.14042489404121422,-0.15789250118982898,-0.43532967944139994,0.10829182310220133,nan
1741051033.5834224,-0.15839044946546807,-0.5907906383756163,-0.49648101714234644,-0.3550554933799947,nan
1741051033.587328,-0.05734228664273336,-0.7425456069634656,-0.3031659938039192,-0.6384714541693354,nan
1741051033.5912335,0.035443187669263305,-0.5122874602971331,0.04560275671909436,-0.5825145612213494,nan
1741051033.595139,0.03442555142326566,0.0008919335385848483,0.367858956554989,-0.21459055363112142,nan
1741051033.5990446,-0.03219734527531237,0.5319776114295889,0.49711807355569854,0.26386530810566056,nan
1741051033.60295,-0.06640238538680336,0.7872019366420798,0.37350776326179314,0.5913300392405317,nan
1741051033.6068556,-0.009176589642260764,0.6154275486587145,0.07626680967573767,0.5950299426047606,nan
1741051033.6107612,0.09431751050729174,0.1086341933734742,-0.2244358456044894,0.2864314916600081,nan
1741051033.6146667,0.13649477989078626,-0.4425739217127736,-0.37116810071022965,-0.15228765914963005,nan
1741051033.6185822,0.05569730085542915,-0.7226096666481399,-0.31418940684395313,-0.4793088339645997,nan
1741051033.6224878,-0.09390685380967709,-0.5864052256610454,-0.13287917857637735,-0.5316579594024211,nan
1741051033.6263933,-0.18161697399752674,-0.14578149424790018,0.03375597640893756,-0.30823783390902254,nan
1741051033.6302989,-0.11752006031659845,0.31404032773810175,0.09696093079925056,0.046031724953674635,nan
1741051033.6342044,0.05875114813944274,0.5291100906933113,0.08161609292278962,0.3352924311355192,nan
1741051033.6381102,0.20269542885320319,0.42353570010278263,0.08791829563840207,0.4229036256434282,nan
1741051033.6420157,0.1868176549768147,0.13192679279877711,0.17970935777938093,0.2929762095315741,nan
1741051033.6459212,0.013897535644584767,-0.12772692025583698,0.29769772336865563,0.03845765183799551,nan
1741051033.6498268,-0.18006981177583445,-0.22229085741014515,0.28694687941610186,-0.20283845424849725,nan
1741051033.6537323,-0.23888391360843605,-0.17915411314633778,0.03532927255983857,-0.31989249923537166,nan
1741051033.6576378,-0.11769503063919899,-0.1192214024460445,-0.3864044357926,-0.27229012746246795,nan
1741051033.6615434,0.08163331233515035,-0.11965239923160356,-0.7170953326056172,-0.09597924366786559,nan
1741051033.6654584,0.2012537337907156,-0.13635803826236326,-0.6711405122275409,0.11959585950185574,nan
1741051033.669364,0.16245095964397577,-0.05873810878486332,-0.17132827042844298,0.26940470150522755,nan
1741051033.6732695,0.025215128890077213,0.15463945755978348,0.5377626758012576,0.27608569542971156,nan
1741051033.677175,-0.07792947676067037,0.39173782950734365,1.0133105279376116,0.12822269384993004,nan
1741051033.6810806,-0.0693292448897714,0.4489159293099324,0.9128950815290817,-0.10355471855439827,nan
1741051033.684986,0.004981811987515095,0.20406233047847658,0.2548292640769231,-0.2908965695744312,nan
1741051033.6888916,0.0295445935280019,-0.24460844421958106,-0.5662569173720772,-0.3136090812054598,nan
1741051033.6927972,-0.05502428331849333,-0.6090869214751522,-1.0393867978200995,-0.1372978076795911,nan
1741051033.6967027,-0.17742553177517714,-0.6125005254616939,-0.8897446520102332,0.14823456841371366,nan
1741051033.7006085,-0.19093852581651738,-0.211692705221123,-0.2609378063930689,0.3678719954878713,nan
1741051033.704514,-0.01656556398361349,0.3429211106052917,0.40942879383035136,0.3670925275785556,nan
1741051033.7084196,0.2570841139648973,0.6753413107968788,0.7195194205681787,0.12145191366828885,nan
1741051033.712334,0.42011479409580893,0.561028391873899,0.5783384248198685,-0.22928573871452335,nan
1741051033.7162395,0.3096613143510304,0.09725310537359905,0.21733232592051424,-0.45868480382013926,nan
1741051033.720145,-0.03944735903273388,-0.3723654963818268,-0.049760636561865565,-0.40173823309633333,nan
1741051033.7240505,-0.3984903751371914,-0.5236173890343674,-0.10042620089389159,-0.07511782723341773,nan
1741051033.727956,-0.5134862121167354,-0.29697609798961805,-0.07307317492067616,0.3194376119537634,nan
1741051033.7318616,-0.3049599913589389,0.07394996436710972,-0.18142656018644138,0.5212246083951424,nan
1741051033.7357671,0.06898709085591576,0.27061822020982024,-0.4533132697746313,0.38641301248742693,nan
1741051033.7396727,0.34263007111676275,0.15919933471862863,-0.6479897934292468,-0.0072330602008867165,nan
1741051033.7435784,0.3570060264400639,-0.10460105560835029,-0.4524893680676752,-0.4039237897474054,nan
1741051033.747484,0.17549268507375917,-0.2237422446203941,0.19788314145153107,-0.5377908744630264,nan
1741051033.7513895,0.002253167043637131,-0.034915055809551857,0.9645487049998338,-0.31329753293793106,nan
1741051033.755295,-0.02028333826947224,0.3269656596474393,1.291267800933907,0.12563099160379337,nan
1741051033.759214,0.052399335658816014,0.5242436097511541,0.8232634590308202,0.487365343072494,nan
1741051033.7631195,0.02905402692633772,0.3034867735700497,-0.2647245106850664,0.5256295250901586,nan
1741051033.767025,-0.2051337759578414,-0.26211084911119503,-1.3169470837378405,0.20526615193511513,nan
1741051033.7709305,-0.5230226630696218,-0.7859939845327386,-1.6257983403888823,-0.26999863507746374,nan
1741051033.774836,-0.6114325987490362,-0.8459634581803053,-0.9400122634648342,-0.5870052626506445,nan
