timestamps,TP9,AF7,AF8,TP10,Right AUX
1741043568.2019508,-0.27788049101980994,0.3097619269395726,-0.5955598112854992,-0.4545322904591115,nan
1741043568.2058566,-0.00215255777429727,0.7836711581456463,-0.40404896069088897,-0.9092203813089108,nan
1741043568.209762,0.3526321583544868,0.7652109046134011,0.0091677891220281,-0.8036594936104243,nan
1741043568.2136679,0.5631360031502582,0.2656237666655258,0.3670504743232214,-0.20912424324091716,nan
1741043568.2175736,0.4609185268259249,-0.39083239380855206,0.45805489082032674,0.476237115458311,nan
1741043568.2214794,0.06664323006472467,-0.7819079672842156,0.2823896070953911,0.805508335386223,nan
1741043568.2253852,-0.4004862506999887,-0.6690006270294929,0.021030064623821256,0.594834034868191,nan
1741043568.229291,-0.657748551502607,-0.15067459339629505,-0.13284067879132802,0.04006364767310273,nan
1741043568.2331967,-0.546206553084749,0.41718815047074104,-0.12798642664990106,-0.4441670146468664,nan
1741043568.2371025,-0.13505304412288363,0.673403502289127,-0.06611873080085928,-0.5359793216817835,nan
1741043568.241008,0.3301218218154236,0.4928964209493151,-0.07442473631430148,-0.23127271979609648,nan
1741043568.2449138,0.5912782410743522,0.048300341637011496,-0.16708079816660604,0.1817484694812081,nan
1741043568.2488225,0.5326328078657515,-0.3400580743179218,-0.22722199397428391,0.36578935433149123,nan
1741043568.2527282,0.22476094386716725,-0.44175787564683827,-0.1257253221008801,0.19785314638053014,nan
1741043568.2566338,-0.15027878116853582,-0.261436445769161,0.13537592224731895,-0.15070778099507376,nan
1741043568.2605395,-0.4171925958616951,0.005669398457565183,0.3927449101902266,-0.36909490101425674,nan
1741043568.2644453,-0.4836283247126744,0.15305528314043096,0.4424304425538441,-0.26346441183362196,nan
1741043568.268351,-0.34708248056156443,0.12314958084971418,0.21230469242737166,0.09095781055304164,nan
1741043568.2722569,-0.06725863304951354,0.023403225757835967,-0.16365735989505414,0.41612944784192274,nan
1741043568.2761626,0.2533918779640227,0.0007551562095454637,-0.43814352862545625,0.45396992671316677,nan
1741043568.2800684,0.48040382929978487,0.09448020574556174,-0.43687741976432926,0.16551575517982703,nan
1741043568.2839742,0.4840923429818636,0.19862888886464955,-0.1857163062732514,-0.24543997307918475,nan
1741043568.2878797,0.21707307679227292,0.164777770421505,0.12269265082204338,-0.49229786067976367,nan
1741043568.2917855,-0.21413234210372284,-0.04840450706120441,0.28769347667778666,-0.4170729906661889,nan
1741043568.2956936,-0.5643669887399841,-0.31416182763886774,0.248171388265338,-0.09250905232220445,nan
1741043568.2995994,-0.5860299398008536,-0.4252744449257359,0.1009164557898561,0.2501135210819476,nan
1741043568.3035052,-0.2145155854538625,-0.2624301020275174,-0.010401564927919443,0.39683207864852366,nan
1741043568.307411,0.3413636463977501,0.09632585190279173,-0.025788852431712254,0.29177526828975575,nan
1741043568.3113167,0.7057776754193391,0.419515843298888,-0.0024410292818735635,0.047758256949837256,nan
1741043568.3152225,0.59477804583989,0.4893996515793107,-0.03173843834427452,-0.1599067938794094,nan
1741043568.3191283,0.044968499626070156,0.26193431416996105,-0.12909164002329085,-0.22068595695647472,nan
1741043568.323034,-0.576851389596577,-0.10465377258326256,-0.20723092051332215,-0.1438438007956304,nan
1741043568.3269396,-0.8192516687250276,-0.3709714917093063,-0.16032459359354848,-0.019200584167200264,nan
1741043568.3308454,-0.48056076108423285,-0.3885036983344243,0.021990016081277472,0.06496812204454304,nan
1741043568.3347511,0.2222408342958366,-0.19034633021195066,0.2233528223847217,0.0770376278140705,nan
1741043568.338657,0.7936293637513463,0.05899648441249933,0.2897627083673966,0.039699753113045314,nan
1741043568.3425648,0.8177258192548856,0.20044044871526034,0.16336820311397857,-0.007448993860473118,nan
1741043568.3464706,0.2683691179152872,0.18876515945637565,-0.06076333549497079,-0.038303092333784754,nan
1741043568.3503761,-0.46689562198182366,0.09470243072562391,-0.21086789339515744,-0.04345000706481219,nan
1741043568.354282,-0.8706011459532508,0.018188447737518307,-0.18381962199621193,-0.019445472347429087,nan
1741043568.3581877,-0.6723476909077067,-0.0002988171249420585,-0.03078078227967712,0.032512913369621185,nan
1741043568.3620934,-0.035051813544236414,0.004565846894260348,0.09447615193123163,0.0945694638320312,nan
1741043568.3659992,0.5821417525374937,-0.019552040069870935,0.07883007991998864,0.12651827168952529,nan
1741043568.369905,0.7675137625599592,-0.07767184155594739,-0.045596971451922604,0.08565921367217985,nan
1741043568.3738108,0.44093410625688656,-0.1200405821720903,-0.13297433277620388,-0.03494122447304781,nan
1741043568.3777165,-0.12466070606164871,-0.09586691321964788,-0.06549728922973244,-0.18261523793252724,nan
1741043568.381622,-0.5340068841672295,-0.010897513328351635,0.12421206970239701,-0.26503406491948034,nan
1741043568.3855278,-0.5550327227262127,0.07144057689932326,0.2675655371746397,-0.20917763102533576,nan
1741043568.3894355,-0.24524553570523824,0.08899998894554907,0.20763545308170248,-0.01864152661979839,nan
1741043568.3933413,0.14525264082529837,0.04261364885784681,-0.047952051200587896,0.2161460015475408,nan
1741043568.397247,0.380205711778117,-0.0027567324135205637,-0.3106634970711819,0.3670912363281799,nan
1741043568.4011528,0.37877293758402697,0.016175607170888152,-0.35847566519839835,0.3448361603848174,nan
1741043568.4050584,0.2072348202399934,0.08912356942232018,-0.12811252154406716,0.15088932310746014,nan
1741043568.4089642,-0.023181700410630158,0.12780981505327857,0.21517576831677562,-0.12592995923986747,nan
1741043568.41287,-0.23398418074046543,0.044253222622460335,0.40021337052595934,-0.35965518118060985,nan
1741043568.4167757,-0.3740206261664199,-0.15260282995152344,0.2709269079823947,-0.4476763498556251,nan
1741043568.4206815,-0.3792162687121477,-0.3335746930969274,-0.07791568956459305,-0.3494468359422269,nan
1741043568.4245872,-0.18487125719791395,-0.33531730180152314,-0.3689109137382769,-0.09534125948791057,nan
1741043568.428493,0.19094699735992393,-0.09653003854622845,-0.36408399029259125,0.2245026485173271,nan
1741043568.4323986,0.5781511475067936,0.2677449726846991,-0.060018018210903266,0.4835984875817659,nan
1741043568.4363058,0.7079471249650818,0.5256066974426463,0.3056033264182796,0.5579003837961538,nan
1741043568.4402115,0.39802325016776147,0.4881956278441667,0.443024708097417,0.38105687327002064,nan
1741043568.4441173,-0.26097808478574963,0.1518300463548447,0.24102501050392272,-0.003691331895734115,nan
1741043568.448023,-0.8925089887984106,-0.28831741641580266,-0.14765638863619837,-0.4342711242762359,nan
1741043568.4519286,-1.054629703707526,-0.5671243640083661,-0.43142792664222124,-0.6921359584003697,nan
1741043568.4558344,-0.5598531956478717,-0.5263652843832769,-0.40871827873034655,-0.6195677668115845,nan
1741043568.4597402,0.34835368761797675,-0.21087194336708767,-0.11460059029112059,-0.22506778086121615,nan
1741043568.463646,1.1207100218166057,0.17872616335155217,0.22509443513579525,0.29973722683531234,nan
1741043568.4675517,1.2618386260333554,0.42970206006190725,0.3809682885791073,0.6783432032464983,nan
1741043568.4714575,0.6691463398136963,0.4454429986214997,0.2879985982349383,0.7096344021237484,nan
1741043568.4753633,-0.29836324439250433,0.2731399577322463,0.06398249567211854,0.38736054169940665,nan
1741043568.4792688,-1.068557861600519,0.034050162848849014,-0.11647612656569468,-0.1011818027301687,nan
1741043568.4831758,-1.2319479728917164,-0.16882579377123255,-0.1685350339654136,-0.49483684279495505,nan
1741043568.4870813,-0.772082872425639,-0.29159506226323917,-0.13788891765520242,-0.6131786801537108,nan
1741043568.490987,-0.009413451973291393,-0.3269881857690404,-0.11671403256692313,-0.44405719387804105,nan
1741043568.4948928,0.6547805564942918,-0.2671515835163251,-0.1306568457598439,-0.11790476269774473,nan
1741043568.4987986,0.9748618491937084,-0.1038661963592734,-0.11182988514477918,0.19422091816974,nan
1741043568.5027044,0.9190195976390749,0.13291854980593135,0.016755970781883837,0.37683953645109963,nan
1741043568.5066102,0.5713473386150025,0.3488095906666009,0.23175538105895122,0.40148553192357983,nan
1741043568.510516,0.027959610401473822,0.4193125124821264,0.3906084379851633,0.29736592525909045,nan
1741043568.5144217,-0.5996529884120687,0.27583046375227127,0.3370052288896793,0.11021929780660751,nan
1741043568.5183272,-1.1126589002992977,-0.02452206251252349,0.045794452682053045,-0.1101546175663583,nan
1741043568.522233,-1.2278024062195336,-0.3144016302132276,-0.3240311953077709,-0.2985993984507193,nan
1741043568.5261388,-0.739202233760697,-0.4212039406501582,-0.5281703361831571,-0.3768638837565691,nan
1741043568.5300453,0.2555902003931441,-0.28782320680455814,-0.417816513881755,-0.29222147077016936,nan
1741043568.533951,1.2829835854018883,-0.014201354283005892,-0.057619586601815945,-0.06863873696630729,nan
1741043568.5378568,1.7164263450563018,0.21669749098249425,0.31723982867142864,0.1824703132809362,nan
1741043568.5417624,1.1966499950678697,0.2724340611100059,0.47265523374500734,0.3209267760179959,nan
1741043568.5456681,-0.05553153517010763,0.159606728066545,0.3401174616438253,0.27343008447899253,nan
1741043568.549574,-1.3111331984647447,0.0002800904371068136,0.048062583643201734,0.0907518114665063,nan
1741043568.5534797,-1.7929153791140895,-0.07815097084974269,-0.1941463972276998,-0.08779862502675227,nan
1741043568.5573854,-1.2117610557359517,-0.04470074794991328,-0.25642615896780724,-0.1422976514042653,nan
1741043568.5612912,0.02335952259113785,0.02490067824603804,-0.1637104271941177,-0.06666566050962615,nan
1741043568.565197,1.095575855864277,0.03095350338371935,-0.04005093888825353,0.03163166571770407,nan
1741043568.5691025,1.3617623263564331,-0.05244816131694507,0.013666247684912683,0.030686651200471024,nan
1741043568.5730083,0.7869033302319707,-0.1521600744349213,-0.003112640606163668,-0.09059403719442745,nan
1741043568.5769174,-0.09244109347186936,-0.16377423283484233,-0.01677855493063077,-0.223149973127442,nan
1741043568.5808232,-0.6257551897358378,-0.04982309958858799,0.030332236628030237,-0.21662984007677327,nan
1741043568.584729,-0.5478134900143228,0.120312329619337,0.11760355015397846,-0.015952219499933945,nan
1741043568.5886347,-0.12332531863705624,0.2246913043699405,0.16773728421683382,0.2718812033054358,nan
1741043568.5925405,0.15275749115084308,0.18945095479681823,0.1245669238857266,0.444925413248338,nan
1741043568.5964463,0.01817473866832357,0.04774959886033709,0.00807657977856318,0.3597874135073072,nan
1741043568.600352,-0.3356428596494744,-0.09282737608707571,-0.10524989873035026,0.04816110092720556,nan
1741043568.6042578,-0.46671021703974896,-0.14280320027139548,-0.1531813824422249,-0.29999639121295363,nan
1741043568.6081634,-0.11731678925033431,-0.10011109923121687,-0.13713420081924246,-0.47419880599627756,nan
1741043568.6120691,0.514307367358624,-0.03677101636489568,-0.1025255548382723,-0.39089302471156406,nan
1741043568.615975,0.915989881247419,-0.020159789972176555,-0.07520707823462784,-0.13510448661727498,nan
1741043568.6198807,0.7021457347632062,-0.04556998142917869,-0.026504518451393243,0.12662114318645717,nan
1741043568.6237895,-0.030934545360572337,-0.04490423826808024,0.08836631227086172,0.2770696920277223,nan
1741043568.6276953,-0.7540326801130773,0.03615882191728234,0.2525732710528923,0.3095320219419699,nan
1741043568.6316009,-0.9305782793679803,0.16701222572085656,0.3567666547558315,0.27928683917644626,nan
1741043568.6355066,-0.4609794648673051,0.24019626241410147,0.26862131418629365,0.21122142784420206,nan
1741043568.6394124,0.2373234549365829,0.16107504825248728,-0.03933943710934152,0.06826353765968297,nan
1741043568.6433182,0.5890962103960948,-0.05653247909841714,-0.41765432825715604,-0.18059341783851154,nan
1741043568.647224,0.3550480274552583,-0.2780427061624388,-0.6103890512105816,-0.463310627270963,nan
1741043568.6511297,-0.16738560159766944,-0.34131003543913424,-0.43907915061943015,-0.5956223619023402,nan
1741043568.6550355,-0.41688168854092916,-0.1853571573968338,0.03812390886795587,-0.40572422970648725,nan
1741043568.658941,-0.085023414951095,0.09206931724857109,0.5319906819053186,0.09330667661360391,nan
1741043568.6628468,0.5741525409973974,0.30105520538891495,0.7114914187007007,0.6416717465384894,nan
1741043568.6667526,0.928357993694025,0.3015761098319254,0.4449476666610739,0.8723086607983871,nan
1741043568.6706607,0.5115895464008015,0.10843173707590137,-0.09315025365907999,0.5763355085065871,nan
1741043568.6745665,-0.5255495836999862,-0.12495215584435301,-0.5405846928241486,-0.1075233579831125,nan
1741043568.6784723,-1.4580216803872665,-0.22950375543281432,-0.6076804272732903,-0.749465655336259,nan
1741043568.682378,-1.5215041816678123,-0.1497786694092553,-0.28254348274707025,-0.9181255779623414,nan
1741043568.6862838,-0.5274861175904954,0.02337008010776604,0.17410465947067785,-0.49711428189571105,nan
1741043568.6901896,0.9384578570060444,0.13770722955596626,0.4351462068052119,0.21775047319761032,nan
1741043568.6940951,1.9102371137136371,0.10681770188825133,0.34969275403604844,0.7284115720612598,nan
1741043568.698001,1.733540554655962,-0.026098185887698355,0.03590184107216857,0.7002198107772918,nan
1741043568.7019067,0.5288913857250555,-0.13537691281972014,-0.23637265416520054,0.20365042086556207,nan
1741043568.7058125,-0.9172649967396453,-0.12416577562766813,-0.2663270984625527,-0.35519720856253933,nan
1741043568.7097182,-1.7276012495880675,-0.003022662635500581,-0.06688497484614325,-0.5584084573354252,nan
1741043568.713624,-1.522433342142218,0.12696123949062812,0.1715613963395336,-0.2965830766650139,nan
1741043568.7175317,-0.5937657405558551,0.16475014674817678,0.25104998986252985,0.16626064309655292,nan
1741043568.7214375,0.4088671563728009,0.09145040755341247,0.1212134615144113,0.4266025187742275,nan
1741043568.7253432,0.9761053990773314,-0.024502605020551082,-0.10083474042933968,0.27642598964734927,nan
1741043568.729249,1.017894945546524,-0.0958349136399618,-0.24397117733837898,-0.13526732042149928,nan
1741043568.7331548,0.7584177736431277,-0.09167142189318378,-0.22077323934296417,-0.4405815044000071,nan
1741043568.7370603,0.4235573223104252,-0.052228207876550914,-0.0758532239563014,-0.36789640929557793,nan
1741043568.740966,0.04579534599108627,-0.03553845855280876,0.07805797194873647,0.03118638410800548,nan
1741043568.7448719,-0.446305765766154,-0.05225653588761716,0.16138775859545476,0.4291070569743307,nan
1741043568.7487776,-0.9867402448995709,-0.05374780008733588,0.1724377930980099,0.49838207056220357,nan
1741043568.7526834,-1.2696847004271665,0.01366285925492856,0.14923480494440455,0.18237159338281128,nan
1741043568.7565892,-0.9458790374674269,0.140245236102583,0.10537423723354274,-0.2632965219446857,nan
1741043568.760495,0.023126726036863828,0.2392963201157286,0.015481442791884428,-0.4869534665207363,nan
1741043568.7644024,1.1845569515739902,0.21001531968988602,-0.13377611733582187,-0.3289044393757649,nan
1741043568.7683082,1.8116582688155085,0.02798729947601189,-0.28688668572968035,0.05834568778096043,nan
1741043568.772214,1.410548226887758,-0.21564206694223848,-0.33087798794584095,0.35020450979427586,nan
1741043568.7761197,0.13380418247654383,-0.36657833182375665,-0.18411979111644783,0.32391861908591224,nan
1741043568.7800252,-1.252094356395153,-0.3160556430861956,0.1113397092642851,0.03396169839113232,nan
1741043568.783931,-1.8665810849906261,-0.08222032104870772,0.38688377892750186,-0.2514734088732733,nan
1741043568.7878368,-1.3301039638741643,0.19918876201786598,0.4563863632010906,-0.28775324333609803,nan
1741043568.7917426,-0.03388935747889935,0.3669605875704089,0.2585243879658086,-0.05763158494107657,nan
1741043568.7956483,1.1435970975807985,0.33858308402358905,-0.08592274692336692,0.22733643134496725,nan
1741043568.799554,1.462512436313703,0.1516854971254797,-0.35660116552297194,0.31803626444167327,nan
1741043568.80346,0.8232683757814013,-0.07798504252941578,-0.39474404913752087,0.14004088674231413,nan
1741043568.8073657,-0.21698811697790457,-0.23894843801141205,-0.21369761655257302,-0.15332654579139707,nan
1741043568.8112729,-0.8973947651676218,-0.282027831991019,0.029043759935026295,-0.32241668561914616,nan
1741043568.8151786,-0.8123261130098116,-0.22167987653424626,0.16917475424784886,-0.24527001468442267,nan
1741043568.8190844,-0.15876570679833119,-0.09977532238800005,0.16208612389284838,-0.007251016330268611,nan
1741043568.8229902,0.4811616417758696,0.04502984945440985,0.09287732239105971,0.19104073463299534,nan
1741043568.8268957,0.6163177230561347,0.17907437515378852,0.07095827420799936,0.2135935465325286,nan
1741043568.8308015,0.2015688302835054,0.2614100128668381,0.1136827645520387,0.09301067205847474,nan
1741043568.8347073,-0.37946106097803,0.2482528224298072,0.1305222971660929,-0.025947945470196347,nan
1741043568.838613,-0.649980952593996,0.12354771483087083,0.023494580025353783,-0.03794784463416892,nan
1741043568.8425188,-0.4079260755772033,-0.07042510964237352,-0.19225290687589092,0.024818253248047685,nan
1741043568.8464246,0.15076928172231352,-0.23960047837310758,-0.3685507442355069,0.03951125433994993,nan
1741043568.8503304,0.6147744194929147,-0.2907337629912981,-0.33757053639022305,-0.06546446027623973,nan
1741043568.854236,0.6732801697807923,-0.19539810622416806,-0.06651750454959932,-0.2165768273624259,nan
1741043568.8581426,0.31912020485246134,-0.013504943885445219,0.2860305550856608,-0.2491863744167911,nan
1741043568.8620484,-0.1880868213277041,0.14681605748213417,0.4749282482554248,-0.06825890345367162,nan
1741043568.8659542,-0.5330597763053585,0.20408330644720224,0.358300658208238,0.23411903909599555,nan
1741043568.86986,-0.5532484125239316,0.1544429176097977,0.016331078225233747,0.4263180342405032,nan
1741043568.8737657,-0.3049864117759097,0.06012425024789821,-0.3047199848890318,0.3258813698623836,nan
1741043568.8776715,0.023231794502863248,-0.010196921263451333,-0.38288441897622405,-0.029491877957049523,nan
1741043568.8815773,0.2548531510153248,-0.03520843808949405,-0.1910185952911937,-0.3863929166089834,nan
1741043568.8854828,0.3192176090024995,-0.043893842408386244,0.09182257590912883,-0.46855034569225207,nan
1741043568.8893886,0.2531560734968188,-0.07097389869422085,0.2349076094428712,-0.20471358320460167,nan
1741043568.8932943,0.1408190426067982,-0.11168676396476192,0.1450241505515062,0.2025004881713343,nan
1741043568.8972,0.0487914195769696,-0.12145402697315934,-0.06704184290602981,0.4337024038002611,nan
1741043568.9011059,-0.006380453997683185,-0.061609192305909596,-0.19336205254225858,0.3117024918997046,nan
1741043568.9050124,-0.052589549898453075,0.05337620661522981,-0.11257793104591778,-0.05275040104172926,nan
1741043568.9089181,-0.12965120371997058,0.15544870066584604,0.10767318567623611,-0.35288979819901484,nan
1741043568.912824,-0.2460451435069481,0.17472698393514205,0.27355221583469796,-0.34103740978585567,nan
1741043568.9167295,-0.3481922165934815,0.09877232579973134,0.23381052494619334,-0.03375789244569489,nan
1741043568.9206352,-0.331762297200755,-0.01525037071100345,0.007532786484589806,0.3050870746387429,nan
1741043568.924541,-0.10949249977956726,-0.08883704277257568,-0.23548077970323117,0.38821779773965115,nan
1741043568.9284468,0.2942373661143738,-0.0884404839515121,-0.31832001559384904,0.14589293044528642,nan
1741043568.9323525,0.6961894671078264,-0.04921673029557107,-0.19741213560302964,-0.21909268565332649,nan
1741043568.9362583,0.82294062163426,-0.033765920866237,0.0170712448327716,-0.4061487346056579,nan
1741043568.940164,0.4878485072657235,-0.0644362115044609,0.16774895651524485,-0.2700448230585283,nan
1741043568.9440699,-0.23270909716912708,-0.09506508118209284,0.18128599651949356,0.06305128274151418,nan
1741043568.9479754,-0.9715704327501216,-0.053810441286750464,0.10927306520019835,0.3118213579112278,nan
1741043568.9518845,-1.259040074358801,0.07843460358294561,0.05321572123920305,0.2835404909924752,nan
1741043568.9557903,-0.8341369626729416,0.22826623939528248,0.05488389539316989,0.03341728708276175,nan
1741043568.9596958,0.13458717721126248,0.27432941735255384,0.059827521171069216,-0.19559569037551014,nan
1741043568.9636016,1.101760453616188,0.14737058473330153,-0.013129158671020137,-0.19524938415212156,nan
1741043568.9675074,1.47221845535965,-0.09822425164364933,-0.1678873966448728,0.021064247755314906,nan
1741043568.9714131,0.995038627111322,-0.30901464517735727,-0.29947981862577144,0.23185467454450667,nan
1741043568.975319,-0.05312193099013734,-0.3422700996939739,-0.27481765594389235,0.20988156448256282,nan
1741043568.9792247,-1.037334860884064,-0.1752818540949215,-0.05804239268654696,-0.06482658416289584,nan
1741043568.9831305,-1.3776047730716379,0.07598207211951487,0.23531319472465936,-0.3709224125000836,nan
1741043568.9870362,-0.9191263260827542,0.24620406659089566,0.4129228100743739,-0.42648356503748724,nan
1741043568.9909418,-0.004979693389954125,0.24553679873580983,0.35262295113338094,-0.13382655433269636,nan
1741043568.9948475,0.7842979012705042,0.11792448174984235,0.0983032075595064,0.32087621548987294,nan
1741043568.9987564,1.022053040543465,-0.011834258307990876,-0.1770604252553076,0.6023872428005818,nan
1741043569.0026622,0.6784388603149237,-0.0518891026724996,-0.30861244576238267,0.4884238671192414,nan
1741043569.006568,0.06823702108903308,-0.017050475531595,-0.2590814322651613,0.04551432838036077,nan
1741043569.0104737,-0.41593068918032255,0.0004188890093957941,-0.12217046878854626,-0.42241701455855807,nan
1741043569.0143793,-0.5632859428003825,-0.06739357961166426,-0.017522105397848858,-0.6065549307819151,nan
1741043569.018285,-0.4189363498058706,-0.1856639896493162,0.01934801546153235,-0.41681278913717623,nan
1741043569.0221908,-0.1651568461660571,-0.2373265138739497,0.0499480700748132,-0.0236327993251618,nan
1741043569.0260966,0.049974372441831456,-0.12859841986155482,0.14218463482890586,0.2984052660263927,nan
1741043569.0300024,0.1884719610320284,0.1133288502618945,0.27082388010840186,0.38231179211544664,nan
1741043569.0339081,0.2714950967999762,0.3409328802108689,0.3147516074479131,0.2630384714067676,nan
1741043569.037814,0.29247662578483236,0.39239976283241595,0.16545620098183447,0.09698386090961632,nan
1741043569.0417197,0.20250097174279313,0.21796780900841578,-0.14930730151963534,0.001477443542045799,nan
1741043569.0456276,-0.016178456604529667,-0.0783511440351458,-0.4482550941474483,-0.03443064516908664,nan
1741043569.0495334,-0.2761960628794939,-0.3161003491326418,-0.5189796066627587,-0.09754739654083693,nan
1741043569.0534391,-0.40898785602954835,-0.36963890618226203,-0.28680930778762065,-0.2235941374038941,nan
1741043569.057345,-0.2904212315736418,-0.24617362370539847,0.11329237335616733,-0.3299260387440199,nan
1741043569.0612507,0.0366642322235264,-0.05407112848230397,0.4294571302200638,-0.28060380848142663,nan
1741043569.0651565,0.3632075982520661,0.0986442159097737,0.47887713002078586,-0.026558427565484564,nan
1741043569.0690622,0.4580607079451965,0.18011581840144228,0.2749638833848627,0.3135245953070904,nan
1741043569.072968,0.24656264341426612,0.22256931191940946,-0.005988746980875599,0.5183648540187761,nan
1741043569.0768735,-0.12532202213728422,0.24856222245050302,-0.18194639018750972,0.4316685744920222,nan
1741043569.0807793,-0.3997933656213103,0.22140114623024357,-0.20501759908704154,0.09268234790359278,nan
1741043569.084685,-0.40242266647386465,0.07935133090567943,-0.16520194526482482,-0.2839518218304601,nan
1741043569.0885909,-0.16445495591500328,-0.17478785868355193,-0.16714533805070228,-0.4664483179979517,nan
1741043569.0924988,0.12313222356093131,-0.4227323239909167,-0.20625475897965548,-0.3731842766829114,nan
1741043569.0964046,0.2746650624316273,-0.4884019615415095,-0.1691118144951684,-0.11470312029309247,nan
1741043569.10031,0.24723703584301618,-0.2756782609416281,0.03715744365281404,0.11500524012517795,nan
1741043569.1042159,0.1380562465147777,0.12756370184371366,0.35107085284079337,0.19685628870811983,nan
1741043569.1081216,0.06100958251582986,0.4816004202050927,0.5591658989300557,0.15930360661443654,nan
1741043569.1120274,0.0300853748644482,0.5574880610429197,0.45659953022703204,0.11406691555994053,nan
1741043569.1159332,-0.03640328129902921,0.30879742952781625,0.0374963476470386,0.12774223590908224,nan
1741043569.119839,-0.19835128626490275,-0.0885363764165256,-0.45762199113333274,0.15451415154367154,nan
1741043569.1237447,-0.3857560177135551,-0.36778090971599225,-0.6992267268979209,0.09175199675390562,nan
1741043569.1276505,-0.42133489394624324,-0.3724184229690451,-0.5169192357055186,-0.09820042057578023,nan
1741043569.131556,-0.17420213845174853,-0.1640159246674972,-0.03667338412651081,-0.32080984880766555,nan
1741043569.1354618,0.2869103536713976,0.049592221493205,0.41128185279006885,-0.4085593895816307,nan
1741043569.1393723,0.6908996520132267,0.10105104027410139,0.5437909121448311,-0.2612800506807223,nan
1741043569.1432781,0.741705853838649,0.0029185475386156877,0.33141797138177936,0.0559980336178093,nan
1741043569.147184,0.3469602552182354,-0.08037738258232481,-0.005681000138935774,0.34859383800654065,nan
1741043569.1510897,-0.28792608901663796,-0.000743811410138248,-0.1999668353808134,0.43644166876199875,nan
1741043569.1549954,-0.7858692494030586,0.21796586455383352,-0.15799091942798676,0.2869985439192434,nan
1741043569.1589012,-0.8539075181399503,0.3819100259838533,-0.012470978235494971,0.026803508694463327,nan
1741043569.1628067,-0.4745303502772826,0.29415029255165814,0.029860221608346706,-0.17201854795190735,nan
1741043569.1667125,0.10598964650187673,-0.05550186587345413,-0.10183813297777353,-0.22684513845020438,nan
1741043569.1706183,0.5659775448214269,-0.4487247344077509,-0.26972357797049784,-0.18500709692698858,nan
1741043569.174524,0.7146579422447967,-0.594687616763932,-0.2593787029185326,-0.14446542606911061,nan
1741043569.1784298,0.5653076070212483,-0.36277741471738134,0.004195589813877007,-0.1400478429049513,nan
1741043569.1823356,0.2538194960289065,0.10164120978811442,0.35836299633366325,-0.10904628896411118,nan
1741043569.1862428,-0.09005956173189326,0.4804946461113626,0.5220283858177042,0.029323996853707013,nan
1741043569.1901486,-0.3967077207418656,0.5259330293514041,0.3359392896779487,0.2593425131732972,nan
1741043569.1940544,-0.6139816046328872,0.24583809043679908,-0.08689469553037639,0.43851012114422244,nan
1741043569.1979601,-0.6548399326288713,-0.1180116889522004,-0.43971084481188205,0.39782835113800474,nan
1741043569.201866,-0.42920862778724467,-0.2959525020140371,-0.46965317279539825,0.09544799544472346,nan
1741043569.2057717,0.04740315129568874,-0.20524797842688336,-0.1838620206300892,-0.3141078637684581,nan
1741043569.2096772,0.5817761535084642,0.004061215712961271,0.16430198590849907,-0.5705119078897405,nan
1741043569.213583,0.8755915138620496,0.10223399703786935,0.29688451874931265,-0.49745353614926513,nan
1741043569.2174888,0.7246748124407819,-0.008075669229417042,0.14703848841482406,-0.1400977711396236,nan
1741043569.2213945,0.1919299945526983,-0.20688322788097246,-0.09697175279728104,0.2648907635978392,nan
1741043569.2253003,-0.4069415956231544,-0.2703427795669511,-0.17521507446991874,0.46536681658236945,nan
1741043569.229206,-0.7203107424038958,-0.07955798873098452,-0.00036216358654063055,0.37407604627236957,nan
1741043569.2331128,-0.6157236352288942,0.2603390055287348,0.2584194131189541,0.11099526813683239,nan
1741043569.2370186,-0.2602390552008605,0.49607072318970413,0.3297264458975006,-0.1160442624164541,nan
1741043569.2409244,0.04609397556154474,0.4323672773638428,0.09509767186007752,-0.18184409786299394,nan
1741043569.24483,0.1388020196665078,0.09238737082587598,-0.28649375525859827,-0.12071758289742252,nan
1741043569.2487357,0.1163818980163956,-0.30123280071906894,-0.5032813011447174,-0.056913995942465774,nan
1741043569.2526414,0.20414032223419354,-0.5026936087422593,-0.36037446735075446,-0.06794177152401165,nan
1741043569.2565472,0.47694486836291694,-0.42362011334477806,0.043439572075443224,-0.11358259339066827,nan
1741043569.260453,0.7126322712398444,-0.1708792184023263,0.39253393049286395,-0.0928930643457053,nan
1741043569.2643588,0.5508935544868239,0.07323960515702917,0.4225254539453959,0.03429757313667368,nan
1741043569.2682645,-0.14570882775984753,0.2067561871015165,0.1452441928117329,0.18728318014915715,nan
1741043569.2721703,-1.0499147853342254,0.2584245748522017,-0.169286486880623,0.231647228020572,nan
1741043569.2760758,-1.5135369916598935,0.3016121584954702,-0.23959793609762103,0.11325280972065185,nan
1741043569.2799823,-1.0498487525687752,0.33395973816978264,-0.02866351836795613,-0.07349991660827551,nan
1741043569.283888,0.21177287415091195,0.25634587478585197,0.22270702851475296,-0.16071477857354086,nan
1741043569.2877939,1.503092120296066,-0.01623774635946197,0.2202984220797845,-0.0665623600162158,nan
1741043569.2916994,1.9171840248300969,-0.417488439773627,-0.09907773459785868,0.11037040594016574,nan
1741043569.2956052,1.0905373534802274,-0.7142806899708518,-0.4824114864071769,0.16513544001740044,nan
1741043569.299511,-0.46612112237172043,-0.6598312647019677,-0.5636842233516383,-0.019969750037004318,nan
1741043569.3034167,-1.6875227220051638,-0.20382123312016437,-0.18843216573115518,-0.3337692741664265,nan
1741043569.3073225,-1.7223501723686583,0.4232573887400886,0.4233864058846613,-0.4921611619639469,nan
1741043569.3112283,-0.5756112607982405,0.8441768572819459,0.8284626238349556,-0.27136510433688504,nan
1741043569.315134,0.8815054634522216,0.798589844397172,0.7090024950673761,0.2689701023556293,nan
1741043569.3190396,1.5630797370410465,0.3306920692799299,0.12995525238478842,0.7762184426606753,nan
1741043569.3229454,0.991551863794149,-0.25026202318420554,-0.510550634064497,0.847888746837446,nan
1741043569.3268547,-0.3420655632185877,-0.6035937605420247,-0.7937147086451082,0.3512278031732551,nan
1741043569.3307602,-1.3625902670389551,-0.5940968463338012,-0.5922926453776277,-0.4391270991116337,nan
1741043569.334666,-1.2438796417074593,-0.34569571902022717,-0.12877733867654292,-1.0128267983555128,nan
1741043569.3385718,-0.04749634164700533,-0.0874418516546586,0.24819485391802185,-0.9866913826893348,nan
1741043569.3424776,1.3216140157300604,0.055524237589458805,0.35619507315131627,-0.38183605709852353,nan
1741043569.3463833,1.8001729449522734,0.1368569653123733,0.28315976593856385,0.39908386004408203,nan
1741043569.350289,0.9634845355530807,0.27439291749368866,0.232255128918116,0.8720565330649255,nan
1741043569.3541949,-0.6627365802572868,0.471768819323113,0.2783572603082288,0.8102509047938483,nan
1741043569.3581004,-1.9867517818305807,0.5638037612357581,0.2828760862693828,0.36250713970183046,nan
1741043569.3620062,-2.119930653150335,0.3565760135150594,0.054570759852064374,-0.11727752107936776,nan
1741043569.365912,-0.963015326086133,-0.15750932835134301,-0.40125531649647267,-0.36398280275037254,nan
1741043569.3698177,0.7779307415215023,-0.7174948675219749,-0.8026605834168786,-0.3689379517919886,nan
1741043569.3737266,2.093770042531471,-0.9490755685336578,-0.7908676367932644,-0.3026513192037633,nan
1741043569.3776324,2.2958311177379027,-0.6510563444303522,-0.2548559553662532,-0.29601435633771844,nan
1741043569.381538,1.3514645923634916,0.02420466120939021,0.5138469777150466,-0.29974252458522327,nan
1741043569.3854437,-0.20631119960196903,0.6605985067138069,1.003483265107836,-0.15392798319485224,nan
1741043569.3893495,-1.6329553602355829,0.8793496894737735,0.874919462553986,0.20690051158233982,nan
1741043569.3932552,-2.3244990489410333,0.610294562090358,0.2381014749676867,0.6218459171405807,nan
1741043569.397161,-2.012703923742404,0.11334107063743544,-0.43278166687943453,0.7908325590692459,nan
1741043569.4010668,-0.8121293631015114,-0.2586609935926935,-0.6845310639201008,0.5227082436202306,nan
1741043569.4049726,0.8167815170497558,-0.34493686619183855,-0.44471440350968966,-0.07352142077047114,nan
1741043569.4088783,2.1854009954354163,-0.26435965839209036,-0.04559127618938799,-0.6371527845684263,nan
1741043569.4127839,2.6202039393113234,-0.2424516769328729,0.10576177981924025,-0.821176732071208,nan
1741043569.4166896,1.8032915177930773,-0.3522261775785917,-0.0870093105619201,-0.5563147002131811,nan
1741043569.420598,0.03342171350995372,-0.4218650891882325,-0.3219921052687102,-0.0879055974856739,nan
1741043569.4245036,-1.8238598629272507,-0.20701143388731644,-0.19877680481533075,0.24593871668137252,nan
1741043569.4284093,-2.770571504988874,0.32701422015450715,0.3612103640209758,0.2989098373075796,nan
1741043569.432315,-2.2765072475573764,0.8868601568678143,0.9676747607503469,0.21096723665749503,nan
1741043569.436221,-0.6400762748784263,1.0384327200132868,1.0530741387203302,0.23024511603179015,nan
1741043569.4401267,1.1805033730860008,0.5660818338910442,0.3744191409752897,0.43019947629816735,nan
1741043569.4440324,2.1837988010518634,-0.3039821223355268,-0.7132873071817609,0.5944346900780954,nan
1741043569.4479382,1.959678380101364,-1.0300185748854378,-1.477195143331572,0.39826323482809195,nan
1741043569.4518437,0.8825823723785461,-1.1514971209736917,-1.3651214367234918,-0.2567660268278261,nan
1741043569.4557495,-0.25856402955891644,-0.636099866136382,-0.4436241067735978,-1.059012410175392,nan
1741043569.4596553,-0.8748086330398359,0.11374308434273242,0.6555335407227773,-1.4508793238916053,nan
1741043569.463561,-0.9368827418536134,0.600130879736235,1.237253192480053,-1.0438847108592588,nan
1741043569.467469,-0.8178099468526051,0.6225688612554394,1.0664730906220816,0.04387615545159644,nan
1741043569.4713748,-0.8110891263521371,0.3866324155471414,0.4737879071717193,1.216687610472436,nan
1741043569.4752805,-0.7967360682780245,0.24485260016341173,-0.02049368518313993,1.7953469267452364,nan
1741043569.4791863,-0.3819424945798726,0.3199613139918273,-0.19642711505323127,1.4757277046033375,nan
1741043569.4830918,0.6066683844204062,0.3729358201447638,-0.2755463232895266,0.4987874090796748,nan
1741043569.4869976,1.7572871169590394,0.05714051515766307,-0.5856896351962918,-0.5783600269138981,nan
1741043569.4909034,2.2397548977221162,-0.6666772187364636,-1.0895783754456045,-1.2917398185200248,nan
1741043569.4948092,1.448379547638194,-1.3590630197168236,-1.2785064268981368,-1.5123110547286296,nan
1741043569.498715,-0.39575645747011845,-1.389210950005556,-0.6113560119975612,-1.3535746285140176,nan
1741043569.5026207,-2.2371968046412434,-0.4832493292789384,0.8572981102683039,-0.9023118701555768,nan
1741043569.5065265,-2.871204921852473,0.9378678607727113,2.2728448602881883,-0.09480785681078926,nan
1741043569.510432,-1.8316052361298092,1.9717974759786014,2.50950213763823,1.0964600934549016,nan
1741043569.51434,0.22435457923519747,1.8867594581085059,1.0942283870760146,2.3458069109376853,nan
1741043569.5182457,1.9714516208356294,0.7014943170709749,-1.2432891060018456,2.9122387248101322,nan
1741043569.5221512,2.378009626716395,-0.7994172452602061,-2.951642818637768,2.053534031605927,nan
1741043569.526057,1.4200827232817488,-1.6577149553013626,-2.78323067688586,-0.29899599138097194,nan
1741043569.5299628,-0.008857211253473087,-1.4681312772804598,-0.8047708487825057,-3.1586599605455685,nan
1741043569.5338686,-0.8879439258762245,-0.6341179324109832,1.566254271656019,-4.847524591283087,nan
1741043569.5377743,-0.8780769104947974,0.06262289584548769,2.615329435178821,-4.024888230732225,nan
1741043569.54168,-0.471662758374229,0.19625278860141712,1.6797804929325366,-0.7202641857845665,nan
1741043569.5455859,-0.38956672194254877,0.06685346277738917,-0.3105975881038622,3.4248056068082455,nan
1741043569.5494914,-0.8003455168645226,0.34269070512178307,-1.596657963461789,6.017945708237816,nan
1741043569.5533972,-1.102588645698511,1.2722764499401418,-1.0791332700608354,5.400623880120374,nan
1741043569.557303,-0.5113472340135398,2.209862295903086,0.6981100644756864,1.7686693584052569,nan
1741043569.5612023,1.056373698664686,1.9985106491942453,1.9498411865927747,-2.869516246601267,nan
1741043569.565108,2.6355491281405508,0.01897521697865185,1.1856125186955753,-5.9104695407748435,nan
1741043569.5690138,2.8360665741866344,-2.9567374775978292,-1.3676701251456815,-5.745171762138274,nan
1741043569.5729194,1.0207086827528493,-4.958328777625395,-3.710873139190176,-2.668232516703713,nan
1741043569.5768251,-1.9395560110415768,-4.133399527664997,-3.577352864900251,1.4477401251098245,nan
1741043569.580731,-4.071228510629556,-0.2960986287043936,-0.3777727414057591,4.403205572724027,nan
1741043569.5846367,-3.694229821199082,4.538064551219915,4.012086667139134,4.949070447312441,nan
1741043569.5885425,-0.7790592210273128,7.243129546255818,6.403840302088738,3.2815877428724525,nan
1741043569.5924482,2.8414396412177707,5.693794672972739,4.650760260510665,0.5903637893021103,nan
1741043569.596354,4.683671284323813,0.41603452506532856,-0.5659892126867544,-1.836990302639692,nan
1741043569.6002595,3.4105233867017115,-5.506214085186298,-5.966504124779978,-3.256568483703654,nan
1741043569.6041653,-0.1370698482316177,-8.34970561788718,-7.8768152782621055,-3.5198983913760507,nan
1741043569.608072,-3.4949428291643225,-6.2318873797842524,-4.84503897518333,-2.74720111346596,nan
1741043569.6119778,-4.343854923048154,-0.4175370517380529,1.2630354654861404,-1.090426005057647,nan
1741043569.6158836,-2.1826508137636433,5.490890408288068,6.520818036065566,1.1637154989070333,nan
1741043569.6197894,1.342556067326114,7.9281339110423,7.642657166399878,3.3454521633737304,nan
1741043569.6236951,3.685537553812178,5.655527388412597,4.171122115452096,4.4332623482297455,nan
1741043569.627601,3.268136297648643,0.41214389507321586,-1.3843361060380284,3.5682119752248904,nan
1741043569.6315067,0.5704974469350846,-4.424911102936849,-5.445001095357193,0.7647245893145964,nan
1741043569.6354122,-2.329721645135507,-6.128065670593976,-5.8182268109901925,-2.7788762882489695,nan
1741043569.639318,-3.3545278589905907,-4.237458965967294,-2.9409811260540546,-5.1749489900844035,nan
1741043569.6432238,-1.9201277984806169,-0.5023755913023813,0.8257679259159807,-4.957088584251411,nan
1741043569.6471295,0.7609277128885047,2.5963829483086354,3.1027289249151058,-2.083599534957087,nan
1741043569.6510353,2.7018266813794756,3.537130074090568,3.0659032948158336,1.9094054801610274,nan
1741043569.6549416,2.629088832831155,2.4793511465415405,1.606879953329243,4.790956558074546,nan
1741043569.6588473,0.8068002356721931,0.705739827728251,0.21588341271507808,5.001868902875876,nan
1741043569.662753,-1.3325921586398877,-0.5571958498696291,-0.3172613725096088,2.5912613144758447,nan
1741043569.6666589,-2.3428598283179247,-0.9494820330103182,-0.31593138233730483,-0.8955701068724347,nan
1741043569.6705647,-1.7637726811646366,-0.8990414287961077,-0.560294885669977,-3.461845920180095,nan
1741043569.6744704,-0.2632216020002447,-0.9300536244212758,-1.3106376431912137,-3.891675330597468,nan
1741043569.678376,1.0429780571866571,-1.0807181127349321,-1.957564985132468,-2.353064510391442,nan
1741043569.6822817,1.4488189837869303,-0.9358117811954092,-1.6040465215242687,-0.05802924941850301,nan
1741043569.6861875,1.024853627035483,-0.1620503281359671,-0.012268543739040183,1.6605879957330927,nan
1741043569.6900933,0.32593116408567285,1.0164473499694622,1.9833820586839266,2.1529385562799503,nan
1741043569.693999,-0.17744564285515715,1.8772194994875975,3.018596878794197,1.631960992623336,nan
1741043569.6979048,-0.41564646409202044,1.7592674574584373,2.2704374233846183,0.7516509220846344,nan
1741043569.701814,-0.5774431920530015,0.6319876100961054,0.15678314472041852,0.028959559566339083,nan
1741043569.7057197,-0.7511948739971316,-0.8278762372658982,-1.9349968627094405,-0.42861132225726123,nan
1741043569.7096255,-0.7586425421933922,-1.7244343088404543,-2.6798748579770955,-0.7672723703304041,nan
1741043569.7135313,-0.3534331322798604,-1.5908313453087795,-1.7739179415481012,-1.055370727018639,nan
1741043569.717437,0.4309136901807253,-0.6748739263294538,-0.06696009157381139,-1.130449409742064,nan
1741043569.7213426,1.1630382735341582,0.3344633536381553,1.1876176890183328,-0.7612327358186061,nan
1741043569.7252483,1.294839111754745,0.867123648106123,1.3107139759111663,0.0541038622247868,nan
1741043569.729154,0.6257898827177218,0.8395187875202735,0.6090801261439598,0.9606562224965741,nan
1741043569.73306,-0.46449998644739204,0.563739044393356,-0.05243082311832064,1.4400891272862915,nan
1741043569.7369657,-1.2530572165716802,0.35270823988283967,-0.0790313390494293,1.183213928900361,nan
1741043569.7408714,-1.2138314502511764,0.22278036688555553,0.3627448068914039,0.3355453469246776,nan
1741043569.7447772,-0.4225098252875894,-0.03700002280557917,0.5860815178294871,-0.5907870105237412,nan
1741043569.7486856,0.511593470762758,-0.5309804467875369,0.09488394741860393,-1.0730932815045182,nan
1741043569.7525914,0.9312725658483921,-1.0206486988792196,-0.8950084155578404,-0.9245692098286122,nan
1741043569.7564971,0.633039885071516,-1.0576570294978844,-1.5934634329188526,-0.3736442481800708,nan
1741043569.760403,-0.021282654580513136,-0.4000943462757345,-1.3108822844140602,0.15798982624611824,nan
1741043569.7643087,-0.45230632937968634,0.6682866143944307,-0.07987990690469189,0.37941487954932746,nan
1741043569.7682145,-0.3556352795791826,1.4484958654862523,1.3152951896270677,0.30117559098863134,nan
1741043569.77212,0.07917733747714141,1.3350044487803894,1.9300156109087259,0.14736441322869498,nan
1741043569.7760258,0.3869949091754497,0.3244546905634171,1.3784610454196213,0.11985242235394072,nan
1741043569.7799315,0.2644403078560132,-0.9144739339546404,0.09684697885546117,0.22688896099362388,nan
1741043569.7838373,-0.16822537559461306,-1.5087765896056677,-1.0356557062317073,0.30630237392738546,nan
1741043569.787743,-0.500946043288724,-1.03985833844812,-1.3742428488188032,0.19634945170777232,nan
1741043569.7916489,-0.4239149711487853,0.12828907753412808,-0.9261485149294774,-0.10850176724245193,nan
1741043569.795557,-0.01099555112095372,1.1219193061105923,-0.21161118389825925,-0.44608952833870336,nan
1741043569.7994628,0.35927961908480716,1.2237870667017174,0.2448340990344749,-0.6126680014444105,nan
1741043569.8033686,0.36577343076338215,0.41066328488508985,0.3222845913913891,-0.5084623492458551,nan
1741043569.8072743,0.05075589903014884,-0.6544875776135549,0.28199403031275877,-0.18778555753905,nan
1741043569.81118,-0.21956739359874836,-1.15532132152607,0.3994482273125261,0.2029101149096031,nan
1741043569.815086,-0.11328876223482781,-0.7485114406983444,0.6354129495767891,0.522052650478619,nan
1741043569.8189914,0.3170481718451679,0.20433553401799723,0.664759097227093,0.6811623102142969,nan
1741043569.8228972,0.6303596593754833,0.9566099709621807,0.2268565647158372,0.6323231968235768,nan
1741043569.826803,0.3782339644709591,0.9674796789296619,-0.5478526283945688,0.3518186046485214,nan
1741043569.8307087,-0.44313034946549895,0.2901235189239251,-1.163059320184712,-0.12938019830308195,nan
1741043569.8346145,-1.2805444365581902,-0.5240799131103484,-1.1387964575052094,-0.6703184187489859,nan
1741043569.8385203,-1.3995085091170063,-0.8880805560570182,-0.4241316054529419,-1.0213437535651484,nan
1741043569.8424282,-0.48408983051437315,-0.616841190951098,0.5264042867620707,-0.9371471078542901,nan
1741043569.8463337,1.0209089932706208,-0.006983875207713926,1.0916432386241217,-0.3547769217188551,nan
1741043569.8502395,2.1368182078041005,0.4590223537331893,0.9572579018353413,0.4977314269256081,nan
1741043569.8541453,2.021702718178681,0.504705643805734,0.3292586695950903,1.1785643510774895,nan
1741043569.858051,0.6008355546988506,0.2269009745544857,-0.2784111912787799,1.2830037898970241,nan
1741043569.8619568,-1.3195133222374256,-0.06039090352490212,-0.4818820114401626,0.7118687541183812,nan
1741043569.8658626,-2.5583202694297813,-0.12873080910377582,-0.3087119348324508,-0.23666217698075598,nan
1741043569.8697684,-2.335991302709985,-0.010753457936058019,-0.09598538365677083,-1.034580374988369,nan
1741043569.8736742,-0.7794748094420889,0.08204749294389956,-0.12546081819727847,-1.2491583621182765,nan
1741043569.8775797,1.179506311188386,-0.007592284375021886,-0.34337983210994566,-0.8063731946247626,nan
1741043569.8814855,2.415655092453649,-0.22528174401842818,-0.4223469164871047,-0.015159762463717192,nan
1741043569.8853912,2.2974122786787188,-0.3602195614552808,-0.10261190496918882,0.6540585369896641,nan
1741043569.889299,1.0073972062388796,-0.24823580663643197,0.5093315736981393,0.872226492370104,nan
1741043569.8932047,-0.6581036358820853,0.07033932381152647,0.9729561187181982,0.6269974675966961,nan
1741043569.8971102,-1.8133749567619737,0.37846944309995023,0.8684620440516446,0.16938153413616233,nan
1741043569.901016,-1.9673767843875258,0.4630648940225322,0.17174060962749518,-0.19927634063626312,nan
1741043569.9049218,-1.2004057418457599,0.28334710481103825,-0.6823946204772704,-0.3285969219058395,nan
1741043569.9088275,-0.007874507387761073,-0.015530847746188986,-1.1176819381628935,-0.2713588740832071,nan
1741043569.9127333,1.0191956355387692,-0.23965990839986565,-0.8574087632671299,-0.17907188700500273,nan
1741043569.916639,1.4716578252665284,-0.29962876751977185,-0.12598381391695204,-0.15046052946450045,nan
1741043569.9205449,1.2471874675251344,-0.24591561228876035,0.5477080857116244,-0.15974934881652425,nan
1741043569.9244504,0.5277394374904726,-0.174327986105806,0.7497205583955486,-0.10891156529298916,nan
1741043569.9283562,-0.3317795527756872,-0.11197562243544698,0.4718750402688169,0.05791513373496614,nan
1741043569.932262,-0.9523352766503487,-0.0029483713180029096,0.04983403017459435,0.2831465031145663,nan
1741043569.9361694,-1.0816603282718245,0.1955138168946691,-0.1660650484089948,0.42724017983682233,nan
1741043569.9400752,-0.7030518741628334,0.4132018190680493,-0.10315601298543753,0.3739408655004619,nan
1741043569.943981,-0.04577623446684556,0.4816744506319453,0.025449135968492406,0.12293483617611187,nan
1741043569.9478865,0.5314422623993703,0.27277340272390654,-0.024325589335274383,-0.2013248712270743,nan
1741043569.9517922,0.7384234424244259,-0.15775622362326225,-0.26536979924507215,-0.4280154601406124,nan
1741043569.955698,0.5189073736929994,-0.5637049733671924,-0.4585052460795947,-0.4456726739451882,nan
1741043569.9596038,0.07225085529814675,-0.670211910731154,-0.34832791093133464,-0.2625988696299264,nan
1741043569.9635096,-0.28947756368280264,-0.3844254877059787,0.07051269232516935,0.01113344093386676,nan
1741043569.9674153,-0.35319186380879997,0.11945595215441439,0.5125392969843905,0.23756000805084007,nan
1741043569.971321,-0.1374624195827823,0.5194637352746043,0.6345081478965673,0.3272563849549049,nan
1741043569.9752269,0.14394911798230614,0.5798217326884588,0.33646803253795105,0.274160325258668,nan
1741043569.9791324,0.25279994563394603,0.31358817696798147,-0.1430910315262509,0.1385539774601335,nan
1741043569.9830394,0.10083743795756446,-0.052288870549147146,-0.42996475675353396,-0.0005454962333837951,nan
1741043569.986945,-0.19662164833153103,-0.27078943542565215,-0.3377796282468583,-0.09088656628517552,nan
1741043569.9908507,-0.4155252988356908,-0.2604278594214023,-0.022686293598243232,-0.12634383108408667,nan
1741043569.9947565,-0.3855046360129068,-0.1326228866410574,0.17203740960940353,-0.13447806389592337,nan
1741043569.9986622,-0.10117830297857185,-0.05455181623387313,0.04329434143133253,-0.14423570774803926,nan
1741043570.002568,0.28474048304575966,-0.08330939702736344,-0.27075094389115095,-0.1561495644339106,nan
1741043570.0064738,0.5637420605601398,-0.12370541043084388,-0.40713908310131897,-0.13667432489498157,nan
1741043570.0103796,0.5899329371413239,-0.04220468491370895,-0.11953791132520994,-0.04456237755456834,nan
1741043570.0142853,0.3448971958998899,0.17646041595311457,0.4583777223824669,0.12525267976783047,nan
1741043570.0181909,-0.06926398368320281,0.38367014530055654,0.8764535845439541,0.3127742123863518,nan
1741043570.0220966,-0.48320824553781494,0.38435347902421807,0.7281237225171279,0.4091043850642044,nan
1741043570.0260024,-0.7260362453261288,0.11774603186243568,0.011836410100952953,0.3197333976448772,nan
1741043570.029909,-0.6848824997528568,-0.26294683175497585,-0.8190622571168142,0.03903048265479932,nan
1741043570.0338147,-0.3505005234567811,-0.4935126866884505,-1.1791418473708453,-0.31895299448867226,nan
1741043570.0377204,0.16469629919139836,-0.4063000233478557,-0.7964776832702379,-0.5675096778203969,nan
1741043570.041626,0.6555442562613782,-0.0685290546322071,0.07585536450291491,-0.5539589034908956,nan
1741043570.0455317,0.9043098556411332,0.2685073867773555,0.850913429467376,-0.26008796419625835,nan
1741043570.0494375,0.782477463238471,0.36992052050525026,1.0448726340792247,0.17410996304408996,nan
1741043570.0533433,0.31977675467851197,0.20054582710598004,0.6122299300469275,0.5261379605599319,nan
1741043570.057249,-0.30222531735193225,-0.060897742848424634,-0.07139512978831689,0.6203791811843521,nan
1741043570.0611548,-0.8299978343355674,-0.18434458136344892,-0.5352366750634598,0.42672153046405026,nan
1741043570.0650606,-1.0460583503166518,-0.08556431555778046,-0.5642126979752538,0.06548434799698412,nan
1741043570.0689664,-0.8514617183793569,0.110474538192964,-0.2986963097702042,-0.2777974597874777,nan
1741043570.072872,-0.29680868094395485,0.19051057516820175,-0.04008645531999704,-0.4628813307708396,nan
1741043570.0767813,0.43188938938170346,0.04931648168241161,0.03431578264990572,-0.45551577128132453,nan
1741043570.080687,1.0594040802498794,-0.21069323568549356,-0.00781880311648717,-0.30901954403777476,nan
1741043570.0845926,1.3010842538556575,-0.36310831737186844,0.020066666771492908,-0.09996426871971606,nan
1741043570.0884984,0.9795257428492568,-0.25216058180939493,0.19687318111580196,0.12035591387205873,nan
1741043570.0924041,0.14672558253400791,0.06873130073011732,0.39334667597473005,0.3230139679813848,nan
1741043570.09631,-0.8671441449921257,0.3725380074265101,0.3923373917802701,0.4658761572610929,nan
1741043570.1002157,-1.5583042488518097,0.4379574285477267,0.11088086796325738,0.47744470227866254,nan
1741043570.1041214,-1.5054107408651072,0.22250270448251844,-0.29174322360241334,0.2940875826039023,nan
1741043570.1080272,-0.6490999659770963,-0.11137223496869479,-0.5295777839433282,-0.06971050156792699,nan
1741043570.111933,0.6011539308068736,-0.33166747832630744,-0.4303243874906411,-0.48080555329360997,nan
1741043570.1158385,1.555039048489023,-0.315680656925692,-0.08381812652650242,-0.7292782647767507,nan
1741043570.1197443,1.650649881200937,-0.12640148341412796,0.2369191901583114,-0.645545128237078,nan
1741043570.1236532,0.8283919548205524,0.06478441654328242,0.31189008127905077,-0.22097970558829386,nan
1741043570.127559,-0.40279274645128343,0.1298627769871463,0.15501481639324396,0.3561214687694156,nan
1741043570.1314647,-1.2848285787895257,0.07707929399456863,-0.021730807776789655,0.788015165307732,nan
1741043570.1353705,-1.3138196979791241,0.014360494585675326,-0.023688221373319725,0.8343574774702408,nan
1741043570.1392763,-0.5728888344721885,0.03045012879765172,0.13410288373184837,0.45678949739249936,nan
1741043570.1431818,0.3519045234488939,0.10837330073969714,0.23997238884783686,-0.1510084641679632,nan
1741043570.1470876,0.814658360775942,0.14770393369604046,0.09708285272288263,-0.669333552463716,nan
1741043570.1509933,0.580529120630033,0.06863710451936962,-0.2615616810071799,-0.831510409228008,nan
1741043570.1548991,-0.031691219773276706,-0.1025376515460751,-0.5624078801337743,-0.5695721480837116,nan
1741043570.158805,-0.43872321393640434,-0.24644926161156622,-0.5133855074194884,-0.04346293164679792,nan
1741043570.1627107,-0.2793014711415932,-0.25021767439054643,-0.07255379117447885,0.45763520088459836,nan
1741043570.1666164,0.2916747281724479,-0.10369317085398008,0.47846186179455635,0.6793837901297457,nan
1741043570.1705246,0.7365569070936497,0.09239130015283235,0.738033362675635,0.5364195612204893,nan
1741043570.1744304,0.5871816662147643,0.21061074066369845,0.5059790432396098,0.14440414114570316,nan
1741043570.178336,-0.15075694427840064,0.19660919273159436,-0.04695480703253172,-0.2605609577600757,nan
1741043570.1822417,-0.9710621442382071,0.09846041785104585,-0.5103491485149125,-0.4626013780458252,nan
1741043570.1861475,-1.2453102328793828,0.007319306507597093,-0.5617657864195029,-0.38402873141159777,nan
1741043570.1900532,-0.7090802701036858,-0.0288144537837798,-0.2184938221130495,-0.11511888653259236,nan
1741043570.193959,0.32554644353628015,-0.036972207194057895,0.1955154304185678,0.1561040164952528,nan
1741043570.1978648,1.193162331269139,-0.07191968062603113,0.33456995262005135,0.2667402348676032,nan
1741043570.2017705,1.3533137883625341,-0.14212306922045326,0.12219185946793124,0.17699810271779717,nan
1741043570.205676,0.7544051135016059,-0.18649867726076255,-0.19892732921666584,-0.016795490828780107,nan
1741043570.2095819,-0.1775189487637579,-0.12931281787932578,-0.29477821716786035,-0.15873933248214417,nan
1741043570.2134876,-0.88094803190891,0.0370364400881211,-0.04326440597025093,-0.14519986956445835,nan
1741043570.2173955,-1.0416137153879441,0.22289194032448964,0.3517879730294722,0.005254006960765371,nan
1741043570.2213013,-0.7301765034059552,0.3012589637907443,0.5339827270385982,0.17109344395723924,nan
1741043570.225207,-0.239931600212469,0.2098442765239472,0.3041393065102269,0.22016613420760348,nan
1741043570.2291126,0.184207034356933,0.005922878446122,-0.20069154760657007,0.10696336177683213,nan
1741043570.2330184,0.47965297780466654,-0.17677097268602748,-0.6116233243048624,-0.09580952993369309,nan
1741043570.2369242,0.6822356661515365,-0.2336444224156857,-0.6251310332962946,-0.2523471406602124,nan
1741043570.24083,0.7621485177149312,-0.1657719420197152,-0.24139523251170028,-0.26187162418757554,nan
1741043570.2447357,0.5850578900614359,-0.06189840089965911,0.2509563261628177,-0.12574079307469174,nan
1741043570.2486415,0.062365838294080135,-0.006317370706729831,0.51844237853881,0.06353088041123928,nan
1741043570.2525473,-0.6569793061486827,-0.0006696629525889385,0.4398025359073549,0.19628955946472537,nan
1741043570.256453,-1.1755736908710306,0.025770736820251897,0.16383927448622707,0.22060752921800833,nan
1741043570.2603586,-1.0939741304078192,0.12684012534710487,-0.060669692468003515,0.16102697159422627,nan
1741043570.2642663,-0.3454993952137928,0.2589721111671286,-0.11331888863923391,0.0754906060418857,nan
1741043570.268172,0.6698160863132305,0.29537100521947635,-0.0805639323669092,-0.0026827533354206747,nan
1741043570.2720778,1.3098715443886748,0.13598279270519395,-0.12537955652155366,-0.08237489944345404,nan
1741043570.2759833,1.1407454865424933,-0.1794919108963065,-0.28600174811581774,-0.17850669545847292,nan
1741043570.279889,0.2721179138969089,-0.46420632694047287,-0.40659350379567893,-0.26324852456707787,nan
1741043570.2837949,-0.6994154217346141,-0.5078598173815406,-0.2773416379396324,-0.26198560936637955,nan
1741043570.2877007,-1.1174454220854426,-0.2421156254881414,0.1395005043021795,-0.1119386117949786,nan
1741043570.2916064,-0.7442045401396036,0.1878246724909268,0.613482647260418,0.16112252560019055,nan
1741043570.2955122,0.0783549427291815,0.5132690478682174,0.7909045227668184,0.4214036965341099,nan
1741043570.299418,0.707951495694709,0.5317149420571965,0.47827661281331496,0.4941512874154431,nan
1741043570.3033237,0.6990473022642192,0.25033613559589313,-0.17252800688389605,0.2901500049886794,nan
1741043570.3072293,0.12772755965476523,-0.1282423373832806,-0.746028161571974,-0.10932774173065019,nan
1741043570.3111367,-0.5006039332227118,-0.3634191232497444,-0.8620215388404259,-0.48200346183274134,nan
1741043570.3150425,-0.6702472379556029,-0.3494337094604711,-0.4579019956206199,-0.601066498287941,nan
1741043570.3189483,-0.2579634065379912,-0.1686956347640807,0.1708572492013868,-0.3870134307492095,nan
1741043570.322854,0.39382747746888913,0.0056636074293111485,0.6017364554154517,0.03485008970423893,nan
1741043570.3267598,0.7702058859900144,0.06436422589256387,0.5987477555244944,0.4152299764053586,nan
1741043570.3306656,0.5899911504401236,0.03919885578001895,0.260112688928614,0.5432949819183899,nan
1741043570.3345711,0.0010799916736586909,0.04355699376887041,-0.10313552357307283,0.37579668906061575,nan
1741043570.338477,-0.567689891499231,0.14003251927079138,-0.23788084356644765,0.04620859531405922,nan
1741043570.3423827,-0.7495346705344906,0.2620937402020439,-0.13681255076691823,-0.24182556860106655,nan
1741043570.3462884,-0.49153567437666057,0.26588142282640265,0.0022147683380604115,-0.3506612394930122,nan
1741043570.3501942,-0.034378758915518136,0.06903847491590451,-0.011717396276374711,-0.2770702710184571,nan
1741043570.3541,0.32148337250417475,-0.24863436414660509,-0.17790831728002665,-0.11759663221383357,nan
1741043570.3580067,0.44149761352807293,-0.4800344766892015,-0.30914462020220723,0.02361433066941267,nan
1741043570.3619125,0.393898249893232,-0.4433461464587592,-0.21420641866314147,0.10408267971135549,nan
1741043570.3658183,0.30648404046346106,-0.13090055163427897,0.11093426795830572,0.14212082970691803,nan
1741043570.369724,0.21053545920677402,0.2698686673910685,0.45564956363206705,0.16482906458068292,nan
1741043570.3736296,0.029381357035980965,0.5056859262288199,0.5571233062247666,0.1645358864393862,nan
1741043570.3775353,-0.28721282080513266,0.43779247233203755,0.3142517624055903,0.10658809619179782,nan
1741043570.381441,-0.6317687445434623,0.1341431789723411,-0.12677764726955673,-0.022421318022256827,nan
1741043570.385347,-0.7629386882694393,-0.19306372227203503,-0.48271496544478953,-0.1770975003314987,nan
1741043570.3892527,-0.49055055435196615,-0.34790511031096233,-0.5432225668928383,-0.2685192060584237,nan
1741043570.3931584,0.13165594446446463,-0.2809467825499334,-0.31005856198520737,-0.22615344090562015,nan
1741043570.3970642,0.7843960668860701,-0.09545806727904914,0.03412541587132018,-0.05666017820532482,nan
1741043570.4009697,1.0750425253239408,0.058201958548956684,0.2812138888027036,0.15046722002851198,nan
1741043570.4048762,0.8062500298982618,0.10207609883647802,0.339044422926568,0.2779881537736498,nan
1741043570.408782,0.11563666281628125,0.06837160740214769,0.2538076948613227,0.25613232096123245,nan
1741043570.4126878,-0.617144468574258,0.039872417935029845,0.12435428416296912,0.10356232897101172,nan
1741043570.4165933,-1.0174681916426753,0.06049491467712482,0.007796418346265408,-0.09099516841965552,nan
1741043570.420499,-0.9298305494936445,0.09917599792911354,-0.09777037760113055,-0.22661002293071392,nan
1741043570.4244049,-0.45998675415109314,0.09204761830835197,-0.1981999315012209,-0.2443053137480344,nan
1741043570.4283106,0.1441543689640105,0.013951511740515676,-0.2543640127891451,-0.14694450323225694,nan
1741043570.4322164,0.6472191706809983,-0.09199284068170999,-0.20403589228961544,0.014673674219206224,nan
1741043570.4361222,0.9024450800586239,-0.152852089062493,-0.03651887930378421,0.16909817538318428,nan
1741043570.440028,0.8415184377702235,-0.13205726977235163,0.16307234140681376,0.2486994529466648,nan
1741043570.4439337,0.4564349309361691,-0.05849638771440331,0.26145399734655905,0.21058345288867722,nan
1741043570.4478393,-0.16789289269335442,0.007672499392532897,0.1875512299581124,0.05784070051464365,nan
1741043570.4517455,-0.8080814185567663,0.035887511111526445,0.004937723571701665,-0.14710971530530884,nan
1741043570.4556513,-1.1429471603885983,0.05020531508989126,-0.1315369835994252,-0.29710911624357655,nan
1741043570.459557,-0.9235821685310692,0.09220505737579282,-0.10902914955835935,-0.2926981108305336,nan
1741043570.4634628,-0.17959326436157041,0.15938498852759386,0.03649107776777267,-0.11027184479434463,nan
1741043570.4673686,0.7167721169234947,0.18591464125893864,0.14409220898407682,0.1628995295396366,nan
1741043570.4712744,1.2359877360441496,0.09600839321707923,0.07350956060185534,0.36575820096837786,nan
1741043570.4751801,1.03863447655391,-0.11132882828153018,-0.15232030592732,0.3623259713962607,nan
1741043570.479086,0.23702689127986803,-0.3270582018079097,-0.3428020908840133,0.13863104558489403,nan
1741043570.4829915,-0.6494542840915597,-0.39332334375516875,-0.2938113778891231,-0.17633660139724663,nan
1741043570.4868972,-1.0457593598891,-0.2247741403821285,0.023132607199546972,-0.39006510790430055,nan
1741043570.490803,-0.7320708119090438,0.1070177078415143,0.4046548197730971,-0.3749016226106937,nan
1741043570.4947088,0.0006785237196428446,0.40378445581406985,0.5572100035870862,-0.15246459859318662,nan
1741043570.4986174,0.5806537702904231,0.47396851557646574,0.3325416138171895,0.1285480025251669,nan
1741043570.5025232,0.5986816349371485,0.27111236312680437,-0.13696861526673443,0.3023993052713155,nan
1741043570.5064287,0.11813036969394089,-0.07090165048284199,-0.5241049764385688,0.29787690565142794,nan
1741043570.5103345,-0.3958489260203756,-0.3351583118430845,-0.554350263729222,0.16731324764096694,nan
1741043570.5142403,-0.4708006195813474,-0.3764493326010462,-0.21824885080235798,0.019683413802101504,nan
1741043570.518146,-0.024713418006841476,-0.2139720810921872,0.22419671773670422,-0.07613376342772567,nan
1741043570.5220518,0.5593918470974233,0.005112689945232333,0.45098575655282325,-0.13158040056025222,nan
1741043570.5259576,0.7473319341922325,0.13318522759375825,0.32797159297266076,-0.19200127227670322,nan
1741043570.5298634,0.3033654255444823,0.13216035433606543,-0.0007431321703603805,-0.25621568549811174,nan
1741043570.5337691,-0.49226068189167727,0.0788854279908432,-0.24866814894229686,-0.24910546810887021,nan
1741043570.5376747,-1.041745774738702,0.0716341545593394,-0.2283533635468615,-0.0864809251114385,nan
1741043570.5415804,-0.8930603388592615,0.12733802834293337,0.004401343649898437,0.2188117896960645,nan
1741043570.5454886,-0.1021294692444932,0.1633907078448231,0.2169362503231851,0.5121188667028551,nan
1741043570.5493944,0.7937639838250528,0.08046230492155411,0.20949252029323961,0.5766572062161471,nan
1741043570.5533001,1.1720036789354134,-0.12843746890095767,-0.015441353400344986,0.29612073030937686,nan
1741043570.557206,0.7826124533647835,-0.3434993560169727,-0.2644577615725464,-0.2243456742219879,nan
1741043570.5611117,-0.08089176643363899,-0.3972635153822919,-0.3254557603100404,-0.6889329208313835,nan
1741043570.5650175,-0.8160198571083818,-0.20877536421147525,-0.1458727358654829,-0.793824136144512,nan
1741043570.5689232,-0.9566645690498299,0.13662850206475524,0.13379849397334198,-0.4396500693092049,nan
1741043570.572829,-0.48690698416805145,0.43182191260459335,0.3089613551861729,0.18317109399344234,nan
1741043570.5767345,0.19663312915338518,0.4886026163758195,0.2799279985920992,0.7070849156083115,nan
1741043570.5806403,0.6131572490075775,0.2697624733519492,0.11363014437640899,0.824574455114306,nan
1741043570.584546,0.5450608420160458,-0.08625968124601098,-0.04339950896576311,0.4843408952992842,nan
1741043570.5884519,0.14764669584237855,-0.3641193585472019,-0.10643771473600164,-0.08806737201282358,nan
1741043570.5923598,-0.22736916868152324,-0.4171719394459514,-0.11220405220419469,-0.5509128434564453,nan
1741043570.5962656,-0.32213682686776623,-0.25327037333858954,-0.14707342742577736,-0.6669040333201791,nan
1741043570.600171,-0.1425464300246767,-0.006061559787710535,-0.22488525718226124,-0.43128237689677745,nan
1741043570.6040769,0.10034661487083546,0.174091324614052,-0.24609513577509307,-0.035228124314718834,nan
1741043570.6079826,0.19360955643194233,0.22045881928960173,-0.09160677285799286,0.2852569268471606,nan
1741043570.6118884,0.08839569284804373,0.17034888941142712,0.23100169437396517,0.3951744116898938,nan
1741043570.6157942,-0.09390606408101569,0.10440761134820972,0.5356883915048591,0.3080494966655873,nan
1741043570.6197,-0.1908985232010671,0.06658089312382964,0.574124888241794,0.13008316014000085,nan
1741043570.6236057,-0.13603732274821415,0.03390737044096679,0.24128908291185544,-0.031806051225162474,nan
1741043570.6275115,0.0076262526726448175,-0.043455207508806784,-0.3030872021484239,-0.12560276620050703,nan
1741043570.631417,0.12353606374434525,-0.1730930131698735,-0.7168590283489696,-0.15155010395098395,nan
1741043570.6353228,0.14336164678976965,-0.2874663830990125,-0.715829081513353,-0.13103916473318541,nan
1741043570.6392305,0.0859607850760151,-0.2822000349464214,-0.2883698165488503,-0.08598751543470991,nan
1741043570.6431363,0.016153403383881812,-0.10115385166578157,0.2887546415061024,-0.03801594256351426,nan
1741043570.647042,-0.022092482761086846,0.19745159668314316,0.6504181226526682,-0.008204701273921092,nan
1741043570.6509478,-0.03345470801819333,0.45141199087638956,0.6030096379926606,-0.002535672780053354,nan
1741043570.6548536,-0.045270676285478526,0.4866631056753729,0.24272761444162996,0.003324716747878691,nan
1741043570.6587594,-0.06668554740002515,0.23649640938772326,-0.1497520228467051,0.051304702255795975,nan
1741043570.6626651,-0.07831759953882445,-0.1927011328677498,-0.33812785211349156,0.15499646678622783,nan
1741043570.666571,-0.058185127920963316,-0.5624045168070196,-0.29105096181652335,0.25819260160921714,nan
1741043570.6704764,-0.009844254528582584,-0.6370179650717793,-0.1544503165761284,0.25074616630638213,nan
1741043570.6743822,0.040183732012721955,-0.3361313121967125,-0.08304863584772967,0.05393450067710733,nan
1741043570.678288,0.07116279773667442,0.19402820793849107,-0.0943489300113685,-0.2825801402851277,nan
1741043570.6821938,0.08753238825871613,0.6472923437394987,-0.07513466946712194,-0.5644513750146313,nan
1741043570.6861012,0.10372234875515257,0.7360671540406348,0.07629395478914616,-0.5625136875200483,nan
1741043570.690007,0.11070258145776511,0.37788397395514606,0.31514011155490235,-0.19037170473292314,nan
1741043570.6939125,0.06779493616458251,-0.23233655807103723,0.45817298292955594,0.3857605166564638,nan
1741043570.6978183,-0.057527103468088946,-0.724960273362002,0.337913083966775,0.8141881487739742,nan
1741043570.701724,-0.23236557464653618,-0.7827133158047577,-0.03196143446054915,0.7844352433853041,nan
1741043570.7056298,-0.3462477957727789,-0.35135769974448,-0.43326490150660774,0.2614240132985536,nan
