timestamps,TP9,AF7,AF8,TP10,Right AUX
1741044331.6227164,-0.06348507649320424,0.021240706913332647,-0.19994310102269616,-0.3277340109259539,nan
1741044331.6266224,-0.1467258119008298,0.5294514669298183,0.3621446966673178,-0.07632217138689533,nan
1741044331.6305282,-0.14992097393976095,0.6643928731946296,0.6135330185843869,0.09961176719062552,nan
1741044331.6344342,-0.08283198796560437,0.4026933797429384,0.4206180096786164,0.13881869705382963,nan
1741044331.6383402,0.005418679588544514,-0.035604709579189424,-0.025392524589733984,0.10090096150198719,nan
1741044331.642246,0.059225208174775675,-0.35791343813730736,-0.37525221749123844,0.07384166804467196,nan
1741044331.646152,0.05588288528596748,-0.39288594112367503,-0.3909637959295448,0.0868498161013187,nan
1741044331.6500578,0.019924359022205945,-0.1795859054587164,-0.10876227428385482,0.10101657078375288,nan
1741044331.6539638,-0.0014257504510096874,0.09103860099713139,0.21789094662346578,0.06697581994418031,nan
1741044331.6578698,0.017673824029727156,0.22433424585885522,0.33263874873790483,-0.01888256340709433,nan
1741044331.6617756,0.05664339889326195,0.15176247541663318,0.17014365956881605,-0.11276908176502691,nan
1741044331.6656816,0.06654476710606413,-0.03965183849457844,-0.11631442002497008,-0.1670951224202117,nan
1741044331.66959,0.01725653535421562,-0.1854551675655908,-0.29692652273570996,-0.16705678278206687,nan
1741044331.6734958,-0.06842853253955025,-0.16667851568374212,-0.24866100925427528,-0.1245761216251642,nan
1741044331.6774018,-0.1272468924448931,0.007708033172063034,-0.03348124831029121,-0.04690259075523471,nan
1741044331.6813078,-0.10743932860384899,0.21071320549963335,0.17534513975976254,0.07309881546632278,nan
1741044331.6852136,-0.016106446663306417,0.28842749330564194,0.2402789147373536,0.2249589157849795,nan
1741044331.6891196,0.08152603630576646,0.16900662505485045,0.15383580715812953,0.3428476816424035,nan
1741044331.6930254,0.11392004726324226,-0.0837815021220411,0.0145335454423093,0.3205687975957233,nan
1741044331.6969314,0.06322454086601084,-0.30886119781057675,-0.07503234825688113,0.09409189333340567,nan
1741044331.7008374,-0.019296062873630997,-0.3539614208745287,-0.08933181241946299,-0.2689177681853238,nan
1741044331.7047431,-0.058025051213676175,-0.17962052550161964,-0.07506552722376132,-0.5650169516453853,nan
1741044331.7086492,-0.020470327380234424,0.10970676626499133,-0.08086367270165601,-0.5732761313438935,nan
1741044331.7125552,0.052057260565016486,0.33130742553940357,-0.09899139064950434,-0.22593240898610098,nan
1741044331.7164648,0.07978708711244008,0.34496326398944066,-0.07643597353450488,0.30420872502200336,nan
1741044331.7203708,0.017262728644569514,0.1472964724097901,0.01965283228933909,0.690531328099094,nan
1741044331.7242765,-0.09989412106924131,-0.12626197718847337,0.151161762687431,0.6719023887418624,nan
1741044331.7281826,-0.1776065950021363,-0.2948278164764182,0.22740973203485643,0.24709256465855228,nan
1741044331.7320883,-0.13951385294625523,-0.25620532612107016,0.18006818109619938,-0.31019880296315044,nan
1741044331.7359943,0.006552936791611228,-0.05431723882671385,0.026399093335148983,-0.6394930172980208,nan
1741044331.7399004,0.16871238596563304,0.15750732456737568,-0.13876951551593836,-0.5492009516859607,nan
1741044331.7438061,0.23911285016763584,0.22956057461685145,-0.21713474462331278,-0.14603815626779557,nan
1741044331.7477121,0.17413450688971951,0.12207202772679232,-0.18139448173871606,0.26016349106733627,nan
1741044331.751618,0.021734042504314897,-0.07197012232642255,-0.08469392607845226,0.39869571248331664,nan
1741044331.755524,-0.12266860679245993,-0.2012290661038729,-0.0006037532427530437,0.23491046379296993,nan
1741044331.75943,-0.1897102760997157,-0.16941614875038813,0.045987321850775066,-0.030346194040066787,nan
1741044331.7633393,-0.17554721888696193,-0.0028988717285161904,0.08923893023778785,-0.14855187692132937,nan
1741044331.7672453,-0.11950044134685717,0.17454675769845668,0.16439748291921125,-0.03697153251691094,nan
1741044331.7711513,-0.05099265589691614,0.23583226063814403,0.2419761478742097,0.16008780340390302,nan
1741044331.775057,0.036184298237369336,0.14040241023582928,0.22881581855478367,0.20937757293183473,nan
1741044331.778963,0.15488603478551266,-0.04447876353745471,0.05097072349113278,0.005377219329836104,nan
1741044331.7828689,0.2732071809151336,-0.1993401513241788,-0.24941197875186852,-0.32080810654393255,nan
1741044331.7867749,0.30363214940184613,-0.2365739216290388,-0.49951816351714956,-0.4962885003156043,nan
1741044331.790681,0.16347416843973445,-0.15022644752962963,-0.5003784675288634,-0.33060003637565216,nan
1741044331.7945867,-0.1335853451509836,-0.0031807094258901832,-0.183974388290278,0.11416876326527471,nan
1741044331.7984927,-0.43991680138749545,0.12614160223858142,0.3023218844698999,0.5493498602950228,nan
1741044331.8023984,-0.54600752482985,0.19057054546454968,0.6665541488922228,0.6668254337829891,nan
1741044331.8063045,-0.32927173120590053,0.18402666658941627,0.6632671336231651,0.3681029369859627,nan
1741044331.8102138,0.12950787707267322,0.121518486092412,0.2700088917929678,-0.16033424845603025,nan
1741044331.8141198,0.5651485400552061,0.019499412628920087,-0.2843987006318535,-0.5800253173229679,nan
1741044331.8180258,0.6908579322177137,-0.10288437924492963,-0.6670362676669085,-0.6375052741396977,nan
1741044331.8219316,0.39906046610368495,-0.21002926097225683,-0.6601821047203913,-0.3286924841393921,nan
1741044331.8258376,-0.14722198965777233,-0.24956267665370793,-0.2965320621119311,0.12105341848170502,nan
1741044331.8297434,-0.6092114377866769,-0.17960334427108143,0.18061393450124152,0.4301138606532438,nan
1741044331.8336494,-0.6954404023229351,-0.0075208859194245145,0.49260282155975477,0.44923347037416955,nan
1741044331.8375554,-0.35789665907516827,0.19476726133406105,0.5027052029333575,0.2333599856979184,nan
1741044331.8414612,0.17776866017114423,0.3212345287461552,0.2738280332378353,-0.034559415010880196,nan
1741044331.8453672,0.5681423314060468,0.2943318668869236,-0.014549026969730317,-0.18968064728201925,nan
1741044331.849273,0.581747998632416,0.11736356446499052,-0.20702442952014946,-0.18720465624826557,nan
1741044331.853179,0.24225181480727084,-0.12197588339634531,-0.25930092093142515,-0.09862893753493354,nan
1741044331.857088,-0.2066024502544256,-0.3011914136069997,-0.22135100512599826,-0.02806412724194528,nan
1741044331.860994,-0.47697646382378006,-0.33250745749271604,-0.15698713092197475,-0.02594544674189675,nan
1741044331.8649,-0.4237335234459087,-0.20765848108925236,-0.08329964563262435,-0.06266413308363736,nan
1741044331.868806,-0.11834969450565827,0.005661793662658562,0.02020584785088468,-0.06835233773779924,nan
1741044331.872712,0.22332325725426705,0.20547231732693733,0.15539020968666312,0.0027236948993582585,nan
1741044331.8766177,0.392099627551138,0.30531002481139297,0.2685325071504335,0.13242597113190469,nan
1741044331.8805237,0.30831355835693336,0.2672046786817197,0.2771636364609819,0.24641455535530452,nan
1741044331.8844297,0.04741411424098912,0.11100576624137312,0.14140827297452324,0.2590464826979441,nan
1741044331.8883355,-0.22647642786509153,-0.09473556728089015,-0.08529914225501761,0.12760261785621402,nan
1741044331.8922415,-0.361166371850732,-0.2561418083171097,-0.2774417962977626,-0.11239243104066121,nan
1741044331.8961473,-0.29079835867140447,-0.2911401978192432,-0.32080208599646176,-0.35030552424540023,nan
1741044331.9000533,-0.056487684155549674,-0.17300672092820088,-0.19376371085902291,-0.4479005973340567,nan
1741044331.9039624,0.22094425232999423,0.04233779950750752,0.018129327016801568,-0.3165354676023937,nan
1741044331.9078681,0.39680145861153776,0.2329937847734134,0.18540625717697068,0.014506829468599481,nan
1741044331.9117742,0.36815764520611294,0.277949225520227,0.22497679010567034,0.38721379608311424,nan
1741044331.9156802,0.12908338760931487,0.14027845606528838,0.14814593607459067,0.5874434913470403,nan
1741044331.919586,-0.21110487353461665,-0.09343012428513477,0.03473520634355457,0.47323638958875774,nan
1741044331.923492,-0.46918539522818914,-0.25912997671395466,-0.038076030448225495,0.08043619613091357,nan
1741044331.9273977,-0.48372670578437305,-0.22839331973896737,-0.051247927145054814,-0.3757324880372837,nan
1741044331.9313037,-0.21837347448626712,-0.010928827262668604,-0.04231303694571153,-0.6230425707440621,nan
1741044331.9352098,0.19598154896518505,0.23695491603068314,-0.05638716324635828,-0.5082130503449005,nan
1741044331.9391155,0.5226953836943649,0.3184543284038395,-0.09743866574176568,-0.10532884670462707,nan
1741044331.9430215,0.5599817960825504,0.1472222870757396,-0.12254253577777055,0.32766046524776743,nan
1741044331.9469273,0.2736930803999046,-0.17217946115909952,-0.0819052098900001,0.5222657303755979,nan
1741044331.9508362,-0.17089489858683843,-0.40646262060092997,0.031533514001555234,0.3816924903791699,nan
1741044331.954742,-0.5082390817770922,-0.36351992712888553,0.16542741148918746,0.03915858531325731,nan
1741044331.958648,-0.5411391380666775,-0.04546090987540583,0.23839732234419866,-0.2503441998333841,nan
1741044331.962554,-0.2653047153693953,0.3371267946575662,0.19442712914314236,-0.30162065095296453,nan
1741044331.9664598,0.13483119675215444,0.510851550096894,0.04198389888932779,-0.12784261571838101,nan
1741044331.9703658,0.41341315007211715,0.3416433729763323,-0.1475387551342955,0.08929462348662405,nan
1741044331.9742718,0.4225798792663568,-0.06000661152361403,-0.2783311716388877,0.15774913696526727,nan
1741044331.9781775,0.1952086973458309,-0.4151427853000466,-0.28054403659590715,0.03157207044303164,nan
1741044331.9820836,-0.09760284171483892,-0.4801876900294276,-0.1455383702056404,-0.15909506247986416,nan
1741044331.9859893,-0.27287550956195994,-0.22489675255762556,0.06860676065293095,-0.22413474706861597,nan
1741044331.9898953,-0.2518568904455116,0.151043121357217,0.2615151018167262,-0.07703164464785621,nan
1741044331.9938014,-0.09083367776277601,0.3740487260977097,0.3352236300822441,0.18851528977997323,nan
1741044331.9977098,0.0797591846670373,0.30322295358692153,0.24286346007496046,0.369790013809364,nan
1741044332.0016158,0.1517354223391304,0.027967197755870876,0.019693675708351482,0.3145495884336026,nan
1741044332.0055218,0.10181001221241699,-0.21516861422945102,-0.22423026511702304,0.040667063103407404,nan
1741044332.0094275,-0.012004935470032192,-0.23559614697811426,-0.3558504565591076,-0.27615910665433935,nan
1741044332.0133336,-0.10241868738205372,-0.036836619078413145,-0.2945387371202844,-0.43180635112132565,nan
1741044332.0172393,-0.10989260895850592,0.19537836017626065,-0.06742825433318154,-0.3365593331872686,nan
1741044332.0211453,-0.031324701368366535,0.2504646813185198,0.1965261096449351,-0.0656761578630012,nan
1741044332.0250514,0.08586199875032527,0.06654375005269074,0.3400152335024312,0.2088085734080158,nan
1741044332.0289571,0.17141344480196619,-0.21830442951492618,0.27689078731472255,0.3408926570862271,nan
1741044332.0328631,0.16666290333069336,-0.37517751415632417,0.05123727625513762,0.29359401801377144,nan
1741044332.0367692,0.05535560469918961,-0.26470880624771986,-0.18882587052201263,0.1332612872317901,nan
1741044332.040675,-0.11945302721229294,0.05345634017390807,-0.2894132112556628,-0.039327730599596135,nan
1741044332.0445833,-0.26566375561870376,0.36430718963682784,-0.19467001868877953,-0.15589172108256302,nan
1741044332.0484893,-0.28600123059620974,0.4557653285363934,0.017498068609022574,-0.20022425743453007,nan
1741044332.0523953,-0.1399438810828284,0.2684860927784932,0.19373685447606878,-0.1856558816646508,nan
1741044332.056301,0.11482917045554773,-0.07162613074417565,0.21525089632109806,-0.1275519582625418,nan
1741044332.0602071,0.3393833291990453,-0.3518353754497944,0.07956606791806071,-0.03781731908985698,nan
1741044332.064113,0.39210152482057736,-0.4189881110300256,-0.10397585471863044,0.06431363789248544,nan
1741044332.068019,0.22369671829820098,-0.26633296123150463,-0.19843710541504916,0.14867461403913354,nan
1741044332.071925,-0.07915465488669547,-0.010910399190832231,-0.13881266842069803,0.1879638995726433,nan
1741044332.0758307,-0.34077188874464376,0.20246164996555485,0.025546801271936127,0.17416629566529818,nan
1741044332.0797367,-0.4085388185021516,0.2897918891525777,0.1724883259771118,0.11726243455768308,nan
1741044332.0836425,-0.2526846832144728,0.2520603517697736,0.1972564771466722,0.02751500112210816,nan
1741044332.0875485,0.018700219012888344,0.1394092303983206,0.08415757176695668,-0.09374149295266544,nan
1741044332.0914583,0.23975756495158146,0.003160445278644212,-0.08835521385122565,-0.23532050208950042,nan
1741044332.0953643,0.3005190312862978,-0.12309970260168311,-0.2061286844740602,-0.34508237329718133,nan
1741044332.09927,0.2089498224309161,-0.21245577467276217,-0.19550025727997553,-0.33079149087196136,nan
1741044332.103176,0.06051499812750084,-0.2337841503887937,-0.06593671011530808,-0.12054651255063979,nan
1741044332.107082,-0.050092832431908776,-0.1648598392028363,0.10273065521412882,0.2487364780958094,nan
1741044332.110988,-0.09698589986289226,-0.020279787005679034,0.2124388700515573,0.5958883379751604,nan
1741044332.114894,-0.1172568916057369,0.13831993367278597,0.20263826146415287,0.6764700089824158,nan
1741044332.1187997,-0.14714311868253727,0.23077043339151235,0.07979530425222162,0.35422176223105944,nan
1741044332.1227057,-0.1683209186002574,0.21022473471353909,-0.08935794800556948,-0.2570700426231513,nan
1741044332.1266115,-0.12068159933208564,0.0969539119924877,-0.2129815413958999,-0.8115411661087341,nan
1741044332.1305175,0.027480576425678353,-0.036362715671244446,-0.22078488435183685,-0.93533857177569,nan
1741044332.1344235,0.2203112528169006,-0.11810056699035487,-0.10245023801096897,-0.4930007372128723,nan
1741044332.1383328,0.3318203545819246,-0.12644846157877412,0.08109737993215942,0.2818643062384628,nan
1741044332.1422389,0.2589217946992059,-0.09385354549596103,0.22479569683193398,0.9118463531456376,nan
1741044332.1461446,0.016306404121657705,-0.06647156731316865,0.23781719946084204,0.990944268141416,nan
1741044332.1500506,-0.25284631421301107,-0.05749830611987786,0.10317024951473078,0.46948009783496714,nan
1741044332.1539567,-0.37157991731611106,-0.037826558846638915,-0.10176150268124479,-0.30503826961270086,nan
1741044332.1578624,-0.2607859681510092,0.02743617248589496,-0.24639020405172532,-0.8300764628028551,nan
1741044332.1617684,-0.002046411212914976,0.13130134389793638,-0.23138894144931108,-0.7985657991977196,nan
1741044332.1656742,0.22277239906198792,0.21319766405679214,-0.06122761858390429,-0.2987001936916969,nan
1741044332.1695802,0.26962847706056253,0.19979037527943325,0.1509231250636308,0.28039935104478797,nan
1741044332.1734862,0.1375125784368777,0.06756316863208114,0.2576252047847064,0.5537043460590267,nan
1741044332.177392,-0.04338123573692901,-0.12595170796652413,0.1825878254715588,0.41415443298894716,nan
1741044332.181298,-0.12727101983737518,-0.27229198441935226,-0.02049859869692192,0.06925397631899496,nan
1741044332.1852074,-0.07265517509904268,-0.28381979419015846,-0.20382193943920696,-0.16796265979460198,nan
1741044332.1891131,0.03444839287010418,-0.1530728244942879,-0.23369505504720336,-0.1456908523084313,nan
1741044332.1930192,0.06970848080346238,0.04452218560220077,-0.09097067419557898,0.024874405721911106,nan
1741044332.196925,-0.010171500014272736,0.20380114566598062,0.11417337750259757,0.10503570915854361,nan
1741044332.200831,-0.12595327002569304,0.25603165678375206,0.2263994954896752,-0.03126969531608046,nan
1741044332.204737,-0.15034252361200473,0.2001190215496315,0.16415839807583493,-0.2706375963087841,nan
1741044332.2086427,-0.03178844562736735,0.08393664559436273,-0.019176698664315137,-0.36018068923689334,nan
1741044332.2125487,0.14612640900535864,-0.038648749856420445,-0.17960262024744225,-0.14587147558646363,nan
1741044332.2164545,0.22912086373319515,-0.13609446058354355,-0.19632455377555688,0.2637541626224411,nan
1741044332.2203605,0.12941177946300758,-0.19572396761831476,-0.06433255633421536,0.5607057378249771,nan
1741044332.2242665,-0.08522743873230683,-0.20489326480345643,0.1068448068537737,0.48475329366938313,nan
1741044332.2281723,-0.23615528621411128,-0.1461612910371861,0.1843262708752263,0.04982458404424736,nan
1741044332.2320817,-0.1835117128874501,-0.01721641613680209,0.1171289828355555,-0.4451058625179494,nan
1741044332.2359874,0.04420497811629771,0.14441651205454745,-0.029277500069669893,-0.6390707883773551,nan
1741044332.2398934,0.25768484584118295,0.2635224207464795,-0.13354565588745546,-0.3896742304229928,nan
1741044332.2437992,0.2571370190411823,0.267089781175484,-0.12012847687150928,0.11522738374425653,nan
1741044332.2477052,0.007096315095379007,0.13717375639885007,-0.016647524192584213,0.5044260354174738,nan
1741044332.2516112,-0.3128867883291819,-0.06582533677712332,0.0780445021126491,0.5093602297635311,nan
1741044332.255517,-0.4356974480856865,-0.233553593351731,0.08359733548941616,0.1608738537662826,nan
1741044332.259423,-0.22027812552849962,-0.2765436100359696,0.006736186723161876,-0.25343530288514243,nan
1741044332.2633288,0.21820434011109383,-0.18034848540748966,-0.06946639906367989,-0.4255308352089782,nan
1741044332.2672348,0.5733057732054684,-0.010725695055099526,-0.06398524727493655,-0.26081921854314627,nan
1741044332.2711408,0.5678912113500486,0.1339247143706175,0.02608265179894613,0.07197831795245008,nan
1741044332.2750466,0.16607372010181481,0.1860450191283116,0.11911386902460601,0.2981456198178204,nan
1741044332.2789557,-0.38610332778309947,0.1432221476738061,0.11902651580616062,0.259427945216101,nan
1741044332.2828617,-0.7257959970731015,0.054575807426144485,0.002366788352946574,0.021275774823382373,nan
1741044332.2867675,-0.6243427131271883,-0.022359977280488035,-0.15266650986144215,-0.2061809557161705,nan
1741044332.2906735,-0.14230777721437016,-0.05818692669926062,-0.22246699477286527,-0.24918547496371793,nan
1741044332.2945793,0.4180611369834746,-0.05833409727817355,-0.13593089740976821,-0.09833927013302142,nan
1741044332.2984853,0.7198113180381355,-0.04451626930754798,0.06439907827586984,0.10925311983935009,nan
1741044332.3023913,0.60564950129197,-0.033168294439003126,0.24731535170381735,0.21721075332071643,nan
1741044332.306297,0.17637606077941115,-0.027944345128211118,0.28548517669603174,0.168453394540293,nan
1741044332.310203,-0.30121803445158096,-0.02527472252091299,0.1455927156622622,0.024431614534116335,nan
1741044332.3141088,-0.572850373634356,-0.020655433491123008,-0.08933006038199849,-0.10814633785617027,nan
1741044332.3180149,-0.5349814944386417,-0.008458603491296164,-0.27749590720305733,-0.16232147904119232,nan
1741044332.3219209,-0.25760121605528913,0.01926900836105173,-0.31039867746301386,-0.13681220476540357,nan
1741044332.3258295,0.09252156129063724,0.06585471332896933,-0.17521775506523937,-0.0625953212962144,nan
1741044332.3297355,0.354866271283256,0.11676174047261872,0.04768401764499345,0.03498683229916402,nan
1741044332.3336413,0.43997344366424324,0.13559245596922645,0.23964684790358032,0.13548331451483545,nan
1741044332.3375473,0.3406327188054312,0.08335280832948368,0.3091387174507644,0.19857308598501497,nan
1741044332.3414533,0.11288201553476616,-0.045508215975542346,0.23085674922445504,0.1659049655280632,nan
1741044332.345359,-0.1484417307990331,-0.19903332638094243,0.047404482918734864,0.011694275875867688,nan
1741044332.349265,-0.33649097122189614,-0.2845224821521346,-0.15589158140783044,-0.20067555676591978,nan
1741044332.3531709,-0.36950122829196264,-0.22614912111288,-0.2874325758374313,-0.3278533849971797,nan
1741044332.357077,-0.23199460056637167,-0.0263538843815879,-0.28624187543455115,-0.24431265137324534,nan
1741044332.360983,0.007041651174209285,0.21843167634843744,-0.15010261229541766,0.038658048174436424,nan
1741044332.3648887,0.22387737876762068,0.36888702035458354,0.057866092321736846,0.34353958086163894,nan
1741044332.3687947,0.3097633050555827,0.3312705466067992,0.23507049811591896,0.43873487454003324,nan
1741044332.3727047,0.2361228861060212,0.12122999076415131,0.2923601593901031,0.2216172151495393,nan
1741044332.3766105,0.06673038639861574,-0.14463089576428195,0.20588947187198628,-0.17719487101108689,nan
1741044332.3805165,-0.09319820067737923,-0.3242528500295805,0.031912522875958645,-0.47147407750952625,nan
1741044332.3844225,-0.17057456160802334,-0.3376986423845897,-0.13044681285517534,-0.43527439942232715,nan
1741044332.3883283,-0.16246590266075978,-0.2051184878138164,-0.20461700463287544,-0.08774413208275814,nan
1741044332.3922343,-0.11300484975573835,-0.014756914566350459,-0.1815515018194102,0.3115502863975484,nan
1741044332.39614,-0.05847486303487991,0.14492882340024543,-0.1097867045579709,0.4645234454866218,nan
1741044332.400046,0.0032113822798017977,0.23261534453937474,-0.04179106645639149,0.2730027804225179,nan
1741044332.4039521,0.08942010332308846,0.25073792724488414,0.01322057175555706,-0.08593235512951174,nan
1741044332.407858,0.18347501836176458,0.21006209788831623,0.08453692781357688,-0.3145949505517623,nan
1741044332.411764,0.21826035896337287,0.10742553097137127,0.18648175424951147,-0.24938061395340563,nan
1741044332.4156697,0.12457070665813563,-0.05731159823948716,0.27051375233911135,0.004879689238632611,nan
1741044332.4195783,-0.08964942750278038,-0.24467900079750549,0.2411285315972007,0.18045735572549937,nan
1741044332.423484,-0.30606947609302887,-0.36630194387088855,0.03932886498418288,0.10073958157874514,nan
1741044332.42739,-0.35925073470918106,-0.3300251589397386,-0.27231835456526,-0.1462160792933132,nan
1741044332.431296,-0.16494499125737594,-0.11442772601475755,-0.5092765402655269,-0.2803030981771613,nan
1741044332.435202,0.18704040019758922,0.1895087521200758,-0.4773948433459787,-0.09603538406288833,nan
1741044332.439108,0.4654573025448313,0.4162147000987372,-0.12881979789796338,0.3133376664584956,nan
1741044332.4430137,0.4529886775983271,0.428373545396543,0.36271653798850484,0.5922819690890694,nan
1741044332.4469197,0.11677167116597315,0.21316115088819773,0.6876509600898001,0.4181381675101075,nan
1741044332.4508257,-0.341422760886044,-0.10265860876224703,0.6075822983884104,-0.18531579173032786,nan
1741044332.4547315,-0.6094907928580635,-0.3350538834312446,0.1385386905004578,-0.8004744445273806,nan
1741044332.4586375,-0.4844209704384496,-0.36417948197550465,-0.434512752691472,-0.9132894059241896,nan
1741044332.4625432,-0.02676089903055448,-0.20632454028912395,-0.7400701141951482,-0.33849940952700863,nan
1741044332.466453,0.46959767060283075,0.013197206088004058,-0.5774480724419938,0.5782836428722773,nan
1741044332.470359,0.6768389842824006,0.1589503958940536,-0.061474841934109146,1.1764408372332047,nan
1741044332.4742649,0.4592758181589377,0.17662212901055305,0.45667918706898764,0.9747233874257422,nan
1741044332.4781709,-0.03690895635665082,0.11034651345317488,0.638374038653357,0.06318392237250514,nan
1741044332.482077,-0.4911967987625228,0.04415792717693783,0.39357861466176175,-0.9294723796850108,nan
1741044332.4859827,-0.6296976708760952,0.02546996990499402,-0.06898696171869596,-1.2895841717613197,nan
1741044332.4898887,-0.3987211749523121,0.035239224391906104,-0.4094834545362963,-0.7533520531948438,nan
1741044332.4937947,0.024575054090962042,0.02210910751683212,-0.41017073371669394,0.29096902470369795,nan
1741044332.4977005,0.3741981053812423,-0.038863326003518696,-0.12215634232422941,1.0930321827180711,nan
1741044332.5016065,0.47364268998115433,-0.11888090763198018,0.19786405437468835,1.0994454803633635,nan
1741044332.5055122,0.3247009145809763,-0.1611389186774075,0.29997996019684225,0.35236844227817116,nan
1741044332.5094182,0.06391909559165967,-0.13102667688593791,0.13123219580679044,-0.5697877265678603,nan
1741044332.5133276,-0.15506493268868202,-0.04281917294849541,-0.14066114970680582,-1.0063863203988448,nan
1741044332.5172336,-0.2548305507365,0.0582306325831459,-0.27697804564535566,-0.7008785677176625,nan
1741044332.5211396,-0.24591651548228455,0.1350278132840162,-0.16308552923293965,0.048211174383783875,nan
1741044332.5250454,-0.17582419043217162,0.17772863608097234,0.10635103508050044,0.6596676296516008,nan
1741044332.5289514,-0.07766136033063811,0.18697137708200062,0.31185271538437626,0.7237464490411154,nan
1741044332.5328572,0.03766326283466791,0.14736311728376938,0.2870147388892348,0.2785165725066817,nan
1741044332.5367632,0.15450474812850803,0.03128180875675238,0.04589827182050495,-0.280301300980421,nan
1741044332.5406692,0.2332785434260831,-0.158790092959147,-0.23498114602550035,-0.5429359766159401,nan
1741044332.544575,0.22756703701696598,-0.34973827631757465,-0.3561869473058594,-0.3873121505982109,nan
1741044332.548481,0.12381035575917276,-0.4139308946117926,-0.24182101537452141,-0.01421112771587745,nan
1741044332.5523868,-0.03660255764960188,-0.2540170878706676,0.016571399751177624,0.2685401230757215,nan
1741044332.5562928,-0.17799779720493367,0.09999578533466377,0.24030831052702298,0.30034794804250387,nan
1741044332.5602021,-0.23860787161941052,0.46860994494916525,0.2953186862774317,0.1506704287197368,nan
1741044332.564108,-0.2055502372637173,0.6179011584920384,0.17440292457326192,-0.0036053219690306768,nan
1741044332.568014,-0.10968620041376534,0.42030967795260576,-0.020016929978662373,-0.06042647314107234,nan
1741044332.57192,0.007949857614823991,-0.036460149521706724,-0.1627231707603803,-0.060326353371569205,nan
1741044332.5758257,0.12169385822098758,-0.4861182125604222,-0.18830850382125675,-0.09649446252661294,nan
1741044332.5797317,0.21570206921954882,-0.6545062069400961,-0.11472826885289751,-0.1800920032308518,nan
1741044332.5836375,0.26159733767831994,-0.4461118077484502,-0.007944629660238772,-0.2087752050839611,nan
1741044332.5875435,0.21573101912717105,-0.008174139897013334,0.07098773336385372,-0.07498082942117737,nan
1741044332.5914495,0.05402259377177161,0.37709547769702684,0.0959630572874238,0.19502321759916713,nan
1741044332.5953553,-0.18143343381264454,0.4911485767481268,0.07349955862351329,0.41899472262002985,nan
1741044332.5992613,-0.3751279962958913,0.319193191020282,0.02562582882534286,0.39480790662439075,nan
1741044332.6031673,-0.3974981644360635,0.031673410091586605,-0.022804695070916217,0.0834950081448642,nan
1741044332.6070764,-0.19955368913526564,-0.16602190980008077,-0.04950895506140138,-0.3275889046259484,nan
1741044332.6109824,0.13066124235647938,-0.1879421402988726,-0.04129371392540194,-0.5513437806189687,nan
1741044332.6148882,0.4058778486664539,-0.10486596881926952,-0.004045419897974069,-0.4215654334904745,nan
1741044332.6187942,0.4576382161006572,-0.04821878398885569,0.03450250236337632,-0.02554902604760182,nan
1741044332.6227,0.25279942988581666,-0.0767806520171648,0.040465220617074554,0.3624894353114084,nan
1741044332.626606,-0.07989693006187029,-0.127229576391417,0.002030562600553028,0.49139566656264105,nan
1741044332.630512,-0.336772934797502,-0.08851502158470338,-0.05380305532865135,0.3134270977867357,nan
1741044332.6344178,-0.37676878826571203,0.07369536589206341,-0.07684994694486977,-0.005782823918147696,nan
1741044332.6383238,-0.20844604799978675,0.26203568365083624,-0.035469493455071534,-0.23961075298210838,nan
1741044332.6422298,0.033476229247711264,0.3189534807917419,0.049718108670084624,-0.27504112005466025,nan
1741044332.6461356,0.19548639630933676,0.16622767054666393,0.11400950383002735,-0.1664175045567725,nan
1741044332.6500416,0.2090990633673222,-0.1117528328575649,0.09890432310232947,-0.044768145892201135,nan
1741044332.6539505,0.11590836897034193,-0.32114091226714286,0.004984642495690952,0.013528147412860748,nan
1741044332.6578565,0.009009585529752626,-0.310737035174735,-0.10049591447255304,0.03397102653646505,nan
1741044332.6617622,-0.04793875356120877,-0.09645542523293513,-0.13395182502503103,0.07791395796856787,nan
1741044332.6656682,-0.055259830724655866,0.1495759816462983,-0.06523276210580561,0.1481416445352327,nan
1741044332.669574,-0.04808060516777955,0.23965897233410563,0.053035279471524775,0.17278588743229017,nan
1741044332.67348,-0.04543807799896985,0.12389849751325772,0.12548344846092147,0.0865144458304828,nan
1741044332.677386,-0.03283569899080808,-0.07341490607131955,0.09293174066107755,-0.07905545277227262,nan
1741044332.6812918,0.007818212935241748,-0.16539428583852034,-0.016502609210812313,-0.20028589389198448,nan
1741044332.6851978,0.059352000165073394,-0.06653230404179947,-0.10973903733993758,-0.1718130407995258,nan
1741044332.6891036,0.07097815598311583,0.13206133085711805,-0.10742668069780009,-0.018298387603531373,nan
1741044332.6930096,0.0077985173466033255,0.2416794148188593,-0.011814873386698104,0.11235200734222557,nan
1741044332.6969156,-0.09860312406291054,0.14212300987294146,0.09550221987712147,0.08599918656144047,nan
1741044332.7008243,-0.15625929397026894,-0.10815412900966316,0.12447667312474034,-0.07366641214064114,nan
1741044332.7047303,-0.08521914854974384,-0.31416652192157124,0.05394000878006479,-0.18369663446065604,nan
1741044332.7086363,0.10026042989306115,-0.30510619170041287,-0.05281667047060319,-0.0698281206805902,nan
1741044332.712542,0.27738846325934635,-0.07798830338691454,-0.10714073513864583,0.23843136589087371,nan
1741044332.716448,0.29598476142883146,0.19774174109817363,-0.07423473186205348,0.48066846205788055,nan
1741044332.7203538,0.09975691089873909,0.31871431344682594,0.00022909061634211912,0.3691202565823443,nan
1741044332.7242599,-0.21104182383536987,0.2120568181503364,0.039869915847222104,-0.130075175538515,nan
1741044332.7281659,-0.4353941787857604,-0.012436875747190358,0.015413927947839643,-0.694420716130418,nan
1741044332.7320716,-0.411751181230714,-0.16372849532867462,-0.025811712466226135,-0.8542961780460572,nan
1741044332.7359776,-0.13739799539431324,-0.13475339893619592,-0.010543493406622275,-0.3796213311703824,nan
1741044332.7398834,0.22567712708941381,0.01133260880153902,0.07601747316046938,0.47384198743137074,nan
1741044332.7437894,0.462765226163244,0.10663325538676979,0.15701964752194053,1.0980870826524718,nan
1741044332.747698,0.4494004307293034,0.03642650433115624,0.1250381731861946,0.9842375594915559,nan
1741044332.751604,0.2193006590935542,-0.15000577107353721,-0.048836519946428826,0.14688833300872056,nan
1741044332.7555099,-0.08262710742296965,-0.27472348481172554,-0.2594425253254077,-0.8373250774587236,nan
1741044332.7594159,-0.3098781168386748,-0.1855414613652569,-0.33129714979157354,-1.2436257214663595,nan
1741044332.7633216,-0.3943073756528018,0.10143221677926226,-0.16373138637674955,-0.7594937192314914,nan
1741044332.7672276,-0.34575560017346724,0.3949215445452939,0.1629127368869787,0.25613773363861797,nan
1741044332.7711337,-0.19951305782816833,0.4689653370573739,0.422550138592573,1.0387549281163828,nan
1741044332.7750394,0.018916139950470687,0.2399402808834694,0.4095091818405183,1.0120340860450479,nan
1741044332.7789454,0.2747028829586537,-0.1615437464614382,0.10839396847988252,0.23771303609247693,nan
1741044332.7828512,0.48355798863065547,-0.48074563972609224,-0.27617316333578196,-0.6436177466669392,nan
1741044332.7867572,0.5187984095536821,-0.5193346059070741,-0.4668963549921588,-0.9353301217749884,nan
1741044332.7906632,0.2928856238410924,-0.2679119714717093,-0.328185288583104,-0.44551962170448695,nan
1741044332.7945716,-0.1418717245465083,0.10305730256509041,0.02539891216915665,0.3726817555280844,nan
1741044332.7984774,-0.5722404556195616,0.373764734500514,0.31936656455959095,0.8129073558715026,nan
1741044332.8023834,-0.7335164055790421,0.4195389236640727,0.3388154753037251,0.5102962587661172,nan
1741044332.8062894,-0.49121277651205053,0.26656285200107094,0.09841792884031698,-0.25751817992013937,nan
1741044332.8101952,0.040831544319642046,0.03812879656606202,-0.17783916317838014,-0.8127639826569347,nan
1741044332.8141012,0.5516360588245964,-0.14534118892487205,-0.25027398238768955,-0.6569909262586697,nan
1741044332.8180072,0.7340847635678546,-0.23037035406533293,-0.0675408351100169,0.10114171488664231,nan
1741044332.821913,0.4940702022453772,-0.22613429882508387,0.19187996616222378,0.8305315441303015,nan
1741044332.825819,0.010644051191172337,-0.16296623918487907,0.27672063646322015,0.9047391946354281,nan
1741044332.8297248,-0.3991903876267547,-0.06481453059139475,0.08516546013798645,0.23012176565406486,nan
1741044332.8336308,-0.5066470010645608,0.04564847116227511,-0.23846227670331563,-0.6670091217869342,nan
1741044332.8375368,-0.31568050281758797,0.1336653969001354,-0.4182990470934563,-1.0672070955853423,nan
1741044332.8414464,-0.0234911876876759,0.1623009912943705,-0.2789877381913243,-0.6441892291120834,nan
1741044332.8453524,0.1557344110795813,0.12367470759332432,0.10013343624260303,0.2726593028278057,nan
1741044332.8492582,0.1522019916566829,0.05547712602123442,0.4402318240715184,0.9696467834421189,nan
1741044332.8531642,0.06067779135025306,0.013535790572996198,0.48361520740383035,0.9225957001461932,nan
1741044332.8570702,0.021203122231052994,0.016990526415086193,0.19756407295517806,0.20118841468457532,nan
1741044332.860976,0.07966026440906661,0.02075617500986001,-0.2050492564829479,-0.6143804339745079,nan
1741044332.864882,0.15425087719537986,-0.04511757423523141,-0.43990169464706474,-0.9143579844658647,nan
1741044332.8687878,0.12947526437509882,-0.19294951311736577,-0.3709824341463364,-0.5312282638732049,nan
1741044332.8726938,-0.019033748857428947,-0.32948688781459506,-0.09623186694628663,0.1727480689601081,nan
1741044332.8765998,-0.19049636110981205,-0.30578278740232817,0.1593811757074333,0.6412019961871349,nan
1741044332.8805056,-0.2487838155454627,-0.04522035312082837,0.23750736766856514,0.575839968259623,nan
1741044332.8844116,-0.150274718278842,0.35299716972457723,0.15640336128297486,0.13023231417562262,nan
1741044332.888321,0.013689225903152902,0.6398326544249116,0.053449766962221285,-0.2826942256469217,nan
1741044332.892227,0.10345567824564214,0.5809413159496171,0.03121587772643922,-0.36502554255560127,nan
1741044332.896133,0.06643082075247911,0.14653218894162506,0.060209115539394946,-0.15516469191627716,nan
1741044332.9000387,-0.010673512293446827,-0.4287320136489714,0.028870902743989648,0.07203120610066159,nan
1741044332.9039447,0.009379096556574132,-0.7843870547986419,-0.11480546507075295,0.09753576902915678,nan
1741044332.9078505,0.16219611085485927,-0.6840716257956629,-0.27761087576344,-0.04330596244363241,nan
1741044332.9117565,0.3149438719767636,-0.19050242337610748,-0.28858003129261245,-0.13054848994634022,nan
1741044332.9156625,0.26657015232088077,0.37408718321689627,-0.06800885740955709,-0.009400493079073417,nan
1741044332.9195683,-0.056898829171284936,0.6583787953734257,0.2620321140930965,0.2344478656408602,nan
1741044332.9234743,-0.4869393708029066,0.5286564010402126,0.44694889324532994,0.3483012945175467,nan
1741044332.9273803,-0.7022441698083752,0.1433312901141756,0.3097519009640046,0.16499453639094205,nan
1741044332.931286,-0.4765722422849599,-0.19516451700204385,-0.0764696786391139,-0.21118485500787657,nan
1741044332.9351954,0.11200853488403549,-0.283538823565093,-0.41853054500766507,-0.4727583476970238,nan
1741044332.9391012,0.6972576394551314,-0.1568998434682418,-0.4326801210699396,-0.3804314746770598,nan
1741044332.9430072,0.8779259287409604,-0.018938804676048367,-0.08981647429945568,0.009955058569892122,nan
1741044332.9469132,0.5196566324397532,-0.036488614488288156,0.3386032232333719,0.3809144113010088,nan
1741044332.950819,-0.1359876537314485,-0.1836321794065338,0.4908271154476675,0.42781199817217136,nan
1741044332.954725,-0.6496064323109936,-0.2713016720613688,0.21800119083990557,0.13009215554756973,nan
1741044332.958631,-0.7115566158614286,-0.13244873642542265,-0.27489179413586584,-0.22986390000294857,nan
1741044332.9625368,-0.35840513111057526,0.20503303622143948,-0.5811041161922699,-0.32366896797111366,nan
1741044332.9664428,0.09042820050302512,0.5154911361511465,-0.423779748717802,-0.07936314535014764,nan
1741044332.9703486,0.31215050460426264,0.551735635643191,0.10478707821183712,0.2491398828908041,nan
1741044332.9742546,0.23549903026469568,0.2515115052746613,0.6013158542240453,0.3165251419332467,nan
1741044332.9781606,0.059251961759213226,-0.2030380118803629,0.6688860129867253,0.015963899456168495,nan
1741044332.9820697,0.0321273189962455,-0.5243115852726297,0.23747867946211904,-0.40017086814038577,nan
1741044332.9859755,0.2006515755387215,-0.5379743367977604,-0.37550543150144283,-0.5317806516296067,nan
1741044332.9898815,0.35742783749616147,-0.2975608308370124,-0.7153557630012617,-0.19605322340270812,nan
1741044332.9937875,0.2412181934994038,-0.006780103874466627,-0.545936118166166,0.38203552151336806,nan
1741044332.9976933,-0.18991298918925986,0.1682893962868641,-0.02242886189952461,0.7371801881717363,nan
1741044333.0015993,-0.6664415206590028,0.2225249520231736,0.45149464887841934,0.5559447481059492,nan
1741044333.005505,-0.7990227187337808,0.2639914507790418,0.552147937921798,-0.04640715669257811,nan
1741044333.009411,-0.40596882846493404,0.35397269579105756,0.2741796335866815,-0.6116813182979829,nan
1741044333.013317,0.3028328872379427,0.4035530412798166,-0.1070247164488285,-0.7182049205135843,nan
1741044333.017223,0.8564074850129462,0.2445690278782929,-0.29347326491287024,-0.32540136866880065,nan
1741044333.021129,0.8760375485249885,-0.1774208101474774,-0.20698504332345985,0.21432573361619703,nan
1741044333.025035,0.3667342175570035,-0.6738900868714471,-0.012175989356875394,0.4778970602749168,nan
1741044333.0289438,-0.2931356039414715,-0.8986934116038977,0.07578293624753733,0.33312476890206416,nan
1741044333.0328498,-0.6548791348919252,-0.6126501389995026,0.00255070942455861,0.016504063751998276,nan
1741044333.0367556,-0.5429355402811988,0.0854707613821395,-0.09490439415059418,-0.12943073911921743,nan
1741044333.0406616,-0.15732595204353042,0.7765899377743395,-0.05671577049120265,0.0007634182180980744,nan
1741044333.0445673,0.13676631628553537,1.0086741090901372,0.10987467896135944,0.1842459759494802,nan
1741044333.0484734,0.13688764616209487,0.6403669289410482,0.21932320370680736,0.11953227981670157,nan
1741044333.0523794,-0.040482165297086294,-0.04203755934137901,0.10080164047046895,-0.2292144660972644,nan
1741044333.0562851,-0.10476808635899292,-0.5460243211973992,-0.19019650885828407,-0.5461800291584223,nan
1741044333.0601912,0.10493291053604233,-0.5638015820728851,-0.3692509141264571,-0.4517577900152675,nan
1741044333.064097,0.4418050044606763,-0.21060820059376187,-0.17363426592358566,0.09177679144484616,nan
1741044333.068003,0.5695843449183884,0.09621159192303369,0.34237355469376435,0.6634667281349254,nan
1741044333.071909,0.2769459008815866,0.023372749597240554,0.760357498059604,0.7223111448818038,nan
1741044333.0758176,-0.29783060812665857,-0.3567209029541559,0.6040822137045592,0.13156504434061803,nan
1741044333.0797236,-0.7477369638607003,-0.6010453014173387,-0.2150173344539202,-0.6281451273661831,nan
1741044333.0836296,-0.7291258083419425,-0.2848197191707453,-1.199767906442097,-0.8231870934917374,nan
1741044333.0875354,-0.25846125205562626,0.5717486271925051,-1.5501499924807605,-0.15002629177299373,nan
1741044333.0914414,0.29475781051920946,1.4164416471721042,-0.7751730884416649,0.8755367263196198,nan
1741044333.0953472,0.524562588982129,1.5361119993776444,0.8278084000800743,1.2554433627852695,nan
1741044333.0992532,0.3398356516042729,0.6241910700851688,2.2464009669052847,0.38463435614281816,nan
1741044333.1031592,0.031547740540168574,-0.9046479002517762,2.4035754910363956,-1.2660220184821158,nan
1741044333.107065,-0.01782476780635199,-2.129730466331034,0.9521718605067626,-2.337799436008404,nan
1741044333.110971,0.2717150815722416,-2.2395204833817344,-1.3747586786818753,-1.6365272831822761,nan
1741044333.1148767,0.5517193867478927,-1.0980137479389773,-3.156881436973708,0.7442157275124742,nan
1741044333.1187828,0.3416978178770078,0.6572970637801532,-3.191093259272719,3.2183083128245245,nan
1741044333.1226914,-0.4790250765097857,2.048932792027358,-1.2990286544953473,3.7596618134377433,nan
1741044333.1265974,-1.425130289754416,2.3888157118336055,1.5129340249928902,1.5140090889891336,nan
1741044333.1305032,-1.6833681808695882,1.6445816724187567,3.6466995430485714,-2.303007457813634,nan
1741044333.1344092,-0.7602445594354277,0.3233733609782735,3.8631900361737617,-5.0618883588728005,nan
1741044333.138315,1.0059927720740207,-0.9556395757109057,1.9902488191988181,-4.586788988298739,nan
1741044333.142221,2.5302727013961097,-1.8160203983117607,-1.01115035918672,-0.8711961085519121,nan
1741044333.146127,2.6841141710631398,-2.153572183444245,-3.5976189822220377,3.72348486917611,nan
1741044333.1500328,1.1366626767423191,-1.92698518523154,-4.447850775799862,6.05453877983912,nan
1741044333.1539388,-1.3049042398689452,-1.0245624178388384,-3.0931090828171564,4.455876114705139,nan
1741044333.1578448,-3.1562969095052376,0.5765425431729738,-0.11645874389389432,-0.020656314867486675,nan
1741044333.1617506,-3.228606236546989,2.4836730461991974,3.106044458725838,-4.341814892041707,nan
1741044333.1656566,-1.431058021472502,3.7816711066664417,4.993859277914643,-5.6734680310197145,nan
1741044333.169565,1.1645673779593868,3.4350463749683033,4.476787654518075,-3.36930443595497,nan
1741044333.173471,3.0333522973794382,1.058339949632221,1.57746806239963,0.7061877254624884,nan
1741044333.1773767,3.16869523667061,-2.504686109785828,-2.4305789734854524,3.694418000208908,nan
1741044333.1812828,1.6495199737069286,-5.3661968128404345,-5.494747226517925,3.8654260902151014,nan
1741044333.1851885,-0.5316671830911288,-5.628188310410944,-5.804869395798421,1.7078120406953583,nan
1741044333.1890945,-2.1759442400568694,-2.6799205477964883,-2.894476552606848,-0.7599299316666014,nan
1741044333.1930006,-2.58342567844728,2.15361745993319,1.8647507337260198,-1.7615091168515273,nan
1741044333.1969063,-1.812528962592275,6.193483041334295,5.84242471167255,-1.109864785400479,nan
1741044333.2008123,-0.43963717368718275,6.980345841199838,6.631959935876351,-0.07165341908589938,nan
1741044333.204718,0.8837297453883206,3.8621691999538306,3.5909893151794927,0.007986193656335041,nan
1741044333.2086241,1.7280269211071408,-1.4812505560872562,-1.597869173922702,-0.9643317422044313,nan
1741044333.2125301,1.9168708206604077,-5.992999463572009,-5.845968431894788,-1.7431877133229954,nan
1741044333.2164397,1.4316395034965657,-7.1003723680095705,-6.573997756748994,-0.9762776226706429,nan
1741044333.2203457,0.3845255236151277,-4.283657832752915,-3.3899176512722082,1.356267641139638,nan
1741044333.2242515,-0.9094516027351778,0.6624742180401771,1.6322998392852666,3.6322158845676884,nan
1741044333.2281575,-1.9179456387951708,4.816712996325968,5.315792703990308,3.7961179527817253,nan
1741044333.2320633,-2.0891621920683088,5.954846345090644,5.480672196188882,1.1449221497278912,nan
1741044333.2359693,-1.2093858206073687,3.815391555247581,2.335133707306479,-2.8287490591963014,nan
1741044333.2398753,0.34819628428989163,0.045210653549147356,-1.7964318241006594,-5.354614038556045,nan
1741044333.243781,1.7461573609393084,-3.023695784051493,-4.1749925739966125,-4.44898223430461,nan
1741044333.247687,2.174687408103451,-3.8680731043779266,-3.529279282575148,-0.5191682579468869,nan
1741044333.251593,1.392851790274178,-2.5526947711104038,-0.7794333205999602,3.806090677086189,nan
1741044333.255499,-0.08905077484910866,-0.38808295372453805,1.844160919538931,5.560738847459282,nan
1741044333.259405,-1.3492748794287133,1.148976208502853,2.53927175470359,3.6184848828832625,nan
1741044333.2633142,-1.6810170213652547,1.4039594138446272,1.1894527724304413,-0.5092973227848948,nan
1741044333.2672203,-1.0420429696043876,0.7867674913810461,-0.7572901741507185,-3.8563030353003103,nan
1741044333.2711263,-0.002650757282117682,0.21685123215067573,-1.5886212763320426,-4.226690066814175,nan
1741044333.275032,0.7353216605368069,0.2897470583380634,-0.7169809496181098,-1.7407774105962464,nan
1741044333.278938,0.8455993820705033,0.8207095577423514,0.9350123195713137,1.4430149972858939,nan
1741044333.2828438,0.5169142180060272,1.0731974668432758,1.7966737275727818,2.9204141387701545,nan
1741044333.2867498,0.16365759517751013,0.4415053625136945,1.0019909932451754,1.8805876737006229,nan
1741044333.2906559,0.011748096033728344,-0.969594589601763,-0.8821319082304885,-0.4334612425359855,nan
1741044333.2945616,-0.0545236424366411,-2.322324252819799,-2.3241790425304116,-1.9091915272717033,nan
1741044333.2984676,-0.26593554150262805,-2.60605580897677,-2.0847974543760506,-1.3472366262548574,nan
1741044333.3023736,-0.614346996552599,-1.3766590425900553,-0.23208410877488536,0.6183877892261777,nan
1741044333.3062794,-0.75672281929581,0.8558374325395945,1.895023662434933,2.1524177307545,nan
1741044333.3101888,-0.32411732183652253,2.8745762034209354,2.7275708451231613,1.80884925459167,nan
1741044333.3140948,0.6233529466500484,3.4864114755264906,1.6708847840387933,-0.2574401741720268,nan
1741044333.3180006,1.4535759688639904,2.2629517335637757,-0.4702267958249731,-2.4276333478483676,nan
1741044333.3219066,1.3678744589054073,-0.1807433085891187,-2.1449315068878025,-2.944687036782302,nan
1741044333.3258126,0.10329167060628815,-2.5384210510409817,-2.238416003870627,-1.320615748122983,nan
1741044333.3297184,-1.656986823691662,-3.5670440980354714,-0.8534365129329512,1.2971259434179614,nan
1741044333.3336244,-2.609860644167037,-2.7794739993124007,0.8736127597363882,3.0429032357595442,nan
1741044333.3375301,-1.7728211088048953,-0.6738731889520042,1.7076789329744528,2.7538441754143435,nan
1741044333.3414361,0.6377417825608743,1.6016778172492727,1.227678084487053,0.7707813321611057,nan
1741044333.3453422,3.1306389959098766,2.9137787795786863,0.026888208437861265,-1.4417426840787428,nan
1741044333.349248,3.8630269624738944,2.7337931569208997,-0.8759455677084568,-2.459561700647288,nan
1741044333.353154,1.9839406674033189,1.3349299492670637,-0.8729100521433216,-1.8864353862115981,nan
1741044333.357063,-1.5852593755846776,-0.46077181612940604,-0.17208282018905316,-0.4465020417217964,nan
1741044333.360969,-4.593060351052178,-1.780964110983256,0.4950421934722907,0.7572592857831436,nan
1741044333.364875,-4.9195899046161875,-2.1365076405321664,0.5469763684707238,1.1166346512316625,nan
1741044333.3687809,-2.077547705956569,-1.5709664414893028,0.01774448925399398,0.8205327471826851,nan
1741044333.3726869,2.3255231837512484,-0.5102480402274272,-0.5437066408512479,0.45139849151399225,nan
1741044333.3765926,5.5509634961186665,0.5315343593224737,-0.5981844764045674,0.34738143006796446,nan
1741044333.3804986,5.5065341458178825,1.1937311897722778,-0.08598303007854417,0.33388801805141877,nan
1741044333.3844047,2.1370004361355694,1.351472534956561,0.5485829540818177,0.021717974346731953,nan
1741044333.3883104,-2.5207624135600524,1.0626183913290086,0.763292424897691,-0.6733426220659137,nan
1741044333.3922164,-5.651205853234336,0.4764801225720368,0.381335435824167,-1.323538468911149,nan
1741044333.3961222,-5.448094933840283,-0.22041728949451972,-0.2800973731947597,-1.316929585744632,nan
1741044333.4000282,-2.191531879383254,-0.8205776958690618,-0.6982200453255366,-0.43203930329632967,nan
1741044333.4039333,2.0479963819736575,-1.1227550948259715,-0.5792818147958317,0.8710574454083082,nan
1741044333.4078393,4.799638621384475,-1.0013404226958014,-0.07031450983222728,1.734927235119874,nan
1741044333.4117453,4.7047570445498215,-0.487430415755967,0.40402780720709924,1.552828743596881,nan
1741044333.415651,2.187194242803091,0.20943716744088073,0.507783743376176,0.44643504590558786,nan
1741044333.419557,-1.04124488329117,0.7837254492672924,0.24166393857447135,-0.8238545089854998,nan
1741044333.4234629,-3.1770049348948346,0.9883672761384812,-0.11485060357215837,-1.4396640515373882,nan
1741044333.4273689,-3.372719654585764,0.7658004554839518,-0.2776034072584521,-1.1195028955362485,nan
1741044333.431275,-2.0102659403595964,0.2674478792441205,-0.1877182896807313,-0.25872781581026033,nan
1741044333.4351807,-0.176377718974304,-0.24959399353727812,-0.008759948997125382,0.4596691575150652,nan
1741044333.4390867,1.1580490339406795,-0.5734143581838048,0.06999788664162433,0.6237517466719678,nan
1741044333.4429924,1.655288632689788,-0.6330971682762032,0.017252607634558142,0.35296186290292625,nan
1741044333.4468985,1.5547098839582907,-0.4882319083593075,-0.0404151577344859,0.08172279529592054,nan
1741044333.4508073,1.2341431324051964,-0.24554227996482003,0.017661253084028713,0.10623537530132815,nan
1741044333.454713,0.8228502872711928,0.016568981475180773,0.15702195407059744,0.3172713932502308,nan
1741044333.458619,0.17955552557475474,0.2599042596731501,0.21050103205419518,0.34595426429835047,nan
1741044333.462525,-0.7992429074273729,0.44801828382627307,0.05482141244277836,-0.0347360443212846,nan
1741044333.466431,-1.8617871175798761,0.5182230990724686,-0.23427124789746795,-0.6377053285701815,nan
1741044333.470337,-2.4026238770674158,0.4086482314014081,-0.4132722463692501,-0.9801147122335231,nan
1741044333.4742427,-1.846224058304221,0.12277112920510391,-0.28040068367072946,-0.69775603546763,nan
1741044333.4781487,-0.14904646808622263,-0.23355155058515145,0.12060317688507888,0.10880522305224614,nan
1741044333.4820545,1.9795789239531385,-0.4926085729046466,0.4982176258406515,0.9079752258038143,nan
1741044333.4859605,3.372290491492093,-0.5260359252512732,0.5371649506496844,1.1370319190272762,nan
1741044333.4898665,3.090058053148696,-0.33090936343139715,0.16812884626708424,0.6408121820128713,nan
1741044333.4937723,1.0730730078690562,-0.02980157952721752,-0.35161684000727217,-0.2113456857953292,nan
1741044333.497681,-1.6977026445524006,0.21778669352017013,-0.6291157282127333,-0.8205902000349224,nan
1741044333.501587,-3.6948343804409256,0.3216977515350207,-0.44906437190096504,-0.8168896523088552,nan
1741044333.5054927,-3.7352165323069952,0.300731086471094,0.049660324891370386,-0.3101548623485471,nan
1741044333.5093987,-1.7236763979973933,0.23101074257565976,0.48377186694134067,0.24911886525660476,nan
1741044333.5133045,1.2365118847993566,0.15895758404865404,0.5326340094599007,0.4565902117607052,nan
1741044333.5172105,3.4698650906776995,0.06348319181640445,0.18922521027082143,0.25717207932133557,nan
1741044333.5211165,3.72494102793929,-0.09768313355201444,-0.24906747302952353,-0.06956118835158615,nan
1741044333.5250223,1.9230683698411823,-0.30610283669671695,-0.43445059845922024,-0.19412185512688576,nan
1741044333.5289283,-0.8138125979738182,-0.4534291601663172,-0.25027636504510925,-0.02617410913409703,nan
1741044333.5328343,-2.872903249704264,-0.4089591055210751,0.11189200057485622,0.23542222528612106,nan
1741044333.53674,-3.1411153355940598,-0.13625922237511512,0.33232313068929736,0.30977377397131767,nan
1741044333.540646,-1.6443927796614553,0.24479990712126593,0.2367537879561329,0.09551304717459659,nan
1741044333.5445516,0.5546713825013141,0.5185676171417365,-0.06932657714142261,-0.24505351165004388,nan
1741044333.5484576,2.09686666099945,0.5220559715680047,-0.309081443058299,-0.4384164446535653,nan
1741044333.5523634,2.1894901370720223,0.26524495544274884,-0.27889251251940333,-0.338395601307835,nan
1741044333.5562694,1.027470115360692,-0.07781406562865759,-0.014345513343063216,-0.037750555763901794,nan
1741044333.5601754,-0.46131171563629153,-0.3034782456749693,0.25685979475111925,0.23207208738145582,nan
1741044333.5640812,-1.3114309316099169,-0.3282132956827316,0.3196399556116996,0.30589730359608963,nan
1741044333.5679872,-1.1459298515907923,-0.22879308848677973,0.14796301770561787,0.2052177339858611,nan
1741044333.571893,-0.3209639750637414,-0.14316913907471382,-0.09489982443969254,0.07771018761933135,nan
1741044333.575799,0.44694216983541146,-0.12621724971768278,-0.216525728974099,0.03225393996185079,nan
1741044333.579705,0.6418946197015732,-0.09733532519312586,-0.16133327138584264,0.036546193867594154,nan
1741044333.5836108,0.2752867434786954,0.06471490052540717,-0.03499410338136004,-0.02603327908042993,nan
1741044333.5875168,-0.22302390248783288,0.3631242242844314,0.021362781240881284,-0.20338071972540928,nan
1741044333.5914226,-0.4060326842545042,0.6160686781320619,-0.02309591825208563,-0.3851209056750519,nan
1741044333.5953283,-0.16108370786220133,0.569803345569768,-0.06560697863735308,-0.37845626782180086,nan
1741044333.5992343,0.2500231310462511,0.12133011438513729,0.010707880230843866,-0.09226050679665088,nan
1741044333.60314,0.4527225950007599,-0.5353154278117418,0.19444205683005047,0.3401117202191063,nan
1741044333.6070461,0.2797910455466265,-0.9881052064704788,0.32679732581103954,0.6271918897272276,nan
1741044333.6109521,-0.11188431254890091,-0.886187930646725,0.23798368500311376,0.5390178083367029,nan
1741044333.614858,-0.3994285782994649,-0.21931732337761417,-0.07915872095607368,0.10217232211851987,nan
1741044333.618764,-0.37078044203749455,0.6281901732489469,-0.42337904578950863,-0.39915819060088736,nan
1741044333.6226697,-0.08419408911986914,1.1164126055012364,-0.5267085918191905,-0.6286674381277156,nan
1741044333.6265757,0.20700233394883502,0.922854803325059,-0.2753780928407232,-0.44953973390454466,nan
1741044333.6304817,0.27938971786007905,0.17597940741430365,0.17857585156848993,-0.020729256533062474,nan
1741044333.6343875,0.11545169986089755,-0.6297668212915554,0.5198133517184673,0.33692758175956783,nan
1741044333.638297,-0.10812202436385167,-0.979797504541388,0.5110510318104423,0.39219371238296075,nan
1741044333.6422029,-0.19004549410634927,-0.6923276203521932,0.1767492751703802,0.16866263504373982,nan
1741044333.6461089,-0.07466867290128028,-0.02208890562973225,-0.2227684377802805,-0.10201755250200109,nan
1741044333.6500149,0.11861801341311462,0.5495388157299244,-0.40390857248880935,-0.18732650847785823,nan
1741044333.6539207,0.21559610844802912,0.667495732437464,-0.2805710653824776,-0.0433172151897951,nan
1741044333.6578267,0.13907308715418998,0.33284973386152494,-0.011381328929132599,0.16600559300803647,nan
1741044333.6617324,-0.039360413696326015,-0.14601781327979432,0.15721803786791966,0.22307756754522096,nan
1741044333.6656384,-0.17898482630673634,-0.4156325134699438,0.10868824362799401,0.046608205335238385,nan
1741044333.6695445,-0.19527996218324542,-0.3348510729486204,-0.05514583680917773,-0.2408535955479473,nan
1741044333.6734502,-0.11554739772835229,-0.03744005092652433,-0.12622686982186,-0.4148946709272001,nan
1741044333.6773562,-0.025839791737005492,0.21843566920264487,0.004035180661901469,-0.3279967028889748,nan
1741044333.681262,0.025073281151246317,0.26542466279513643,0.23378620924102775,-0.019165591152315597,nan
1741044333.6851714,0.06445225862836962,0.12933542469432455,0.33657724295136,0.3229360360259243,nan
1741044333.6890774,0.14109805663878114,-0.04155363039273236,0.16940663890915766,0.49883296211588507,nan
1741044333.6929832,0.23977077290418353,-0.12879355433692938,-0.1828343758805807,0.42391946046150414,nan
1741044333.6968892,0.2625539224272152,-0.13140451274466247,-0.4595649484668834,0.156184847773455,nan
1741044333.7007952,0.11220548531716452,-0.12185204356507139,-0.4352887061911103,-0.16810954284890073,nan
1741044333.704701,-0.19175745599452168,-0.13466662036661367,-0.11071793053393916,-0.41903200916487543,nan
1741044333.708607,-0.4794926418662134,-0.11254599329717965,0.2804213777526867,-0.5154596634869619,nan
1741044333.7125127,-0.5332766960396029,0.02830463846784773,0.45727915582055667,-0.4232420587950224,nan
1741044333.7164187,-0.25880363088148184,0.27630775665712154,0.31473747044652955,-0.15040199050943798,nan
1741044333.7203248,0.21464399525569292,0.47584871132201617,-0.002919515099527105,0.2344432720146442,nan
1741044333.7242305,0.6000844011828674,0.42415355029626,-0.23496422245591192,0.5855084552563876,nan
1741044333.7281365,0.6480953892123876,0.05110369012764711,-0.22532520862266905,0.7157935154504582,nan
1741044333.7320457,0.3255939252974387,-0.47221580712229366,-0.04174956902443189,0.49925826463710715,nan
1741044333.7359517,-0.1605118217589815,-0.8103573011412729,0.1043127715481904,-0.018799987675830167,nan
1741044333.7398574,-0.5128444475548816,-0.6926474370266115,0.05980898447671818,-0.5977410999661956,nan
1741044333.7437634,-0.5490807099361231,-0.1276438559801526,-0.12756633571489137,-0.9135766435458749,nan
1741044333.7476692,-0.307555532449701,0.5691160845497519,-0.25319094230778505,-0.7550533736048112,nan
1741044333.7515752,0.015919115075539666,0.9707698206933967,-0.1465849676565662,-0.17445207587018804,nan
1741044333.7554812,0.23203528004056928,0.823952806935465,0.15995194354806216,0.5206075884910257,nan
1741044333.759387,0.2829671275474469,0.21798441625552917,0.4374014019814448,0.9427067416123063,nan
1741044333.763293,0.2371543243994941,-0.4806856652973879,0.44267371505490505,0.857567203041706,nan
1741044333.767199,0.1827253754290158,-0.8745216816055704,0.1262593329968242,0.3225451079908645,nan
1741044333.7711048,0.13234758551408946,-0.7815800457670838,-0.31137285381060703,-0.3559216100378404,nan
1741044333.7750108,0.029283960313585263,-0.3173049245237447,-0.5658528756590128,-0.8104869267558155,nan
1741044333.7789197,-0.1592545054960689,0.22124467841094753,-0.460565509885544,-0.8215009084745628,nan
1741044333.7828257,-0.3623880595123064,0.5607465357738606,-0.07748387198834662,-0.4214888405001427,nan
1741044333.7867315,-0.43048111155880237,0.5957315183739047,0.31388854520527426,0.15013076506697956,nan
1741044333.7906375,-0.2573660859416259,0.3937832041454141,0.46508742975037065,0.5943840760134907,nan
1741044333.7945435,0.10475972236197556,0.09909370767727171,0.3240531650673148,0.707901775935732,nan
1741044333.7984493,0.44843778897595415,-0.16738171474796706,0.04422894820242624,0.4682637645604134,nan
1741044333.8023553,0.547402257147107,-0.3428506581930138,-0.16251747180855394,0.02346235060058449,nan
1741044333.806261,0.3255744186592241,-0.400948993473743,-0.1946737466393989,-0.39327895210529445,nan
1741044333.810167,-0.07768496771848901,-0.3286489872742661,-0.11319725781602909,-0.5784251909202177,nan
1741044333.814073,-0.40336717218592033,-0.13764440092454794,-0.049937574869578304,-0.4541072816420124,nan
1741044333.8179789,-0.457832673743213,0.10915508630905763,-0.06983980974180244,-0.10419346432263671,nan
1741044333.8218849,-0.2438049438772827,0.3038393269632726,-0.1151016281782528,0.2703531134681446,nan
1741044333.8257937,0.06038904257413767,0.3507679532744239,-0.07611067782244704,0.4615952511325737,nan
1741044333.8296995,0.24790134655450402,0.23574264367238626,0.0840669795545691,0.3742723389819715,nan
1741044333.8336055,0.2338131842762759,0.04300116103764397,0.2721028684631853,0.08219500685170503,nan
1741044333.8375113,0.0929752878957753,-0.10557726558214901,0.3315312807338898,-0.22073468517872005,nan
1741044333.8414173,-0.030401867097667314,-0.14420376743083954,0.17853735559662934,-0.3486040922797068,nan
1741044333.8453233,-0.051866582820390625,-0.10894970239102622,-0.11299078869889319,-0.2448294507664579,nan
1741044333.849229,-0.0029212457085106107,-0.0918483309718764,-0.3545885790717971,-0.010260679809257059,nan
1741044333.853135,0.023545996373411163,-0.141705094353646,-0.3827901498704721,0.18160209461459087,nan
1741044333.857041,-0.023536831893829907,-0.2034110723715341,-0.18210517456891762,0.21561987076613295,nan
1741044333.860947,-0.10153934294381195,-0.15953004221215578,0.10670246814086214,0.10976718006549538,nan
1741044333.864853,-0.11962896997248114,0.05273809232337702,0.29560913634121266,-0.021554223209863062,nan
1741044333.8687587,-0.03469790122573664,0.3512105233311619,0.2849049474978516,-0.07725406845672757,nan
1741044333.8726673,0.09612032657042284,0.5362060681464336,0.12029087037036856,-0.053256039548314454,nan
1741044333.8765733,0.15943895797725663,0.432242580511832,-0.06269931077058678,-0.027139900429310932,nan
1741044333.8804793,0.08903449197555241,0.038490218858964115,-0.1498233769360919,-0.06254219079237723,nan
1741044333.884385,-0.06566319121304551,-0.4376690703250644,-0.12217034120015137,-0.128508188846835,nan
1741044333.8882911,-0.1723611045087126,-0.7048383621117625,-0.04367584033974415,-0.11862499522650723,nan
1741044333.892197,-0.12711584496529402,-0.5858902717672536,0.010447948621377361,0.03788027318215432,nan
1741044333.896103,0.050460061743910954,-0.1438584430213148,0.014540436309535101,0.2746476571916293,nan
1741044333.900009,0.22258126480059087,0.35912528572895563,-0.004403854962623796,0.40396728302734886,nan
1741044333.9039147,0.23993942237061502,0.6382723265294942,-0.009463080391817721,0.26077270996884067,nan
1741044333.9078207,0.06414271360880719,0.5668278019843012,0.007455250318176377,-0.13519193823214748,nan
1741044333.9117265,-0.19434894973618158,0.23449439745574702,0.026557088753490714,-0.5454104287568907,nan
1741044333.9156325,-0.3544806241627103,-0.14277903233635578,0.030861617702042977,-0.6617453479238535,nan
1741044333.919541,-0.29723382993945213,-0.37705686710019826,0.02737032877244294,-0.34134049487476903,nan
1741044333.923447,-0.05002320523414213,-0.40823495822110367,0.03412854553785672,0.25610218467229645,nan
1741044333.927353,0.2371531265307556,-0.29273032496777535,0.049362642900263945,0.7514496899946711,nan
1741044333.9312587,0.3974784875459072,-0.12063999014930403,0.041731663162595474,0.8045179326731721,nan
1741044333.9351647,0.3511758059029138,0.05196607795267545,-0.019592559418296462,0.35994247143341684,nan
1741044333.9390705,0.13753060985121193,0.20421989624883657,-0.12060533785942243,-0.3061498219526109,nan
1741044333.9429765,-0.1301089750847453,0.3090874681646492,-0.19224057538360598,-0.7764686795716546,nan
1741044333.9468825,-0.33595734596754157,0.3144225283237942,-0.1567834466747362,-0.7777564177679659,nan
1741044333.9507883,-0.40692211544638746,0.18090486116096788,0.0007490869011086732,-0.3508207262833796,nan
1741044333.9546943,-0.31928956519156315,-0.0573490764835771,0.19977127067238293,0.20873227227594232,nan
1741044333.9586003,-0.09271514897503542,-0.2799395450137277,0.30853607569008934,0.5747582100430577,nan
1741044333.962506,0.20555316876715193,-0.3491830865692078,0.23976506037873874,0.5994983801146673,nan
1741044333.966416,0.4576518852301468,-0.21620560856903734,0.022736427956125963,0.36086249364434864,nan
1741044333.970322,0.5265724933631368,0.02741566710807569,-0.20996838725078315,0.046151930662057486,nan
1741044333.9742277,0.3322303889276105,0.208764218518794,-0.3153003138721004,-0.20267093093571392,nan
1741044333.9781337,-0.07047045926149263,0.20640576784482847,-0.24053764582981577,-0.3508621438597971,nan
1741044333.9820395,-0.48322029267251426,0.04935640233659445,-0.053282067647580644,-0.4155050438733668,nan
1741044333.9859455,-0.6620911410513647,-0.10597474004251495,0.1194310275526763,-0.3824075739217922,nan
1741044333.9898515,-0.47518102894325775,-0.10915074115840738,0.1886420888579254,-0.2004669781131157,nan
1741044333.9937572,-0.010140121917429138,0.04987932794689119,0.15703894653904452,0.1336532048175411,nan
1741044333.9976633,0.4605161468023528,0.2230095984184207,0.09105338754729549,0.4950331522234772,nan
1741044334.001569,0.6500295515302923,0.2262974407190209,0.04653532358871323,0.6628711441499321,nan
1741044334.005475,0.45066435655355463,0.004924853458033447,0.020339456447321446,0.47404862131356984,nan
1741044334.009381,0.008509517680872046,-0.3003883555382179,-0.02968601652161854,-0.019677950605956115,nan
1741044334.0132904,-0.37997211111196133,-0.45092165559191444,-0.12139788701121974,-0.5389371632700551,nan
1741044334.0171964,-0.4768521203514631,-0.30040012390789195,-0.20884898879315655,-0.7505272902477251,nan
1741044334.0211022,-0.26344698820960294,0.07593896873749989,-0.2110058259973288,-0.5098812837322346,nan
1741044334.0250082,0.06446708366732769,0.42469015617693207,-0.08682993489334229,0.019918113728297427,nan
1741044334.028914,0.2573720301098377,0.5027127381882851,0.11294078412196515,0.47925696554186087,nan
1741044334.03282,0.2009594429576838,0.2628329551196143,0.2703253725070021,0.576674658921241,nan
1741044334.036726,-0.011328562784358849,-0.1123831662603628,0.28618917896705465,0.30088284458959075,nan
1741044334.0406318,-0.17110509493198542,-0.3563603406265062,0.1557948109047463,-0.08900367817616482,nan
1741044334.0445378,-0.13171544311319694,-0.3255419207420417,-0.03146782119912706,-0.2851590391003074,nan
1741044334.0484438,0.0742932410698619,-0.10010947739668884,-0.16687067138443654,-0.18071907615211272,nan
1741044334.0523496,0.2669076114950126,0.10053638591804531,-0.2040953832024477,0.05896343857763534,nan
1741044334.0562556,0.26829493691228723,0.11262134723546731,-0.175931202126998,0.15941310865267508,nan
1741044334.060165,0.047934383953437965,-0.0329933122402173,-0.13667010545877445,-0.008023499986158948,nan
1741044334.0640707,-0.25023584139058963,-0.14597948529141705,-0.09303386127466837,-0.3007784366424504,nan
1741044334.0679767,-0.4155084309761715,-0.05636202153079438,0.0013231092283387423,-0.42164000047448924,nan
1741044334.0718825,-0.325809390755782,0.21548476581937248,0.175698106798909,-0.18307513900322592,nan
1741044334.0757885,-0.03300567244032677,0.44984217885419975,0.36617453869606625,0.3052384336604044,nan
1741044334.0796945,0.2792642101262144,0.3993082561047326,0.42339149576694085,0.6925473124668734,nan
1741044334.0836003,0.42489682557348313,0.0075569360224004446,0.22498579775639851,0.6535915843736001,nan
1741044334.0875063,0.33349408638391353,-0.5067442638541831,-0.19037521559891407,0.15521836352727386,nan
1741044334.091412,0.07932779447114002,-0.7832843483643831,-0.5933497531044507,-0.49411398784899996,nan
1741044334.095318,-0.18406027430400648,-0.5820845836961548,-0.695728643549392,-0.8586060020813061,nan
1741044334.099224,-0.32450998435556233,0.021931372967619694,-0.36601323709658573,-0.6908051231217551,nan
1741044334.1031299,-0.29731376331440407,0.6650804583560012,0.23745275356529913,-0.10759873265928425,nan
1741044334.1070392,-0.14636024193336322,0.9329873328193552,0.7395634756652687,0.5025506297783664,nan
1741044334.110945,0.04051823787285569,0.6436427124777288,0.7982721715614391,0.7614838624428875,nan
1741044334.114851,0.18167097121206574,-0.026157973076053102,0.3552664242245109,0.5550160189508198,nan
1741044334.118757,0.23046448627267466,-0.6593666349413877,-0.3054776226425113,0.07781812470050323,nan
1741044334.1226628,0.18153660275501987,-0.875871183663988,-0.7478476832638665,-0.3402275726200681,nan
1741044334.1265688,0.06535795575044093,-0.574407676267283,-0.6898276413408365,-0.47393335025924954,nan
