timestamps,TP9,AF7,AF8,TP10,Right AUX
1740797070.1129704,0.42388682355791213,0.27920126677083806,-0.3048580256736906,0.05545926666707956,nan
1740797070.1168761,0.2775531014695711,0.8249851029376456,-0.6456712020122554,0.23158349579338477,nan
1740797070.1207821,-0.10266270706699908,0.7487770015058979,-0.6657141279430218,0.29867497221467554,nan
1740797070.1246881,-0.32844842484028314,0.2843669105035009,-0.20136860809386728,0.22478681955068427,nan
1740797070.128594,-0.18314305403348127,-0.05665326167232389,0.4288871067564394,0.0847196805848892,nan
1740797070.1325,0.1639400176598555,-0.05509626245023202,0.680707520016592,-0.016139548925666186,nan
1740797070.1364057,0.3497870333075078,0.04480298753473514,0.3564344139041736,-0.04588596584019466,nan
1740797070.1403117,0.20026651654052133,-0.0873006249045632,-0.17535950330026676,-0.06037802950235024,nan
1740797070.1442175,-0.11042742869218768,-0.4311606947950793,-0.3863634551149091,-0.11644168274786913,nan
1740797070.1481235,-0.27563465266613113,-0.6372103439215051,-0.1502630868804268,-0.19140477052436655,nan
1740797070.1520295,-0.18455317893131398,-0.4462136613750816,0.1826553686760421,-0.20502359200055922,nan
1740797070.1559353,-0.00045169842961381224,0.016202752393110174,0.2391124477376776,-0.11491083934329167,nan
1740797070.1598434,0.06493481273780727,0.40174544291359576,0.030325750211015648,0.02972723247659019,nan
1740797070.1637495,-0.007710416395904773,0.5183902665441681,-0.14568471902005084,0.13756207640788548,nan
1740797070.1676555,-0.06227972419221163,0.4549065198795687,-0.11385920495179543,0.1655072800416247,nan
1740797070.1715612,0.011448631926972767,0.3496728178675882,-0.0028094301687179054,0.1445890488948932,nan
1740797070.1754673,0.13909183731060645,0.16962358600077027,-0.010837075688588401,0.12072853106366901,nan
1740797070.179373,0.1657919837179357,-0.1790556063698958,-0.11795920706702598,0.09312994672904411,nan
1740797070.183279,0.055455659790755785,-0.5743048695246817,-0.13155504244317964,0.028110356899841968,nan
1740797070.1871848,-0.06820302588375644,-0.6748240922460594,0.026294404878225763,-0.07537922437813087,nan
1740797070.1910908,-0.08043595268531314,-0.29383731812343794,0.19955383926884251,-0.15996010920134437,nan
1740797070.1949968,-0.005376685482814643,0.2859970824660097,0.20404771669557392,-0.16411207441633588,nan
1740797070.1989026,0.029267958979679008,0.5173999303993879,0.06497738906407936,-0.0927265180830089,nan
1740797070.2028086,-0.034929926302511745,0.1746685043838948,-0.037229812494036944,-0.015109124492321702,nan
1740797070.2067165,-0.11269321751548095,-0.3390993830970697,-0.022707537520145118,0.011169485741895507,nan
1740797070.2106225,-0.09179742025820566,-0.3850428530142548,-0.004280441857290285,0.00037976399690009115,nan
1740797070.2145283,0.014269576383600774,0.19167153474538706,-0.09129580876019927,0.010832089020346825,nan
1740797070.2184343,0.07841732485405221,0.822402564622981,-0.1959141977591385,0.06472488405789356,nan
1740797070.22234,0.02466127917871929,0.7788696656088253,-0.13758625742108274,0.11575663614751547,nan
1740797070.226246,-0.065418159393405,-0.03524147531282001,0.08194495558732359,0.10579352220820075,nan
1740797070.230152,-0.04658670907474111,-0.930957763965649,0.22701167963458155,0.040742931444113784,nan
1740797070.234058,0.10495474711463498,-1.108816308866085,0.11262506693317605,-0.010822570429075334,nan
1740797070.237964,0.24371019637973493,-0.45057219014915045,-0.13222509694255072,0.0002294749431607689,nan
1740797070.2418697,0.20980431149227832,0.40330771700256857,-0.19408049162671498,0.03846703558920551,nan
1740797070.2457757,0.007441578186721086,0.7364106447102772,0.031087591706514293,0.01885260404566309,nan
1740797070.2496815,-0.1997269473782805,0.4423312361058355,0.2787743978267821,-0.09166066822655805,nan
1740797070.2535894,-0.2637625115776381,0.011451750551654623,0.2225843431209737,-0.2210200720026985,nan
1740797070.2574952,-0.1901112973864135,-0.08299622021168462,-0.11439069402810487,-0.2521222754817335,nan
1740797070.2614012,-0.09005293827696013,0.12246892847286893,-0.3609263954861987,-0.13542618958893507,nan
1740797070.265307,-0.029669010601750888,0.21833054588528603,-0.22894861261819197,0.0632913443031246,nan
1740797070.269213,0.030250711293173194,-0.043019862703117376,0.1442060669036828,0.22443869806673467,nan
1740797070.2731187,0.14123631382517732,-0.4516498038258572,0.35587432417149617,0.2745010757652248,nan
1740797070.2770247,0.25813797068820954,-0.5876911366926657,0.19909263086507184,0.22468005391762486,nan
1740797070.2809308,0.2664868662434334,-0.28953181995998317,-0.12924458850743656,0.1277564362402289,nan
1740797070.2848365,0.11891878420109735,0.18451208449270107,-0.29190979264794953,0.01929910443189903,nan
1740797070.2887425,-0.08980881935680078,0.44164568072966937,-0.18975419256352072,-0.09212565810379436,nan
1740797070.2926483,-0.20801326786910335,0.3419574449870538,-0.00440408774891358,-0.19340159650519223,nan
1740797070.2965543,-0.1776429773123222,0.0851816258745164,0.08247714412492102,-0.2493312489109278,nan
1740797070.3004618,-0.07905490774472952,-0.042227942727119855,0.09056443816193871,-0.22608176408981795,nan
1740797070.3043678,-0.02743236064079757,0.041006653182678016,0.12764224178390027,-0.12525767823037767,nan
1740797070.3082736,-0.04865852803174763,0.16324901538029266,0.17832000164026085,0.012986054919785267,nan
1740797070.3121796,-0.07205386076148601,0.09975535925193393,0.12110399449593567,0.1377949901730248,nan
1740797070.3160856,-0.029343968260413102,-0.19541782093270843,-0.05790959439559951,0.21258778174229545,nan
1740797070.3199914,0.06770299152185907,-0.5262532528700424,-0.18957147343163636,0.21861335005062435,nan
1740797070.3238974,0.15225327311690334,-0.5985414359050018,-0.130607926198041,0.15307791592992345,nan
1740797070.3278031,0.17887852106295574,-0.2589722115470614,0.019301938825677323,0.03847559372962713,nan
1740797070.3317091,0.1523661050792757,0.34427013089418274,0.02176263956113115,-0.07237102312811494,nan
1740797070.3356152,0.09116931615150586,0.817848812142537,-0.1714002543760163,-0.12237944844189882,nan
1740797070.339521,-0.003591769299830423,0.7975552590602986,-0.3021302586998635,-0.09738318175415832,nan
1740797070.343427,-0.12424213293984489,0.25342988538689837,-0.10448993140444557,-0.044301246874877256,nan
1740797070.3473341,-0.2205921790181681,-0.44259666450985036,0.32664324019067387,-0.028484202127668192,nan
1740797070.3512402,-0.22313953617400512,-0.7919213866878706,0.5802195686669224,-0.06612533342835886,nan
1740797070.355146,-0.11694312776255884,-0.5775119732997283,0.3802072319197423,-0.10489224399438996,nan
1740797070.359052,0.023882780283721535,-0.035468609384445036,-0.08641953422736091,-0.07929168443018159,nan
1740797070.362958,0.09846001359159919,0.3775790314000955,-0.3735378447311701,0.016509487500576975,nan
1740797070.3668637,0.07945753972475333,0.39589571329731016,-0.2786334698865428,0.11866975959622478,nan
1740797070.3707697,0.037399626076380706,0.13595116333148635,-0.04273743591042624,0.15790779658487408,nan
1740797070.3746755,0.056471826308417496,-0.09079399879219514,-0.01629557994699672,0.12640441654948983,nan
1740797070.3785815,0.13510474480532975,-0.10849111476340623,-0.21315325214169736,0.07468331912275936,nan
1740797070.3824873,0.1841095884496534,-0.00020743221867541452,-0.3019683282162273,0.04696445047623067,nan
1740797070.3863933,0.12372161429919888,0.05815015999638563,-0.03641301896870634,0.03182569874558847,nan
1740797070.3902993,-0.030098854464634787,0.014264113517412344,0.41068144346299856,-0.01666512193334614,nan
1740797070.3942063,-0.18213195207703664,-0.04197828175888619,0.6152874163083955,-0.11454293495134238,nan
1740797070.3981123,-0.2495399347252201,-0.032491839191900976,0.3666702357689147,-0.21449552617996678,nan
1740797070.4020183,-0.2231789919557097,0.006730567676114866,-0.11386113803369781,-0.24048674079459534,nan
1740797070.405924,-0.1425143958721879,-0.003706625780056276,-0.42348959641388395,-0.1545517836112265,nan
1740797070.40983,-0.03514119414560757,-0.06156614035561127,-0.3770486210970947,0.00858382032184838,nan
1740797070.4137359,0.09579044882155141,-0.08080013621435554,-0.1193269237303459,0.16608229454462775,nan
1740797070.4176419,0.22810533473267758,-0.010038626375246263,0.09736930595532892,0.2436645499343092,nan
1740797070.4215477,0.29443654638310973,0.09290840872226495,0.15509064774674433,0.21879014065733976,nan
1740797070.4254537,0.22894166418660164,0.12796157577110154,0.08960172726008882,0.1251800225991239,nan
1740797070.4293597,0.045952172552069286,0.06711881309528554,-0.029092068978371303,0.022758610199287144,nan
1740797070.4332654,-0.1449667476988328,-0.029787005078721347,-0.14840473515572322,-0.04472385867353878,nan
1740797070.4371715,-0.22243332378140251,-0.0980278792198236,-0.19433013930571857,-0.07571031647640807,nan
1740797070.44108,-0.15897704391257939,-0.12124200698859774,-0.08502393201446502,-0.09972168554015616,nan
1740797070.4449859,-0.0402134243878737,-0.09454098908453709,0.16190973701896844,-0.13638635626753262,nan
1740797070.4488919,0.023558097879421334,0.009720311948874618,0.38080433988317486,-0.16426224395962374,nan
1740797070.4527977,0.0012243116137118893,0.18196221719612754,0.3873442051869257,-0.1376640068958642,nan
1740797070.4567037,-0.04511513358977174,0.2992723853787902,0.16441191695364035,-0.04094838938340278,nan
1740797070.4606097,-0.041124616848498365,0.193966329886187,-0.1234435981507956,0.07960125839986101,nan
1740797070.4645154,0.01931202878033715,-0.1433408447542192,-0.3107055478980861,0.15124141472154978,nan
1740797070.4684215,0.08005508913519017,-0.46459635856245834,-0.3779087256624443,0.14641240629359215,nan
1740797070.4723272,0.0968113035960775,-0.45661781914110317,-0.38589645285357727,0.10827267798175517,nan
1740797070.4762332,0.08466881357646071,-0.07395385819759016,-0.31550336939729684,0.09377012077793405,nan
1740797070.480139,0.08314509165614833,0.36413830721751783,-0.06853072975804432,0.09817895339198147,nan
1740797070.484045,0.08835091643623155,0.4727296333679979,0.3416505193832319,0.05733228311807912,nan
1740797070.4879534,0.04597331895712954,0.1995817595097054,0.676477217130007,-0.06476440246083484,nan
1740797070.4918594,-0.07526426503082051,-0.1263465938155655,0.6473945106961686,-0.2067237548376723,nan
1740797070.4957652,-0.21637864137465315,-0.16808639356899155,0.22376676190505795,-0.25483983496841334,nan
1740797070.4996712,-0.26093685097691965,0.04406436348050457,-0.29127622332025804,-0.1646754682861456,nan
1740797070.5035772,-0.14996492467784608,0.1701343576780655,-0.5359011254059829,-0.01808162925225008,nan
1740797070.507483,0.04402996233514568,-0.017028640349373264,-0.4208653480638455,0.06219032258977162,nan
1740797070.511389,0.17560643821844157,-0.3456939608609078,-0.15720346353379655,0.04943668990480212,nan
1740797070.5152948,0.16516252605281792,-0.43786656465657475,0.014924063662561405,0.0383341309014026,nan
1740797070.5192008,0.07035548668585143,-0.1536032546200361,0.05575010583126295,0.119638393201424,nan
1740797070.5231066,0.012044545406888244,0.2398677087005407,0.0729213220523847,0.24869924851828423,nan
1740797070.5270126,0.03875776607692549,0.37276386639766695,0.12022271330250317,0.272611192470926,nan
1740797070.5309186,0.08274849800066732,0.18836757519235803,0.13776427620500645,0.10061432632931742,nan
1740797070.5348268,0.053159453511166646,-0.017444696299694678,0.08464041111456128,-0.17260282983660882,nan
1740797070.5387325,-0.048874030938906896,0.03155780264385056,0.03593596979033379,-0.33980975551612796,nan
1740797070.5426385,-0.13176716714069953,0.2537807520869984,0.08096085471894286,-0.2812484395469289,nan
1740797070.5465443,-0.1267737561987828,0.30002484772515714,0.16407847346311247,-0.07769504646873941,nan
1740797070.5504503,-0.07027910860757823,-0.0363401858968129,0.11622961714998406,0.08151882218319004,nan
1740797070.5543563,-0.05019620129658212,-0.5545941692998455,-0.12737203462548774,0.08886627255803463,nan
1740797070.558262,-0.08261924839428632,-0.8135152296001232,-0.3992577450153312,0.003984036851931101,nan
1740797070.5621681,-0.07877045226915935,-0.5439081880727844,-0.44800675586229244,-0.038579953854824746,nan
1740797070.566074,0.043754404212477456,0.10815761477031348,-0.20276051554660893,0.022555716933146935,nan
1740797070.56998,0.23453617071444458,0.7085683833886458,0.15612934165665082,0.1310723375970733,nan
1740797070.5738857,0.3312541940315903,0.8736853212509471,0.3881270607039026,0.1926376911937604,nan
1740797070.5777917,0.22241329130994666,0.5281609283760956,0.4013337421062287,0.16628051105741012,nan
1740797070.5816996,-0.02714504351325799,-0.0727027433250889,0.2555721119834649,0.07440562343136155,nan
1740797070.5856056,-0.23342932755472376,-0.5250074662795894,0.030796114727646116,-0.04426245066055254,nan
1740797070.5895114,-0.2713144042487131,-0.5443606636702802,-0.219039524128567,-0.15991835755066244,nan
1740797070.5934174,-0.17571622007939702,-0.17210738958318594,-0.39341294691560724,-0.23711147437295627,nan
1740797070.5973234,-0.0655969982540222,0.23533178538242286,-0.3434571193279686,-0.23280087244029285,nan
1740797070.6012292,-0.00037692152200124643,0.2867691777801886,-0.0356380911657112,-0.13534266780170892,nan
1740797070.6051352,0.05495032822219077,-0.07979257802189392,0.3179758522327383,0.004434149581782167,nan
1740797070.609041,0.1318384221467745,-0.4960871541213042,0.405751225511387,0.10772781987216525,nan
1740797070.612947,0.17691090057547865,-0.49068550131340005,0.14355882084830757,0.141631658995481,nan
1740797070.616853,0.11018218651202888,0.028100323184923504,-0.20401378712212906,0.14307380011809095,nan
1740797070.6207588,-0.04724889760586512,0.6350493997321514,-0.3008407737487833,0.1576864784552716,nan
1740797070.6246648,-0.15444295262739138,0.7865413805496791,-0.11390648151732759,0.16906617406826857,nan
1740797070.6285725,-0.09370016166416643,0.36572856958924466,0.07311532424916892,0.11404993088515544,nan
1740797070.6324785,0.08262858979132762,-0.2095681301988772,0.034715279015088,-0.02750861495024598,nan
1740797070.6363842,0.18753026609058532,-0.4398055283019119,-0.10643532414392265,-0.18183298517703209,nan
1740797070.6402903,0.09656596870738449,-0.2565550683734567,-0.0571716944567331,-0.2431371195474131,nan
1740797070.644196,-0.11161106057143862,-0.029156009343636772,0.22127222654304066,-0.18305099522190116,nan
1740797070.648102,-0.23553647343801937,-0.08574036263281867,0.4081353520976722,-0.07752853486713931,nan
1740797070.652008,-0.1648711655200907,-0.3259530870223834,0.21366943488775905,-0.01737780063512654,nan
1740797070.6559138,0.011639187535616944,-0.3726073748157344,-0.21599042056782075,-0.009308753752751135,nan
1740797070.6598198,0.11793817931699814,-0.05467059596163195,-0.42541278407140265,0.015556258050999158,nan
1740797070.6637256,0.08373619877243456,0.3738253005145536,-0.1956383788208187,0.10184899384005165,nan
1740797070.6676316,-0.0007433210241844448,0.5342676222578026,0.1655622204578305,0.20463577454718404,nan
1740797070.6715374,-0.013101135112558388,0.3597474574651948,0.18471754686581898,0.236303111253283,nan
1740797070.675445,0.05655890227887577,0.13163858843223472,-0.1809459193709133,0.16308187467918284,nan
1740797070.6793509,0.11110002527651117,0.09089520380998699,-0.45499468546473604,0.033930519742418175,nan
1740797070.6832569,0.075566738729416,0.12788670198984484,-0.20366230467666985,-0.08254953658657375,nan
1740797070.6871629,-0.01685882543654631,-0.05237061020075063,0.41581057566713564,-0.16355810395796053,nan
1740797070.6910686,-0.0768817159388755,-0.49564490548862067,0.7908251984568472,-0.2207030299197173,nan
1740797070.6949747,-0.06811375887980141,-0.8477197722047198,0.5267414473718285,-0.24403927768804787,nan
1740797070.6988804,-0.03576041365724147,-0.7036750707113394,-0.12871304878440332,-0.1926785415899049,nan
1740797070.7027864,-0.034613445104782765,-0.0675662526653006,-0.5833409135414158,-0.052498291758794606,nan
1740797070.7066925,-0.06137692512269065,0.6078332468892627,-0.5337687965005399,0.11886105744922189,nan
1740797070.7105982,-0.07316706218978293,0.8495654676869153,-0.19809723435257598,0.23033332433573836,nan
1740797070.7145042,-0.05047451150673861,0.5898109936318078,0.043660287003244765,0.2406929502565547,nan
1740797070.71841,-0.011617470212249924,0.15493450432502168,0.08507360234205204,0.185790028675347,nan
1740797070.7223175,0.0321241773213253,-0.10904270956510075,0.08925916448765266,0.11910858081464729,nan
1740797070.7262232,0.10038119468051214,-0.14045327225926557,0.15807949708955749,0.04684056652641088,nan
1740797070.7301292,0.19815817983969547,-0.11729524674799391,0.1822087128445837,-0.057109320177086004,nan
1740797070.734035,0.26349796209793425,-0.19926433318506415,0.0575202794630641,-0.18133251374664588,nan
1740797070.737941,0.20095469036882288,-0.36619953648317194,-0.09150708059952421,-0.25541641861650405,nan
1740797070.741847,-0.012462297590771455,-0.47212724470561723,-0.04625326876755342,-0.21804397746109963,nan
1740797070.7457528,-0.2704390352305633,-0.3889203954787761,0.17672216831325976,-0.09310512281088881,nan
1740797070.7496588,-0.41167367773516617,-0.09364238076943132,0.2791193145196412,0.02761831882681959,nan
1740797070.7535646,-0.35686859769630386,0.3166222644631421,0.038171271801238825,0.08117649968237978,nan
1740797070.7574706,-0.16361567176950897,0.6493668655523317,-0.37318651778498957,0.09211626498075821,nan
1740797070.7613766,0.04987781494495552,0.7016424294095129,-0.5416329834856233,0.1211589125591678,nan
1740797070.7652824,0.21168959513089206,0.41099616413623197,-0.2851654878393224,0.17173415667656033,nan
1740797070.7691896,0.3142913114684921,-0.04764411897876961,0.13722333561099462,0.17670208249431887,nan
1740797070.7730956,0.35155196488435553,-0.37166563205146697,0.33737333473284287,0.08473872218203209,nan
1740797070.7770014,0.28522595995162014,-0.39938039296586414,0.23633770284363223,-0.06334445903787585,nan
1740797070.7809074,0.09820800705747905,-0.2609295327091656,0.0900636728928521,-0.16738695151399466,nan
1740797070.7848132,-0.14046869832625808,-0.21076790891224523,0.10807225496646264,-0.17163326725219505,nan
1740797070.7887192,-0.30355825803547565,-0.3065329454493192,0.18573844072427564,-0.11344473914697449,nan
1740797070.7926252,-0.3139570446735414,-0.321393847579024,0.08958939569669297,-0.06331195928125007,nan
1740797070.796531,-0.210452564761829,-0.0299151916287181,-0.18180942805251024,-0.039188999920928586,nan
1740797070.800437,-0.09286137638621615,0.45733382062979033,-0.3638451255513389,-0.003253809582867068,nan
1740797070.8043427,-0.015133101839211793,0.7389591964550765,-0.26543363785357094,0.06481901322420126,nan
1740797070.8082488,0.04565675784109599,0.5415142343581235,-0.01810468068110796,0.12404875300474513,nan
1740797070.8121548,0.1203699796493245,0.03592012024609004,0.10402453222245342,0.11955704662280527,nan
1740797070.8160632,0.18410823916178254,-0.33479031224749733,0.04479322133505473,0.05689084564462977,nan
1740797070.8199692,0.18717718101487602,-0.32884135599242376,0.011526901504065523,0.0007315765160310088,nan
1740797070.8238752,0.1329093467994293,-0.1277497130696223,0.14489967097861806,-0.0039014575824397523,nan
1740797070.827781,0.08382120514915305,-0.0595028817303132,0.2796390888226712,0.014928317369663078,nan
1740797070.831687,0.0746433109557453,-0.18329514310166256,0.15312842980810737,-0.001008864020975202,nan
1740797070.8355927,0.048827329114890045,-0.25190571019359514,-0.19865711300454728,-0.05754547028105232,nan
1740797070.8394988,-0.07826166286005054,-0.07664723142982946,-0.40923810425657775,-0.09645273279560623,nan
1740797070.8434045,-0.2895091435882748,0.19486425066957758,-0.20784619013474828,-0.07198419876239827,nan
1740797070.8473105,-0.4349588666735692,0.25882540734305576,0.22283328010064954,-0.014489237955047612,nan
1740797070.8512166,-0.3629405703977821,0.06201641734476266,0.4332133745100856,0.005962795136282717,nan
1740797070.8551223,-0.08008794867415432,-0.10454346879703391,0.2264232086868289,-0.028092720556979506,nan
1740797070.8590283,0.24064818777014024,0.029091500255372695,-0.13463010773321354,-0.054139972184328436,nan
1740797070.8629367,0.4156792804164935,0.3425536176965121,-0.2809312576936619,-0.007398188911158958,nan
1740797070.8668425,0.39783758303461464,0.4371437614482881,-0.18072776017369624,0.09259471074846436,nan
1740797070.8707485,0.2660178668457073,0.11492573132112915,-0.10306315405800144,0.15772450677246047,nan
1740797070.8746545,0.10344323079211605,-0.36362719861951437,-0.18321898001613593,0.13223325057129115,nan
1740797070.8785603,-0.06999281337676584,-0.5691015072873343,-0.20631041824424734,0.05352169457814367,nan
1740797070.8824663,-0.24396821446082045,-0.3858592738945919,0.07552249352774261,-0.001698572683422493,nan
1740797070.886372,-0.35005609968627655,-0.09690662169374246,0.5185956266352357,-0.01515507382172325,nan
1740797070.890278,-0.3037169613862596,0.011491234183971943,0.6654956651303071,-0.0431518946502586,nan
1740797070.8941839,-0.11696225714674371,0.0009310843152785037,0.2862307716849321,-0.13026383722255314,nan
1740797070.89809,0.07590241078786009,0.13541728490837146,-0.29589529373677276,-0.2306654735857035,nan
1740797070.901996,0.141316197780198,0.44642319726618623,-0.5407764617269284,-0.24006430377700141,nan
1740797070.9059017,0.0845757029766767,0.608701040085322,-0.30277622623118033,-0.1068283281247613,nan
1740797070.90981,0.03250632835078912,0.33174221939621223,0.03378997309309502,0.10406382166121242,nan
1740797070.913716,0.07503366876439167,-0.21778978548530764,0.05389077170467225,0.264591898073453,nan
1740797070.9176219,0.15839158342894938,-0.5348714298022742,-0.18930322192049803,0.2930873285794928,nan
1740797070.9215279,0.16168779135809935,-0.34580008291238135,-0.2897264642474461,0.20676362686167646,nan
1740797070.9254336,0.056922585570609925,0.05553310615808525,-0.035265531209830864,0.08052534892579964,nan
1740797070.9293396,-0.055185204132668565,0.1452156522857288,0.3304442331712826,-0.026137789055459198,nan
1740797070.9332454,-0.08066945525358596,-0.19536993141456518,0.4429862221471388,-0.10047250773595826,nan
1740797070.9371514,-0.05882563385538693,-0.5122450936323911,0.27512638283224367,-0.15602900578912554,nan
1740797070.9410574,-0.10364494574645322,-0.30654483353988626,0.11434592591639,-0.19960741602789744,nan
1740797070.9449632,-0.22683186407507788,0.35029886056361453,0.12659480600773695,-0.2162064723901783,nan
1740797070.9488692,-0.28088268377127984,0.8444923010283347,0.12561640916241026,-0.17522273683333828,nan
1740797070.952775,-0.12467061922647973,0.6767458375916083,-0.1343077496424451,-0.0544579642247399,nan
1740797070.9566832,0.1764462201453276,0.004310605273640649,-0.5545116167812091,0.12441450669625365,nan
1740797070.9605892,0.3780295129988781,-0.5354638458134847,-0.7485205964508753,0.2782814149797309,nan
1740797070.964495,0.31161448413314696,-0.49998968558930273,-0.502759220605723,0.3031426096005478,nan
1740797070.968401,0.0765410356069037,-0.058869370221848245,-0.029561926170758947,0.1645560622059781,nan
1740797070.9723067,-0.07181939841156998,0.26198786900918963,0.3190879363400533,-0.04536768172056223,nan
1740797070.9762127,-0.02075947925825131,0.16037102272462525,0.47272895495405626,-0.1668210256705945,nan
1740797070.9801185,0.06945617021924176,-0.1860052489671725,0.6170876779875228,-0.11635990157414686,nan
1740797070.9840245,-0.026913011051780962,-0.393204950485391,0.7794661062871847,0.026035934058251234,nan
1740797070.9879305,-0.29405788579956604,-0.2869505429347543,0.658167428163561,0.09205563478996268,nan
1740797070.9918363,-0.4465699980136442,-0.0037190357067726693,0.016463038378867662,-0.0035323359991330737,nan
1740797070.9957423,-0.2435816257936528,0.2402746819546216,-0.8532496201136233,-0.17579712998192765,nan
1740797070.999648,0.20472921603906835,0.36809160079405223,-1.2816488069939687,-0.2607556457180611,nan
1740797071.003556,0.5060301699475896,0.4145021285311147,-0.9131379793869145,-0.18079113141991401,nan
1740797071.0074618,0.3810517409441292,0.3734294878667249,-0.11130377551812545,-0.0036265498027236187,nan
1740797071.0113678,-0.04125918145105166,0.17177442654367062,0.44733656274729755,0.15179454163163544,nan
1740797071.0152736,-0.35426355872669135,-0.19313637687621169,0.506508546560896,0.2320387332782917,nan
1740797071.0191796,-0.2874602827560485,-0.5528723241004948,0.3909496865223219,0.2546072660885052,nan
1740797071.0230854,0.04232805264030924,-0.6639286294108024,0.44491802623105414,0.2291506576245144,nan
1740797071.0269914,0.2920045285783648,-0.4197346615338956,0.5391938874042477,0.12784892270398643,nan
1740797071.0308974,0.25802685374579937,0.038096184376909495,0.31403474392412134,-0.04853796146806509,nan
1740797071.0348032,0.04267933276920272,0.41855481818608026,-0.20767247173580483,-0.21567320830453646,nan
1740797071.0387092,-0.12203652757614888,0.49822185641602024,-0.5427443290923143,-0.2674370905751174,nan
1740797071.042615,-0.14595625679854735,0.27801443932037295,-0.3818684067616996,-0.19538849028875688,nan
1740797071.046521,-0.13103182117154608,-0.03053764772711004,-0.07095801988312757,-0.10455156510867662,nan
1740797071.0504284,-0.18062994279253675,-0.17315124533471007,-0.18680807195917115,-0.08347652010592159,nan
1740797071.0543344,-0.23474696589252694,-0.057063945533576535,-0.6783214813316499,-0.08634845310318782,nan
1740797071.0582402,-0.14139426655690915,0.16530800737523438,-0.7624225479929424,0.007737679165390613,nan
1740797071.0621462,0.1308392108283262,0.22563825229621134,0.11098741272740166,0.21516249335346616,nan
1740797071.0660522,0.4080218654460953,-0.0011521671051962588,1.3673499375636138,0.3791551665397591,nan
1740797071.069958,0.46605699528321864,-0.34749553301477304,1.7341020510939242,0.32632834404605376,nan
1740797071.073864,0.2531302395734339,-0.49295262007822394,0.6630343618132047,0.07731826910233762,nan
1740797071.0777698,-0.06571530914926936,-0.28499276857454386,-0.9191195608959987,-0.15178192621293216,nan
1740797071.0816758,-0.2767359594575058,0.09427648085925909,-1.5337918308250484,-0.18037428320660803,nan
1740797071.0855815,-0.3019715345697302,0.3174050428831053,-0.7540763663207801,-0.060821453187397116,nan
1740797071.0894876,-0.2147231338279399,0.2602800012274357,0.3859270835665622,-0.004392472471857277,nan
1740797071.0933936,-0.11330931285831383,0.10779706408812721,0.6532467629520636,-0.12232112078508076,nan
1740797071.097301,-0.026256241590280286,0.08819163187265264,0.01766704269999698,-0.2926644957451429,nan
1740797071.1012068,0.057225386799037,0.1672410607084928,-0.4763862100436591,-0.307167502106073,nan
1740797071.1051128,0.11419110754062119,0.1037202025522314,-0.12342815165737203,-0.11088336125416524,nan
1740797071.1090186,0.0972479297118335,-0.1844733808583504,0.5615124775995813,0.15245816276596028,nan
1740797071.1129246,0.01769007994499214,-0.42538629558886093,0.5804706237332953,0.3190974829906319,nan
1740797071.1168306,-0.02663832358645896,-0.281269844256589,-0.1874041194373162,0.36295005854461765,nan
1740797071.1207364,0.05167487740988695,0.1876565285300953,-0.7803718310224427,0.34556141447587296,nan
1740797071.1246424,0.20769627942902544,0.48871039029871716,-0.3776635844256444,0.2683018495911239,nan
1740797071.1285481,0.2761953693031236,0.22722927409019203,0.6187107608146689,0.06427937674303168,nan
1740797071.1324542,0.13388017254108828,-0.3841354341217683,1.0372566525418623,-0.24787398370041128,nan
1740797071.13636,-0.15556997864019695,-0.6873852761118984,0.35956326485717294,-0.48455470133426626,nan
1740797071.140266,-0.38158508684194453,-0.30219157164941435,-0.6741796496089174,-0.4564796842908698,nan
1740797071.1441731,-0.38248152304225536,0.4101239143335044,-0.9984130756398795,-0.19960328757548032,nan
1740797071.148079,-0.19317726795884982,0.7213530282659097,-0.4682068082391531,0.03322350636318788,nan
1740797071.151985,0.008978331195547107,0.35468805523493874,0.1322865268293876,0.05523352316319356,nan
1740797071.1558907,0.09381103743537099,-0.20700764946804248,0.20864228888227238,-0.02901828704287363,nan
1740797071.1597967,0.09432243615112353,-0.3044703183443741,0.05853646976050728,0.043399402963344075,nan
1740797071.1637027,0.13204323619981237,0.10392792646792136,0.26723217196978577,0.3383645133313471,nan
1740797071.1676085,0.2506304724862493,0.39421355072198794,0.7200256156184576,0.5874916537866975,nan
1740797071.1715145,0.35113346501930226,0.0527631603215446,0.674094067157441,0.4716943766935311,nan
1740797071.1754203,0.297113850213404,-0.6490956380628308,-0.15096383377739384,0.009124935408590915,nan
1740797071.1793263,0.06533066842216571,-0.9160490779187933,-0.9830128045161897,-0.4249774701561283,nan
1740797071.1832323,-0.22356275932725522,-0.35178398396081045,-0.8475848960233676,-0.49282878056940327,nan
1740797071.187138,-0.41572848263611945,0.5397680422113625,0.14942820241474944,-0.24774521842009478,nan
1740797071.1910467,-0.4449181727819457,0.8872797206043114,0.828704087841643,-0.03475532082243813,nan
1740797071.1949527,-0.3426103496883121,0.4193996296540309,0.3665562872603122,-0.06983900216886216,nan
1740797071.1988585,-0.16099008314944666,-0.25090659369688634,-0.6247822912729563,-0.20814703884692712,nan
1740797071.2027645,0.07293873086826726,-0.34958951848916425,-0.8149979366776001,-0.16339720360051774,nan
1740797071.2066703,0.3183640335059138,0.17198563985402635,0.14608293908742978,0.11693157460172982,nan
1740797071.2105763,0.4747877428210651,0.6061838076188207,1.1031986106907097,0.3887666022809733,nan
1740797071.2144823,0.4306351546748432,0.32757216472903694,0.7951880000154875,0.4178573601397007,nan
1740797071.218388,0.1837836696798928,-0.47893649831401336,-0.520040834058431,0.25119755937100774,nan
1740797071.222294,-0.10798905056773885,-1.0201687047160963,-1.2880804790785954,0.11705210162403602,nan
1740797071.2261999,-0.24140588604586952,-0.7643192711262209,-0.5325724241848842,0.10674204006553946,nan
1740797071.2301059,-0.15892339242693046,0.014623220738067986,0.9122754933512507,0.06450225481172506,nan
1740797071.234012,-0.01588408105962814,0.5856787762966759,1.3621839418356727,-0.17377658472489374,nan
1740797071.2379203,-0.028009355881058608,0.548632039040378,0.2869660417107764,-0.5132399595487085,nan
1740797071.241826,-0.2356944045423414,0.17420073524091526,-1.0805583137493908,-0.6622117782453022,nan
1740797071.245732,-0.43157304331795315,-0.007428322929973485,-1.2397444861289002,-0.4558661683459049,nan
1740797071.2496378,-0.34934484077879246,0.17530360969010675,-0.15837393296384394,-0.0408481305327464,nan
1740797071.2535439,0.05740202223393738,0.40560446802333444,0.8287439356302173,0.29653848806317773,nan
1740797071.2574499,0.5279356307648159,0.30420202142328917,0.7051207621842083,0.428096169335597,nan
1740797071.2613556,0.7041392138667659,-0.13479963705962242,-0.10788517315705254,0.4443863472213623,nan
1740797071.2652617,0.44850435904926234,-0.5701845622247032,-0.48403073060450535,0.44758530495878,nan
1740797071.2691674,-0.032765648733990085,-0.6967422405089763,-0.07522659692032715,0.3872775548211865,nan
1740797071.2730734,-0.37858091967380847,-0.5131260539957967,0.3854502892595641,0.15806286199954692,nan
1740797071.2769794,-0.3889026304762371,-0.21810812755759798,0.21347552632502712,-0.19769484615128086,nan
1740797071.2808852,-0.1679908514306737,0.058990361668626236,-0.28667323115547244,-0.47980382761176354,nan
1740797071.2847934,0.022186807419902657,0.34126159838618036,-0.3215578053600882,-0.5367765465680181,nan
1740797071.2886994,0.027854658111189475,0.6375280673471861,0.21306746062746657,-0.41304514532193987,nan
1740797071.2926052,-0.08090750778415817,0.7922606573977047,0.5454148730419149,-0.24935867082969593,nan
1740797071.2965112,-0.1347717580765669,0.5908826542090668,0.10706239081608775,-0.09425570938625663,nan
1740797071.3004172,-0.06444158899892476,0.029111348349943177,-0.6169438156374979,0.102693054384272,nan
1740797071.304323,0.04888883483375144,-0.5758386051865946,-0.6831812347316685,0.32508810051305626,nan
1740797071.308229,0.1051257902342666,-0.8112280174395837,0.02883795018079426,0.4298278678223569,nan
1740797071.3121347,0.11791528325071236,-0.5431645273466188,0.599467036302849,0.3256341599342348,nan
1740797071.3160408,0.17622998352475983,-0.05794078049672003,0.277629182553374,0.14680932544859734,nan
1740797071.3199468,0.2836775649538782,0.20438712134562298,-0.4728776227775278,0.12447165187996162,nan
1740797071.3238525,0.29382568759542427,0.0828046529700061,-0.5394949753543216,0.26233199545834224,nan
1740797071.3277586,0.06217398190654665,-0.14637277770463425,0.3406208735253435,0.257531799919302,nan
1740797071.3316665,-0.335276606742633,-0.07407545204558241,1.1396430404629754,-0.14419357194085314,nan
1740797071.3355725,-0.5921665702295157,0.3681117638192961,0.8167953255873147,-0.7525830584802543,nan
1740797071.3394785,-0.4455344138936743,0.7737980814620536,-0.31365332381897454,-1.0331690370936257,nan
1740797071.3433843,0.02495084811059996,0.6524042251385348,-0.9520625007777999,-0.6701544498709661,nan
1740797071.3472903,0.4146688880805206,-0.03482796522289608,-0.49389668172638124,0.055007455798669794,nan
1740797071.351196,0.36716091851284127,-0.7720555147812028,0.18621839967884082,0.5552329080302931,nan
1740797071.355102,-0.05369709087393471,-0.9641727717168548,-0.061225095603171485,0.5788674399656305,nan
1740797071.359008,-0.395480699177922,-0.5026044202919608,-1.018565128043574,0.4247834128620796,nan
1740797071.3629138,-0.2617084812953138,0.18221200265983525,-1.2501673288093458,0.47098838677362276,nan
1740797071.3668199,0.26535158221724237,0.6111298825488293,0.030859345094174966,0.6293737359735864,nan
1740797071.3707256,0.6709579143069689,0.6957822515494331,1.7878861816489782,0.4501128009136856,nan
1740797071.3746316,0.5092030641585654,0.6191702136108964,2.3053056870798185,-0.23564450588508923,nan
1740797071.3785393,-0.1287817872963685,0.3811283856109319,1.2569706132008143,-0.9733210677477496,nan
1740797071.3824453,-0.6608256504805257,-0.287416209040099,-0.00837689941006669,-1.1328052743456958,nan
1740797071.386351,-0.5591165206127375,-1.387573034472093,-0.388104153307925,-0.6195241507253549,nan
1740797071.3902571,0.11599467489308231,-2.1565434618679555,-0.5612098416778917,0.04680378871420685,nan
1740797071.394163,0.7147591255757376,-1.4817145153934912,-1.8761095525800588,0.3797443483107767,nan
1740797071.398069,0.5661167015804385,0.8776256423872494,-3.869571224699838,0.4431744416249089,nan
1740797071.4019747,-0.3734644732942404,3.5169650505303554,-3.9150414158347115,0.5596991833891145,nan
1740797071.4058807,-1.3765226465784162,4.198836510036462,-0.15860686337197194,0.6574096350156635,nan
1740797071.4097867,-1.4848526338511,1.834173969186258,5.462430318053823,0.26651365951227374,nan
1740797071.4136925,-0.3363284862137247,-2.214631582268174,8.15627833760143,-0.6832598539034281,nan
1740797071.4175985,1.4049946364270343,-4.985509845911273,4.908468158022837,-1.3487128621702495,nan
1740797071.4215043,2.449658301291156,-4.373873285135869,-2.058329790228873,-0.7025068672139567,nan
1740797071.425412,1.8981372950258373,-0.9711821536125806,-7.077400480405839,1.107001934339114,nan
1740797071.4293177,0.07121464608659914,2.469900186804702,-6.468355555968254,2.4690968081846223,nan
1740797071.4332237,-1.6329087867395213,3.4658441719629907,-1.8537738844201752,1.7973763758525996,nan
1740797071.4371297,-1.8914327627702805,1.8667589204132962,2.0713360610117393,-0.6649934458292186,nan
1740797071.4410355,-0.6886950325756406,-0.29056132390257844,2.5838115998437963,-2.8520463763380923,nan
1740797071.4449415,0.5727076923464548,-0.854946098615778,1.1527773947973394,-2.9202178120962916,nan
1740797071.4488473,0.38373090835419477,0.45472765218974437,0.7783233722209252,-1.1340831335093435,nan
1740797071.4527533,-1.2482921763769361,1.9232055692340517,2.057674525534604,0.5858290010867616,nan
1740797071.456659,-2.5206954279994562,1.546248011498945,2.6979414136559643,0.960189571541124,nan
1740797071.460565,-1.4462147453521088,-1.0416556172005151,0.7418269085515588,0.7551150325869472,nan
1740797071.464471,2.0057224480978224,-4.094286285203939,-2.673821152578626,1.5404027965654805,nan
1740797071.4683769,5.390941341104165,-5.100128909775,-4.403887571356642,3.2719714748152167,nan
1740797071.4722843,5.690989425728982,-2.831312985023006,-2.8249005528549564,3.7856347325340605,nan
1740797071.47619,2.0468347313407036,1.5506333696476344,0.43024377351470106,1.1623824286054762,nan
1740797071.480096,-3.2682225072145417,5.243888128569156,2.4263660875911275,-3.6077695937025123,nan
1740797071.4840019,-6.668318783258406,5.881321111594855,2.056310437680457,-6.932754439624954,nan
1740797071.487908,-6.201066367379377,3.3035188161117626,0.7223201859463921,-5.949598183695703,nan
1740797071.491814,-2.8625199821311362,-0.4416702247034363,0.16577626973692847,-1.3968038183884894,nan
1740797071.4957197,0.7888583068391032,-2.8941031732160427,0.39896319314406875,3.1344428737397587,nan
1740797071.4996257,3.069958833386232,-3.180010809275877,0.1760684694304984,4.767137378715709,nan
1740797071.5035315,4.128869817210158,-2.3800967765824557,-0.9540589832325282,3.8149406816913096,nan
1740797071.5074375,4.721842101699772,-1.9839334726340931,-1.847959063045155,2.6028020374525247,nan
1740797071.5113432,4.586784015576117,-2.0950924568882767,-1.2327381058901652,2.2952132452511265,nan
1740797071.5152493,2.535642312857116,-1.3601613778967228,0.5345174778549748,1.5905007546523726,nan
1740797071.5191565,-1.746523398406934,1.2284332948175094,1.723136835966832,-1.2174550458369202,nan
1740797071.5230622,-6.367996035242614,4.630406080966673,1.21398916186373,-5.394514679493895,nan
1740797071.5269682,-8.215453482594613,6.2016321589809005,-0.2366031592462144,-7.720334244659308,nan
1740797071.530874,-5.596892147545656,4.1003426837938175,-0.9677940643685842,-5.578090484596439,nan
1740797071.53478,0.05139428119400764,-0.7271111089997164,-0.37870215546312574,0.1610895798468574,nan
1740797071.538686,5.176528020445092,-5.090496056879764,0.4897134825312608,5.655700550747985,nan
1740797071.5425918,6.918283076377681,-6.1949796009582965,0.3596027751933852,7.477767056808217,nan
1740797071.5464978,5.0847120265238255,-3.832414178870683,-0.6787580586324662,5.321700740845807,nan
1740797071.5504036,1.6727386325280729,-0.14390127842203815,-1.2801688897217067,1.5099356553823584,nan
1740797071.5543096,-1.1936463763343128,2.5014653329650254,-0.46736350901473556,-1.6264592814750265,nan
1740797071.5582154,-2.7364341915423,3.257174900957816,1.1817016866512533,-3.4342180947532808,nan
1740797071.5621214,-3.2859471111623004,2.7207730341148673,2.108673422828836,-4.27981681005062,nan
1740797071.5660317,-3.166060554569246,1.693442190819668,1.3870300364503056,-4.0821165116655616,nan
1740797071.5699377,-2.2096320517624144,0.4276648322469792,-0.40111511894729046,-2.2331411323101342,nan
1740797071.5738437,-0.3193285582546704,-1.0114691401359728,-1.8262201089193881,1.0535036478862907,nan
1740797071.5777495,1.860788153047112,-2.1485566785129016,-1.9524691056647971,3.9942927512937674,nan
1740797071.5816555,3.1481694019846302,-2.2718970312016493,-0.991262578395842,4.470142108504032,nan
1740797071.5855613,2.7653771715196287,-1.2006347954551584,0.16960066679975638,2.1096176565338753,nan
1740797071.5894673,1.0259600581902732,0.3755170834876532,0.8635131901047173,-1.1529150380867565,nan
1740797071.593373,-0.915268753822055,1.4577664643732282,1.0672577004260697,-2.819441256761763,nan
1740797071.597279,-1.9417009922314603,1.5552500599490606,1.1067838640545122,-2.081302894309522,nan
1740797071.601185,-1.6735505336588619,0.8860339823421269,1.1046622542683024,-0.2577733321481908,nan
1740797071.6050909,-0.5350253344423341,-0.0575201471741526,0.7749911997483149,0.8504836671590218,nan
1740797071.6089969,0.6471733464763044,-0.8886503625820623,-0.21325386696445817,0.7453141302599896,nan
1740797071.6129053,1.1445849983959244,-1.2891176658609165,-1.6443313141797786,0.296368206461887,nan
1740797071.616811,0.7128075800783761,-0.9496036205008531,-2.5891660011849864,0.33403952468238307,nan
1740797071.620717,-0.25765576606422963,0.11141790526339203,-2.045872930913159,0.6001845920114347,nan
1740797071.624623,-0.9753676370401423,1.2207118564294075,0.027566032781414087,0.23688880308928775,nan
1740797071.6285288,-0.8477776164249343,1.4242951040810343,2.3259741878615485,-0.9278766913056722,nan
1740797071.6324348,-0.018948775337424607,0.46170591952036405,3.107922685733276,-1.9282537378671643,nan
1740797071.6363406,0.7217493285975386,-0.7610409793629255,1.7592267079085577,-1.6118491648520394,nan
1740797071.6402466,0.6972921985672862,-1.0009351192831015,-0.5425474105421697,0.08245174967036505,nan
1740797071.6441526,0.04395792125616641,-0.08066183642651528,-1.90380042227289,1.9378509687939898,nan
1740797071.6480584,-0.43253948203087833,0.785305944005314,-1.5398338618108889,2.5515569321146097,nan
1740797071.6519644,-0.15692115242953425,0.33111449924740494,-0.4135187790858026,1.561671754772117,nan
1740797071.6558702,0.5437991652684495,-1.1677603978416684,0.030392916721131417,-0.16102511683427362,nan
1740797071.6597784,0.7935090508661485,-1.9817043997460095,-0.41578967901785224,-1.3926988257098885,nan
1740797071.6636844,0.1817096367162331,-0.8072045809131295,-0.5836909918051348,-1.5549548960505053,nan
1740797071.6675904,-0.7305396370529474,1.6075273988676109,0.4447547548411742,-0.9637255011482236,nan
1740797071.6714962,-1.0301764529191642,3.0299875524148274,1.9400723051471684,-0.31067407211617487,nan
1740797071.6754022,-0.4918729287500578,2.02170030904945,2.1798411012540977,-0.012367962394997805,nan
1740797071.679308,0.18986409170405721,-0.5404359944792745,0.5081112706648397,0.010547354991742553,nan
1740797071.683214,0.25935287734969337,-2.3724521660375273,-1.67632245295331,0.08064684734020211,nan
1740797071.6871197,-0.18136683212226967,-2.095226604276122,-2.3317073456600363,0.3813955329793369,nan
1740797071.6910257,-0.3167311899679029,-0.43013653830593085,-1.03468895919708,0.7847955181688953,nan
1740797071.6949317,0.32863670868714634,0.8610815311993049,0.5866999191411829,0.9787728762708258,nan
1740797071.6988375,1.2051863792419963,0.884398817183324,0.811051353596987,0.7450123398477825,nan
1740797071.7027435,1.2953049156719152,0.22157027755200512,-0.15545755234036102,0.15140988822255796,nan
1740797071.7066514,0.30022570321284897,-0.15245823883348478,-0.552140712122451,-0.4910495991743442,nan
1740797071.7105572,-0.9425470077314221,-0.0607359006736864,0.601944672145513,-0.8624890843479986,nan
1740797071.7144632,-1.335313869213571,-0.000893200564183285,2.0888208471674408,-0.8542261210337039,nan
1740797071.7183692,-0.697301170387726,-0.15250993807733332,1.8320397222316769,-0.5911148904069156,nan
1740797071.722275,0.1061370631231789,-0.045103626307028556,-0.5087471942960159,-0.2696883996905014,nan
1740797071.726181,0.2044254237012667,0.6219695879329739,-2.8269302539126504,0.002091857816822146,nan
1740797071.7300868,-0.29809518596404355,1.2143580761996617,-2.747996773474047,0.21771725161588956,nan
1740797071.7339928,-0.5242705376116348,0.7084654335386712,-0.28260788027670136,0.38465952684115606,nan
1740797071.7378986,0.07825377911253814,-0.9334711265658387,2.1052066423044993,0.4836833064218029,nan
1740797071.7418046,1.0539765069203886,-2.319609944298105,2.1406093905000323,0.5127713922392759,nan
1740797071.7457106,1.4434616674778191,-1.931173850851215,0.131205990866128,0.505705547022379,nan
1740797071.7496164,0.8437647947199542,0.1525323128510408,-1.5203243405367937,0.4552203323224709,nan
1740797071.753524,-0.20141607307018888,2.12796442433653,-1.030402031861042,0.2514109530380253,nan
1740797071.75743,-0.8578347899273584,2.2378696002753755,0.8939181423303787,-0.2116019144130019,nan
1740797071.761336,-0.8652579211452815,0.5536478625697575,1.985762582136385,-0.8226621279986996,nan
1740797071.7652419,-0.6284779733084646,-1.1762144730215875,0.9419922272078908,-1.2093250361268533,nan
1740797071.7691479,-0.5543969641203963,-1.3994008956748487,-1.259047166971116,-1.0171446785737916,nan
1740797071.7730536,-0.5294280001439557,-0.26794229786119494,-2.490671756342391,-0.2815955476659197,nan
1740797071.7769597,-0.1602546779511321,0.7768611376641931,-1.637789230639173,0.5275465851616808,nan
1740797071.7808654,0.5925463540963688,0.6888666286133175,0.46792026080968935,0.9045447498241935,nan
1740797071.7847714,1.2235007385139607,-0.1823124000428068,2.022012140471461,0.761550291069649,nan
1740797071.7886775,1.1851473380536237,-0.7409919441447229,1.8937356798497678,0.44790583391421246,nan
1740797071.7925832,0.4803637636586877,-0.4747258894615493,0.39951744914852294,0.3131246637018772,nan
1740797071.7964892,-0.34291389300485725,0.11222291911991113,-1.184384155725307,0.3144531848328021,nan
1740797071.8003967,-0.750627970933695,0.2895488448333717,-1.6697674839994994,0.12337011246058763,nan
1740797071.8043027,-0.6766459250819256,0.003018977921514691,-0.7486470994124984,-0.4008977011952224,nan
1740797071.8082085,-0.4201503076502308,-0.18091794817987913,0.8409521358667372,-0.9459806712889334,nan
1740797071.8121145,-0.2242098952088558,0.11990335772011693,1.8065089576233837,-1.0297918891118192,nan
1740797071.8160203,-0.07633541728608055,0.6121007518412339,1.2443999698741384,-0.5258776655293877,nan
1740797071.8199263,0.11045525474224016,0.7022194623774214,-0.5433489295655982,0.17339509343907925,nan
1740797071.8238323,0.2778447118518161,0.20210076269044927,-2.122617348665586,0.5511534140981182,nan
1740797071.827738,0.28688487054991585,-0.4831965222474867,-2.0770177745074427,0.4764937997946247,nan
1740797071.831644,0.14679883498178084,-0.8179399337805062,-0.3312735735503318,0.26791733953088503,nan
1740797071.8355498,0.05006521901200333,-0.6395028563628695,1.6701607914977843,0.2695630378301947,nan
1740797071.8394558,0.13250628975794515,-0.1856135913969776,2.2533553457791435,0.4472153287881989,nan
1740797071.8433616,0.2726654307322581,0.22777558937601328,1.0691956583886881,0.4571330407766597,nan
1740797071.847269,0.2167248756943242,0.43279707842590465,-0.6533240725960684,0.07933922993073482,nan
1740797071.851175,-0.10440596214308775,0.39169263463440224,-1.3897120158923582,-0.49546657218856166,nan
1740797071.8550808,-0.45873486375924705,0.14663361052260557,-0.7706322001922694,-0.8392745190988121,nan
1740797071.8589869,-0.5494647585239473,-0.1349887590361795,0.26428639822530947,-0.7072598408991015,nan
1740797071.8628926,-0.3232368967076166,-0.1916443610299617,0.6060288737755597,-0.24800747341481355,nan
1740797071.8667986,0.0066718912980585285,0.08773339805857715,0.07652216225264469,0.18136256790707206,nan
1740797071.8707044,0.21762256621770826,0.4430691741126367,-0.6014214297245306,0.35237698898605657,nan
1740797071.8746104,0.2823588480492941,0.41547568391962747,-0.7019153851829937,0.30693049105986975,nan
1740797071.8785164,0.2969848167714178,-0.1474372270507614,-0.17148492922505978,0.22365161166835723,nan
1740797071.8824222,0.2828522199148557,-0.8122665939369119,0.5089460812641383,0.21188687335034245,nan
1740797071.8863282,0.15601244383467966,-0.9226602459751495,0.8750123624086077,0.24037934526276497,nan
1740797071.890234,-0.10077904402447728,-0.29064123888641474,0.7769435475883658,0.21082663885811248,nan
1740797071.8941412,-0.3252793610028847,0.5517150783812853,0.3075631194478371,0.057770957134128345,nan
1740797071.8980472,-0.3157602123902325,0.8705735229973925,-0.3108177697800146,-0.20127278456599992,nan
1740797071.901953,-0.07303979550260842,0.47546747015754653,-0.7481965130622158,-0.4594452531019366,nan
1740797071.905859,0.1677695309201363,-0.12892423587299245,-0.7081303526197995,-0.5537350924561227,nan
1740797071.909765,0.18251680775882498,-0.3335663017599881,-0.23557549218189827,-0.3621637505821798,nan
1740797071.9136708,-0.00022053539881109418,-0.06992272612620894,0.19685287374637206,0.06649799190392565,nan
1740797071.9175768,-0.14723751320968032,0.20389267102898379,0.13123583196116825,0.4780504660925396,nan
1740797071.9214826,-0.0971141601432402,0.09756636356955321,-0.2896189691549872,0.5720288728365993,nan
1740797071.9253886,0.06621766161057067,-0.26476923372675104,-0.3650015712250796,0.2622694879507721,nan
1740797071.9292943,0.1368969930770791,-0.4397960617504278,0.34948377587922125,-0.20890141094416137,nan
1740797071.9332004,0.039600961878363296,-0.21321700649652486,1.336695170661979,-0.4539470844920827,nan
1740797071.9371064,-0.0953105076012083,0.1667939822678882,1.4784595634624043,-0.2795182203730504,nan
1740797071.941015,-0.10361449337334205,0.3090728496176725,0.26464533108486116,0.1400194924386366,nan
1740797071.9449208,0.021859009257670835,0.12844717233546493,-1.4713681867006214,0.42932592676239123,nan
1740797071.9488268,0.14417705542721562,-0.10104378497357698,-2.2303469078836553,0.35639976430258424,nan
1740797071.9527326,0.15237779623431658,-0.09971935337929572,-1.3153636162269668,0.01976500403925204,nan
1740797071.9566386,0.06523260027137344,0.10878866598987201,0.4743223560801085,-0.28419996984659573,nan
1740797071.9605443,-0.03408708220194218,0.2691125621873067,1.662085132205365,-0.35182762403636875,nan
1740797071.9644504,-0.10802378283635437,0.20336215338357305,1.5040581437785536,-0.22384539160281358,nan
1740797071.9683564,-0.16617188415736733,-0.022151290356581463,0.49828826862942205,-0.0774490581122538,nan
1740797071.9722621,-0.18775286914556008,-0.21859016096434314,-0.38044511281759913,-0.013610752210567048,nan
1740797071.9761682,-0.11439565552229311,-0.28142454119751653,-0.6838124380630457,0.023292532752127167,nan
1740797071.980074,0.05188670956011026,-0.23970209078251925,-0.6341952436152691,0.12951904717394608,nan
1740797071.98398,0.19187901524195775,-0.15216632912366806,-0.5097178492078416,0.28572422556539123,nan
1740797071.9878883,0.17483061084779994,-0.0295052739995028,-0.24120650048012096,0.348574905858424,nan
1740797071.9917943,0.024925663196051356,0.12883909471951505,0.2828655374602504,0.20439606473162708,nan
1740797071.9957001,-0.07429898873371028,0.27356113474252375,0.7689077663734595,-0.08444158931792263,nan
1740797071.9996061,0.014552265988671058,0.3258338701641552,0.6927907569647741,-0.30848201092606153,nan
1740797072.003512,0.1960724136380024,0.25089550496125945,-0.034116084244784385,-0.3013288974719351,nan
1740797072.007418,0.2205632759745731,0.08458975139185493,-0.792491300648088,-0.10277259657492789,nan
1740797072.011324,-0.027812063534027726,-0.10859387143649399,-0.8358973309340383,0.07724779144879491,nan
1740797072.0152297,-0.36040794537953896,-0.2745224269960825,-0.10360724456617434,0.06813023434962263,nan
1740797072.0191357,-0.45329266526377054,-0.36319595552872674,0.6964077583934744,-0.08741005848796661,nan
1740797072.0230415,-0.1925301221755708,-0.32333962928885696,0.8420672974263694,-0.1787409606178544,nan
1740797072.0269475,0.18796266709586937,-0.14259077220370228,0.313265721140626,-0.05390653071221936,nan
1740797072.0308533,0.3421165940235891,0.11126093387828627,-0.31067777330098284,0.20697438706752436,nan
1740797072.0347617,0.17037488437947376,0.32100215023681855,-0.5453370028670474,0.36169920421421925,nan
1740797072.0386674,-0.08922996984170582,0.40297996829492905,-0.4209921743296588,0.2550302552538744,nan
1740797072.0425735,-0.13130418380972167,0.343819369912736,-0.22663282655879724,-0.01648669312654027,nan
1740797072.0464795,0.08688539484210571,0.1592435792874069,-0.05805355255890358,-0.20534657396921538,nan
1740797072.0503852,0.31011669203305187,-0.13272566880078498,0.19853875551877512,-0.17339669236713987,nan
1740797072.0542912,0.2667796194693496,-0.45153824574563267,0.5088692671915727,-0.026449256909913104,nan
1740797072.058197,-0.04617596164601471,-0.6005049175230255,0.564510135227417,0.024170346322894182,nan
1740797072.062103,-0.3680634260312532,-0.3793563229943287,0.1523796515617873,-0.08769206980287568,nan
1740797072.066009,-0.43880788128951703,0.17215738227208527,-0.4568008536112994,-0.20907153532837755,nan
1740797072.0699148,-0.23484971716637154,0.6796960286436527,-0.6869820079348189,-0.15469750037667873,nan
1740797072.0738208,0.04623158060995055,0.6996699620588048,-0.27985586805676216,0.0661905336111337,nan
1740797072.0777266,0.19790856513860094,0.15681198877318978,0.3721561923192429,0.25138337887800916,nan
1740797072.0816348,0.18038840842026072,-0.5117894949260439,0.6180270267015422,0.23458589231222354,nan
1740797072.0855408,0.10552656007860177,-0.7300555540977427,0.2380226080651663,0.07089732672141404,nan
1740797072.0894465,0.0875234792833482,-0.3350100589252742,-0.3512975128942759,-0.04000289757697134,nan
1740797072.0933526,0.12891041877554316,0.27226813894217794,-0.5784902962549009,0.0021159756943724124,nan
1740797072.0972583,0.14113841195222365,0.5480953014337631,-0.30021176099790076,0.08254625020452232,nan
1740797072.1011643,0.05315059829856083,0.3439204470640159,0.14818841340141586,0.02505233306643628,nan
1740797072.1050704,-0.10978151962692456,-0.017667631642356716,0.39041486706529993,-0.17220396150548212,nan
1740797072.1089761,-0.24590247119114886,-0.1701631525908881,0.3625495121082767,-0.3092097840254324,nan
1740797072.1128821,-0.26558267290258614,-0.10620862972619168,0.22779443451893164,-0.20942379877910033,nan
1740797072.116788,-0.16310389872547762,-0.09556018826883944,0.08671366780975205,0.06316536820244097,nan
1740797072.120694,-0.01126204125519128,-0.2640625928398337,-0.09862243621598839,0.2552716182779348,nan
1740797072.1245997,0.10711983091841913,-0.38585268578772874,-0.32679228873269633,0.19484065826520386,nan
1740797072.1285093,0.16058356616120545,-0.16043290540613553,-0.4490842986830264,-0.023072610029287885,nan
1740797072.1324153,0.1666754616242105,0.3652357658238036,-0.3210343660495834,-0.14408043269314044,nan
1740797072.136321,0.14107046331556788,0.7603654505976072,-0.006501913296167916,-0.03394630868282159,nan
1740797072.140227,0.06949112690349776,0.6334724741519595,0.26096261899502704,0.1788335391580796,nan
1740797072.1441329,-0.054309945229268124,0.04395091641665377,0.32451973608070867,0.2461271058414037,nan
1740797072.1480389,-0.1715368867916601,-0.5524417718469266,0.24414072289551011,0.06530289748324335,nan
1740797072.1519449,-0.17468156674536534,-0.7431893924217908,0.16691160781539996,-0.21489824987078857,nan
1740797072.1558506,-0.015880403897153804,-0.49685145706342176,0.12306630092113108,-0.34447811992895083,nan
1740797072.1597567,0.20014256323842428,-0.08523695342190889,0.0200580841615874,-0.21110402616845297,nan
1740797072.1636624,0.26908073826234347,0.23492560742200652,-0.18156132373236103,0.06637108878149478,nan
1740797072.1675684,0.07557559774189117,0.39724020096212564,-0.3684242071496741,0.2582373238156992,nan
1740797072.1714742,-0.26193788893107184,0.4356648625626332,-0.384960895235283,0.22556092036046985,nan
1740797072.175382,-0.4626786877585113,0.34600699578057714,-0.19897183280434763,0.02310969691413733,nan
1740797072.1792877,-0.33348962514377367,0.10917933272767207,0.08227228872370591,-0.1652449486013443,nan
1740797072.1831937,0.04204523240746479,-0.19346071219695732,0.32275786179735316,-0.18625379789383922,nan
1740797072.1870995,0.37428596394457053,-0.38408639267091643,0.4244007219249925,-0.03893361038187633,nan
1740797072.1910055,0.43510003357476196,-0.34629095739539034,0.3130837531542124,0.1345965039495742,nan
1740797072.1949115,0.25206485723263955,-0.14317579130982838,-0.023120509475267902,0.17939859268499597,nan
1740797072.1988173,0.038099760295644616,0.05640387528129674,-0.4147151062717166,0.06949842822766988,nan
1740797072.2027233,-0.0502642538741695,0.1472781346263461,-0.5204773982431633,-0.0696893725796769,nan
1740797072.206629,-0.056001968528478274,0.14629436235537494,-0.12300442336515222,-0.09061618580941698,nan
1740797072.210535,-0.12108789272846959,0.10225413809515374,0.531938370148687,0.015722168328868056,nan
1740797072.2144408,-0.2777937975651528,0.020957923272523014,0.8188121589343792,0.10071547879054185,nan
1740797072.2183468,-0.3837134184640364,-0.08294975175006701,0.3207420643432134,0.02023787788159312,nan
1740797072.222256,-0.27786106338003225,-0.11651930923828133,-0.6434635413819608,-0.18640589316130504,nan
1740797072.226162,0.023549734545525832,0.015268805739854716,-1.2082459807344863,-0.3090172458867337,nan
1740797072.2300677,0.3183285440475889,0.2430760978786764,-0.7914507915445043,-0.18190423732511965,nan
1740797072.2339737,0.40906639845937576,0.322403439658975,0.2821416331957287,0.12366851142196195,nan
1740797072.2378798,0.28340664380454383,0.07723264619136495,1.0735893274085178,0.35291501929735614,nan
1740797072.2417855,0.09465642583415142,-0.34849721097724506,0.9636164471250461,0.32358859257206296,nan
1740797072.2456915,-0.01674534317849745,-0.5659772890932989,0.2280631933180511,0.1060923902375527,nan
1740797072.2495973,-0.05150816700131771,-0.32939772407580553,-0.3463769974013342,-0.07286027674325794,nan
1740797072.2535033,-0.09844649607338495,0.1750101966343122,-0.3314983094541268,-0.08822730936602764,nan
1740797072.257409,-0.18871786794457795,0.4899435797237962,-0.031007266061666088,-0.035392098108819055,nan
1740797072.261315,-0.24503941628240353,0.3521920191980992,-0.003851462230599973,-0.07771225308779767,nan
1740797072.265221,-0.18406931655090003,-0.044699145151298705,-0.3655505528972395,-0.21795319568533497,nan
1740797072.2691283,-0.036678712028485154,-0.2788760555013338,-0.6812444280287772,-0.28005769038925094,nan
1740797072.273034,0.07212866269614995,-0.15333935826387543,-0.5060550508159944,-0.12878590572535292,nan
1740797072.27694,0.06833720997208745,0.13320033081181654,0.1092799489573345,0.14217186202810653,nan
1740797072.2808459,0.02367343865492395,0.25599648726037316,0.7003314862991503,0.2931256334645588,nan
1740797072.284752,0.07385773860774601,0.12506003727717652,0.8762391839693469,0.20520621551576443,nan
1740797072.2886577,0.2421098196853171,-0.07597095170616756,0.6250677151270738,0.015360129518589878,nan
1740797072.2925637,0.37438502898783255,-0.1625828605096964,0.1845663182937829,-0.045570993579535625,nan
1740797072.2964697,0.2809594372215403,-0.1573167058681041,-0.2361951509066191,0.07571695059369879,nan
1740797072.3003755,-0.05290853578537124,-0.18646600125011892,-0.5396182993885551,0.19297752794507317,nan
1740797072.3042815,-0.4159613100425057,-0.24493062781162234,-0.6563439839865441,0.10040681419270372,nan
1740797072.3081872,-0.5484178968307816,-0.17201171872727203,-0.5380088770778051,-0.18153575268773817,nan
1740797072.3120933,-0.37415143573558607,0.11624992731787165,-0.2548344510178805,-0.4146769802459913,nan
1740797072.316002,-0.05355179341846162,0.4500245121377371,0.016162741046159203,-0.3885488218196344,nan
1740797072.3199077,0.1870610918760439,0.5425174086182335,0.18161513637549923,-0.12433816478657891,nan
1740797072.3238137,0.2606638437989788,0.29995083425694735,0.3443279650625779,0.1709275693035782,nan
1740797072.3277197,0.24821283838078853,-0.06880296463073368,0.6134328406743764,0.31665161821651444,nan
1740797072.3316255,0.2466594688065848,-0.28082166312272905,0.8219025480111055,0.29342056559514196,nan
1740797072.3355315,0.23257319859521064,-0.2729262427015763,0.5949277685695362,0.18853436882708086,nan
1740797072.3394372,0.10607721507301018,-0.21538568577797043,-0.1823473058408887,0.06933658389401895,nan
1740797072.3433433,-0.14346354042756773,-0.25220381405237924,-1.0400487959504763,-0.05305884145017631,nan
1740797072.347249,-0.3625955594028759,-0.3064382130372917,-1.2518236543117254,-0.16328647308462088,nan
1740797072.351155,-0.3635812712378653,-0.19122818870115652,-0.5757915924074503,-0.20689130917738777,nan
1740797072.355061,-0.12932028251791278,0.12504174479490734,0.41746888439717744,-0.1448345512409571,nan
1740797072.3589668,0.14181485042045971,0.4408300562189739,0.8764031679065645,-0.01857124657580006,nan
1740797072.3628752,0.22147117079832643,0.529992507972671,0.5243067077921547,0.07534140107881793,nan
1740797072.3667812,0.0789249250134406,0.3774738092056478,-0.10803318190445908,0.07917697219002968,nan
1740797072.370687,-0.09546736943780533,0.15831230925384504,-0.32070498520262625,0.021523254872242128,nan
1740797072.374593,-0.09967385030426339,0.005028927079464348,-0.0009935223967438359,-0.03287260184562723,nan
1740797072.378499,0.06476481794493621,-0.13159837350351256,0.3553594885972159,-0.054080356001067295,nan
1740797072.3824048,0.20523872378146335,-0.3558137588299088,0.3037303360773288,-0.047572487159730135,nan
1740797072.3863108,0.15895323174191933,-0.6100153640008946,-0.05231612860262116,-0.006640453177352692,nan
1740797072.3902166,-0.027080687076245346,-0.6650726316522446,-0.2907871870120338,0.08785427594190064,nan
1740797072.3941226,-0.15552645831843467,-0.3586927047876393,-0.24782242781840946,0.20362787198742766,nan
1740797072.3980284,-0.10443322848547176,0.19087524409937842,-0.16592149739136539,0.23296831000881754,nan
1740797072.4019344,0.0386746572324722,0.653152253090188,-0.26222284830506865,0.0880059118190515,nan
1740797072.4058404,0.08338790061812867,0.7708530953466353,-0.3548500766054653,-0.17026311906780087,nan
1740797072.4097486,-0.041432255048091,0.5574671330701824,-0.09651889361302861,-0.3424121124252888,nan
1740797072.4136546,-0.20256743761822246,0.21876039258832738,0.47728419778942677,-0.2752149295288264,nan
1740797072.4175603,-0.20820887662406715,-0.07497719428975923,0.8483769786845865,-0.03322699754943575,nan
1740797072.4214664,-0.01907624424488268,-0.30113835809512174,0.5777869922232949,0.15204477754821008,nan
1740797072.4253721,0.20772798439646145,-0.4924851361170041,-0.13506250547163232,0.12434968914419914,nan
1740797072.4292781,0.28275430607502816,-0.6022691116632773,-0.6190282481637867,-0.028333942581081087,nan
1740797072.433184,0.17013513344544137,-0.5159608451517735,-0.47037293788299617,-0.07803655483223876,nan
1740797072.43709,-0.0005386235699404034,-0.1965623840452749,0.010284700543380468,0.07535347798305116,nan
1740797072.440996,-0.08911298241364955,0.2199945798836718,0.2063341482758686,0.2787805240260773,nan
1740797072.4449017,-0.08187345556657333,0.5055781855257421,-0.07674179726826032,0.2923338636548845,nan
1740797072.4488077,-0.0672767305238062,0.5230270524760514,-0.4098792559022644,0.060428494779057366,nan
1740797072.4527135,-0.10203953244093547,0.32983390256455564,-0.29079722490615206,-0.2211690987535106,nan
1740797072.4566216,-0.13690141358618407,0.10864688163979423,0.24343421557125147,-0.31593237679405994,nan
1740797072.4605274,-0.08596118559525594,0.0008978712394636059,0.6658834630145244,-0.191557722589773,nan
1740797072.4644334,0.05212493546386089,-0.0027408587684254766,0.566811717843266,-0.02657626155170993,nan
1740797072.4683392,0.1715199360455458,-0.028026724997019095,0.07456012423686247,0.011374353740500215,nan
1740797072.4722452,0.1663925112558853,-0.17900794082888707,-0.3562765008844344,-0.051218019250828625,nan
1740797072.476151,0.04663005043384349,-0.41722475323354163,-0.4514461650107694,-0.05294455334254224,nan
1740797072.480057,-0.06978624940559462,-0.5658662966590642,-0.3032526289514972,0.08863145854296478,nan
1740797072.483963,-0.08058692165931194,-0.45014262230736407,-0.11677654988043719,0.26710164365887096,nan
1740797072.4878688,-0.0032749376528832413,-0.06513208103562475,0.053991826950004165,0.30298875183582347,nan
1740797072.4917748,0.05268792026775422,0.3851094948032835,0.2428487510940448,0.14186300787207096,nan
1740797072.4956806,0.011885351743452914,0.6378445837271888,0.3651539206460928,-0.08970938868413779,nan
1740797072.4995866,-0.08217509637536269,0.5886122254948254,0.24713605002142436,-0.2184106812981504,nan
1740797072.5034943,-0.11518746557389443,0.36135979581027516,-0.11090214508385808,-0.18743507982705718,nan
1740797072.5074003,-0.029817268590106506,0.15040219503946867,-0.4266792778922934,-0.0805820576541627,nan
1740797072.511306,0.10548593895571608,0.0021113322133092197,-0.3998388469544621,-0.011595440149451205,nan
1740797072.515212,0.161184710894723,-0.20738394185075976,-0.05340572352685007,-0.017344386039332478,nan
1740797072.519118,0.0772623942275927,-0.5536256138388873,0.2840030191017632,-0.05310358855482166,nan
1740797072.5230238,-0.07621252876369551,-0.8606907973086886,0.34804325552693344,-0.05841310241099043,nan
1740797072.5269299,-0.16874484348547453,-0.7975973413437613,0.20255448214840982,-0.007342784883514216,nan
1740797072.5308356,-0.1332346334703642,-0.22998598988719432,0.08381269222254625,0.08717828273151321,nan
1740797072.5347416,-0.016929058800116543,0.5501348295229425,0.06186778723995995,0.18429673425391008,nan
1740797072.5386477,0.08260074256973142,1.0181050422020026,-0.019682193929357588,0.22400923596148012,nan
1740797072.5425534,0.11529700067370194,0.8834769001060625,-0.2598900501638615,0.1558878664233763,nan
1740797072.5464594,0.1037862953454316,0.34911761978257183,-0.48471362004862445,-0.008422902713147221,nan
1740797072.5503669,0.0843049356847213,-0.12129029541953427,-0.4229486920622635,-0.17372770392506098,nan
1740797072.554273,0.051087885398274135,-0.2753168750128226,-0.059036031318768147,-0.22431974281164682,nan
1740797072.558179,-0.0225195500055381,-0.2640447379734236,0.31146383517297715,-0.13289509945706574,nan
1740797072.5620847,-0.12014496784778217,-0.36078070225908293,0.41666843657252944,0.00036995129446105204,nan
1740797072.5659907,-0.17218806818867408,-0.565396377008013,0.30594983726478536,0.040597653522462925,nan
1740797072.5698965,-0.12867947679087435,-0.5829431009973873,0.2248993595363245,-0.040939614099015025,nan
1740797072.5738025,-0.027790357708666658,-0.20760751837537506,0.24408684696391314,-0.13079909433152226,nan
1740797072.5777085,0.03882517052180819,0.36113721077735317,0.15342196095323277,-0.09102224806633503,nan
1740797072.5816143,0.03700887916848319,0.6800112635159924,-0.2169984134065708,0.09070900050313874,nan
1740797072.5855203,0.0382279991455379,0.537906776745972,-0.6733181613508663,0.2800189876351532,nan
1740797072.589426,0.12398843737773757,0.1850036104918884,-0.7924803940761745,0.32512807303128655,nan
1740797072.593332,0.2481993078506832,0.027390681359737455,-0.3927131210178635,0.19577982792304946,nan
1740797072.5972395,0.24303063766023805,0.13890871263932478,0.23389365770591594,-0.009104689909520422,nan
1740797072.6011453,0.005235347808383409,0.179807803280748,0.6223853109518006,-0.17245987021184764,nan
1740797072.6050513,-0.333092413427692,-0.16028998968442312,0.6044006464157021,-0.2531682286302809,nan
1740797072.6089573,-0.47598576033478307,-0.7152979684126397,0.3871713278418179,-0.27155327191926826,nan
1740797072.612863,-0.25242796318665145,-0.9473023624055712,0.2000901049819135,-0.23661485936759644,nan
1740797072.616769,0.17302821147326355,-0.524007714540011,0.013149950846736083,-0.1261910171811872,nan
