timestamps,TP9,AF7,AF8,TP10,Right AUX
1740797622.4339678,-0.04608611585441559,-0.690325615274469,-0.3997884611127527,-0.39174580167598194,nan
1740797622.4378738,-0.08426772595571998,-0.6340486923777192,-0.09475500508546698,-0.4100375175065587,nan
1740797622.4417799,-0.052396211290916546,-0.05554954194341903,0.16130636853853553,-0.2082407660662196,nan
1740797622.4456859,0.11486996739148178,0.5498190682260254,0.18950056063969986,0.04527107838834302,nan
1740797622.4495919,0.29640604524622494,0.6406086686834572,0.06141191319022093,0.2192608615252559,nan
1740797622.453498,0.32929438582075915,0.17857148425474414,-0.05629927855101545,0.29587934663647003,nan
1740797622.457404,0.19689082992447396,-0.34951475332605114,-0.0739437371712572,0.30478608530458523,nan
1740797622.46131,0.02933430213906028,-0.4636077859072052,0.0033774062348687407,0.24743520284092563,nan
1740797622.465216,-0.06547888889395453,-0.16801242059343408,0.1315665095743153,0.11140070881547162,nan
1740797622.469122,-0.11304804657559574,0.14724937337633107,0.23378345883864718,-0.07086925275983325,nan
1740797622.4730277,-0.19067986257953382,0.2056556518878261,0.19954875326125485,-0.21900903914821673,nan
1740797622.4769337,-0.27978646466059126,0.11640275058964915,-0.02394545318021145,-0.26958055021438815,nan
1740797622.4808426,-0.2638252593150842,0.12534703764720823,-0.3164524439146195,-0.22741074917366405,nan
1740797622.4847486,-0.08461610664768865,0.22305825689727934,-0.43359337892813926,-0.14438557789906029,nan
1740797622.4886546,0.14896572647684073,0.1465524588287844,-0.23966365137269136,-0.06043702935335249,nan
1740797622.4925606,0.2554821410502436,-0.22601175098485768,0.12440137958358936,0.021078150933787468,nan
1740797622.4964666,0.1762474515872468,-0.6174018001930279,0.3631054288455725,0.10672113873211793,nan
1740797622.5003726,0.035020996125308554,-0.6014511366468795,0.32260935652356365,0.18142878954140437,nan
1740797622.5042787,-0.011134673033045599,-0.09073568936755542,0.11708232866907749,0.21228141155759583,nan
1740797622.5081847,0.051845549950305235,0.5215651731218076,-0.05216140162690946,0.17702860053880126,nan
1740797622.5120907,0.10022383613192301,0.7446806469809624,-0.13240985878023334,0.08385915845023213,nan
1740797622.5159967,0.039011209006346304,0.463588314681073,-0.2035287084210189,-0.030346097584005582,nan
1740797622.5199027,-0.08314365111038913,-0.010495541671001175,-0.26635226433777753,-0.11571833937791945,nan
1740797622.5238085,-0.14502341235119623,-0.3100901113949306,-0.17756031453483195,-0.13485184259747668,nan
1740797622.5277174,-0.10625924495345274,-0.34379485337019805,0.13051083026465218,-0.09294946594406843,nan
1740797622.5316231,-0.04636848261271631,-0.25851071341293197,0.4430948164190673,-0.046085282914183644,nan
1740797622.5355291,-0.050257249549025815,-0.17915264909552756,0.42031135810300263,-0.057989081622264516,nan
1740797622.5394351,-0.0959440546635688,-0.08829040751653806,0.005060321808033559,-0.12678593714929548,nan
1740797622.5433412,-0.0864538353219816,0.05390177649750539,-0.4256058504690986,-0.16110493289615163,nan
1740797622.5472472,0.022578520997531795,0.18222348720804143,-0.4281257115624251,-0.05915224835090723,nan
1740797622.5511532,0.16374779506059323,0.1921048030649376,8.263116498439454e-06,0.1686884396728828,nan
1740797622.5550592,0.23363309490479778,0.09429277684521276,0.38349981339364686,0.36911529764230433,nan
1740797622.5589652,0.1994084684860343,0.0210772769219773,0.2893306198310894,0.3680647938196179,nan
1740797622.5628712,0.10881419939341457,0.05840189088855536,-0.18338612697630338,0.13983042345921162,nan
1740797622.5667772,0.013126169165635167,0.12751712178264885,-0.5159348538229477,-0.15355261926856342,nan
1740797622.5706832,-0.08184141930562691,0.08092413149550609,-0.3492917616519005,-0.30481604062723733,nan
1740797622.5745916,-0.18004413275078793,-0.10560735223103214,0.14713128264347775,-0.24486405673442962,nan
1740797622.5784976,-0.2449831832980017,-0.2880739419015053,0.5143862928678277,-0.08241401511559025,nan
1740797622.5824037,-0.22169358469938905,-0.3081866596913731,0.5124923445688249,0.026875052148964015,nan
1740797622.5863097,-0.10756504792546719,-0.15327065092995673,0.28595252369981244,0.029563655340522136,nan
1740797622.5902157,0.028612004098822457,0.05594113455446724,0.06377381245250074,-0.009908025392697894,nan
1740797622.5941217,0.11424311441475145,0.20032576624054987,-0.14069930252620638,-0.0139988369234822,nan
1740797622.5980277,0.1437211095315389,0.244030160357678,-0.4309775367773948,0.022559690751618955,nan
1740797622.6019337,0.16202921854276459,0.2018828143672449,-0.7196719444283205,0.05571481139355568,nan
1740797622.6058397,0.18661546912493193,0.09241936954352187,-0.7031654982913748,0.06710726252147689,nan
1740797622.6097457,0.1749152837628636,-0.045157435741383534,-0.2181803828454853,0.08198908287751168,nan
1740797622.6136518,0.0820882636270092,-0.13194048947914566,0.4728923908918538,0.11356649376760816,nan
1740797622.6175578,-0.06855637722437516,-0.11082556559122911,0.8789500152044263,0.1217924209736904,nan
1740797622.621467,-0.19672280479239404,-0.029430406436943488,0.7657144376412379,0.05346734850378425,nan
1740797622.6253731,-0.24314681624889675,-0.006594574435287585,0.3552435000823654,-0.08239430430850161,nan
1740797622.6292791,-0.21428522200261044,-0.08440760859712015,0.014125539370185534,-0.20279428142534522,nan
1740797622.6331851,-0.1454546794870925,-0.15162988421408163,-0.16063992601699512,-0.22536065017263995,nan
1740797622.6370912,-0.04745211780200097,-0.06992315772419949,-0.34719504615886704,-0.14597944086338777,nan
1740797622.6409972,0.08265495790729586,0.1309814317060929,-0.6360515543706193,-0.03348753838456365,nan
1740797622.6449032,0.208318007827301,0.2500416139950638,-0.8149683385137312,0.04504523963972193,nan
1740797622.6488092,0.25235270288008055,0.14466877047615775,-0.6018525222562184,0.07984432221054212,nan
1740797622.6527152,0.17485827000144274,-0.07816058371854452,-0.020074771275307792,0.10164828239862747,nan
1740797622.6566212,0.036204623466274205,-0.1672097126704352,0.5784450828590976,0.12945012811851783,nan
1740797622.6605272,-0.05110449716372634,-0.024686681965266404,0.8690542894945856,0.14978115093812155,nan
1740797622.6644332,-0.041649617200766036,0.16805035727582288,0.8275386144834661,0.14008531545055009,nan
1740797622.6683426,-0.005961110783660453,0.1655906606779486,0.6024844519913624,0.09291812490314771,nan
1740797622.6722486,-0.042718134782622576,-0.04387218814012201,0.23320846371536375,0.011528048468779353,nan
1740797622.6761546,-0.15479113684393334,-0.22994891613616963,-0.34028765500198743,-0.10109998432383036,nan
1740797622.6800606,-0.237527175382432,-0.20989551790691327,-0.9802697262305885,-0.22857020739310246,nan
1740797622.6839666,-0.19263246399289186,-0.06363876980980236,-1.2506366793521346,-0.31807979031954003,nan
1740797622.6878726,-0.03202445099821895,0.0023618393694746858,-0.7984500050414304,-0.2950342323961547,nan
1740797622.6917787,0.1423012008646903,-0.04414653303134728,0.16924312627179902,-0.12509021227398098,nan
1740797622.6956847,0.24089355567752993,-0.00974318990181109,0.948416262229824,0.13221450905170817,nan
1740797622.6995907,0.24469015568670088,0.23488250670736632,0.987076312697513,0.34322648267259626,nan
1740797622.7034967,0.17387057594191097,0.5006337241427984,0.42513250200908764,0.39064618408605045,nan
1740797622.7074027,0.04625113029597842,0.4339290997589616,-0.10518192526177153,0.2594832872303433,nan
1740797622.7113085,-0.10537534182676975,-0.05534866907691559,-0.19297320795210435,0.04422199557267371,nan
1740797622.7152178,-0.20379581385197132,-0.6073153881506922,-0.03832354718402174,-0.12610520152102964,nan
1740797622.7191238,-0.17307955909531017,-0.735236485313953,-0.0832081831169278,-0.18014481837906104,nan
1740797622.7230299,-0.03533980138295325,-0.32531550071194826,-0.38372428252522156,-0.14244472495811594,nan
1740797622.7269359,0.07468178387506919,0.24601838870864814,-0.527851184569288,-0.09531565845073414,nan
1740797622.7308419,0.03892134592755409,0.5053001867712441,-0.19618807129262844,-0.10001454067329471,nan
1740797622.734748,-0.0994458163700891,0.34036498525891506,0.36324038758869087,-0.14099324415072625,nan
1740797622.738654,-0.16253959847071894,0.03714503128728995,0.5753200310617607,-0.14037728347534345,nan
1740797622.74256,-0.03595553363326054,-0.0853766425223719,0.21886465825597695,-0.03553181996569221,nan
1740797622.746466,0.1823534177534312,0.005655476881350117,-0.29420470921807007,0.14620293720354974,nan
1740797622.750372,0.2725997000789174,0.10458996069346493,-0.39704438202582454,0.29138860681614737,nan
1740797622.7542777,0.1374442783355142,0.044775461678041785,-0.02469376802267612,0.29296045273566573,nan
1740797622.7581837,-0.08106593543464032,-0.14269912561405343,0.3438098030282328,0.1494387816390916,nan
1740797622.7620928,-0.15692046688533295,-0.31086530247634875,0.28655856151620956,-0.030936407818597217,nan
1740797622.7659988,-0.033623843138112855,-0.3428459452284848,-0.07016762525833757,-0.1322450448710308,nan
1740797622.7699049,0.11796996647402756,-0.1941805796665261,-0.2579126060377376,-0.13527377198071183,nan
1740797622.7738109,0.10154868401227306,0.11902611831954008,-0.07492934970694125,-0.1130419852248151,nan
1740797622.7777169,-0.08265677573794301,0.4786551714593074,0.1791738034842748,-0.1268489559929374,nan
1740797622.781623,-0.24886246045931507,0.6391432774405358,0.11970002965033312,-0.14762961182819453,nan
1740797622.785529,-0.23910911957867625,0.37790276071676643,-0.20721942751903663,-0.0980707356421591,nan
1740797622.789435,-0.07934505482414292,-0.23468063445949555,-0.37217689063934734,0.03565699462683561,nan
1740797622.793341,0.0865990959109399,-0.7639398764038371,-0.11221193343859473,0.1631688489302041,nan
1740797622.797247,0.1706076981629369,-0.7402491848073496,0.31377207242355204,0.17928472501595652,nan
1740797622.801153,0.1984532169675757,-0.1307345871251545,0.41625355190887137,0.08326922367924625,nan
1740797622.805059,0.20933786689426148,0.5612027866504321,0.06232860144345598,-0.015452835479729905,nan
1740797622.8089678,0.1672194901323178,0.7452276250531257,-0.35335661555939585,-0.017299440043368638,nan
1740797622.8128738,0.020445403376321808,0.3106970225714008,-0.3573010156161337,0.05914399992432628,nan
1740797622.8167799,-0.17739588247435975,-0.287511307189465,0.0685242487813513,0.10437835982623181,nan
1740797622.8206859,-0.27505686791461126,-0.5117963151251214,0.479004121055223,0.04452978598503014,nan
1740797622.8245919,-0.18412714861561338,-0.2625720053829156,0.46155481649659585,-0.08147968438604657,nan
1740797622.828498,0.0008230425625995157,0.10739472510344765,0.05115457639792693,-0.1750551029828189,nan
1740797622.832404,0.09015737173396261,0.23659444160386986,-0.36794650658370526,-0.1849599000113672,nan
1740797622.83631,0.009887996535913327,0.11564276806992324,-0.4909985321158293,-0.13951259359847468,nan
1740797622.840216,-0.11304872438448456,-0.010424859099660382,-0.3431892788337606,-0.08236939336426816,nan
1740797622.844122,-0.09807241530452586,-0.00012480978627845888,-0.13292616245537683,-0.01138014429778176,nan
1740797622.848028,0.07975248710041898,0.0368925377704596,0.0298655039675217,0.09760792991104096,nan
1740797622.851934,0.26154342700403105,-0.04881083802681446,0.19619671550132725,0.22294265261552043,nan
1740797622.8558426,0.2815667146889045,-0.19615599583705318,0.4019542273236853,0.28757397879300667,nan
1740797622.8597486,0.13562556290369054,-0.18963151367575318,0.5311154047900002,0.23114974302088162,nan
1740797622.8636546,-0.04368155341579162,0.049589458258292585,0.4106336947240531,0.07674196961106206,nan
1740797622.8675606,-0.14710506564805548,0.31831105978843577,0.021164028989188743,-0.09035214521750094,nan
1740797622.8714666,-0.17997385641957603,0.3314043409186469,-0.42954894273528815,-0.20308575374366408,nan
1740797622.8753726,-0.19619043967736474,0.039778558403486736,-0.6579621712112851,-0.2537854629296738,nan
1740797622.8792787,-0.19384870782472488,-0.30256712685903925,-0.5289221512833402,-0.25741407137724387,nan
1740797622.8831847,-0.12063496815116304,-0.39330132374832877,-0.14966008938445796,-0.20330693710726425,nan
1740797622.8870907,0.02997090742732614,-0.17083502600205233,0.22673035648710368,-0.07011819156036893,nan
1740797622.8909967,0.17729787218443796,0.1566530968675501,0.39070139545598015,0.11669719718503338,nan
1740797622.8949027,0.23174907637813022,0.3300973555746785,0.31348897561914413,0.2717080732492245,nan
1740797622.8988087,0.18915432093990145,0.2555899806994358,0.1403112967252548,0.31286124617424294,nan
1740797622.902717,0.11544917160833176,0.031587899598472184,0.04754110839585403,0.2316508432219302,nan
1740797622.9066231,0.048783010235179794,-0.17441934642972068,0.07663072997034352,0.08894200670682989,nan
1740797622.9105291,-0.03879061353286852,-0.25036050113521335,0.09860883899228456,-0.05060930258370116,nan
1740797622.9144351,-0.16327782359653562,-0.1823156159591417,-0.035584443838799044,-0.16021245825888272,nan
1740797622.9183412,-0.25032248379665667,-0.031505317919778106,-0.29698804439372817,-0.2281781438164619,nan
1740797622.9222472,-0.19081182030525742,0.11604227996422178,-0.4590612599465752,-0.22575335056317836,nan
1740797622.9261532,0.012739932971000269,0.20209302827624553,-0.3183130685582374,-0.13066363102394365,nan
1740797622.9300592,0.1976892413591652,0.21802613779106905,0.06339413900228229,0.019414251725266923,nan
1740797622.9339652,0.1860239625875065,0.17218191692629944,0.3803775076191738,0.13047479904791195,nan
1740797622.9378712,-0.019085500671560836,0.04524888382833499,0.3805229407229753,0.13476935965482628,nan
1740797622.9417772,-0.21366607183865066,-0.18189613062690432,0.12319904735015952,0.06170506661453251,nan
1740797622.9456832,-0.19224206664207952,-0.42982366472203304,-0.09880890178503873,0.0036651857815176827,nan
1740797622.9495916,0.04188081427422282,-0.4933795961158056,-0.09125859745426328,0.009784145365216977,nan
1740797622.9534976,0.28085616741046304,-0.20469516874139904,0.03982738495543921,0.037113150290963466,nan
1740797622.9574037,0.3200759052967911,0.33055509559955115,0.050675400884510696,0.021038504333894027,nan
1740797622.9613097,0.14358263668865198,0.7184532551261823,-0.11767007647970658,-0.027569914936116022,nan
1740797622.9652157,-0.09324619705274305,0.6041986169543039,-0.2567630584299796,-0.031479925435512084,nan
1740797622.9691217,-0.23179943646523404,0.05356522390280641,-0.15348720240732228,0.04079241277196395,nan
1740797622.9730277,-0.23474886332967365,-0.45420553224257376,0.1262083306869755,0.10668790648790515,nan
1740797622.9769337,-0.1616286987302152,-0.4905520579935758,0.28996956949578384,0.050577463709603844,nan
1740797622.9808397,-0.07123199348840448,-0.12816029526657355,0.15549492510690738,-0.12814505291864406,nan
1740797622.9847457,0.02033111014522473,0.14447033399772333,-0.13176749940889787,-0.28191240105414667,nan
1740797622.9886518,0.10404022087782987,-0.010749054022257317,-0.26141842689058314,-0.2546357287599547,nan
1740797622.9925578,0.147136012985174,-0.36781321030814884,-0.1066687933045846,-0.04578942332844627,nan
1740797622.996467,0.12225670006884913,-0.3801412445934533,0.14943255627573748,0.18579767015261361,nan
1740797623.0003731,0.05244394294409943,0.16081231211237285,0.2397583491436601,0.2810592126602377,nan
1740797623.0042791,0.00015269491633261435,0.808037990176681,0.10591813812369605,0.2226514702974449,nan
1740797623.0081851,0.004093768801316436,0.8878464901229901,-0.07647762476485813,0.11240080870839181,nan
1740797623.0120912,0.03847269122646228,0.23163901622529387,-0.12981936270339986,0.0355963624941981,nan
1740797623.0159972,0.04225560379962657,-0.603697430866476,-0.06053123357147857,-0.017136721376223168,nan
1740797623.0199032,-0.017214094267405142,-0.8881231108813521,0.0023784501150605594,-0.09340155549435208,nan
1740797623.0238092,-0.11431565930419846,-0.44974291850914255,-0.008006273397153844,-0.18426707208436466,nan
1740797623.0277152,-0.18925142741651105,0.19546636757715974,-0.03727268452256933,-0.22132346984090168,nan
1740797623.0316212,-0.190933157279957,0.4197381922832145,-0.021288881896786932,-0.16272482651867615,nan
1740797623.0355272,-0.10376805847105573,0.11456743269595143,0.015497499736810895,-0.04877106080119851,nan
1740797623.0394332,0.04428290875530932,-0.27621442458045126,0.013173433948553415,0.0451502782557075,nan
1740797623.0433426,0.1872591757858227,-0.2827811334493431,-0.012662453879364557,0.09237592939215403,nan
1740797623.0472486,0.2499617669428457,0.11446867789319708,0.01989643149547317,0.1260614215870602,nan
1740797623.0511546,0.1987588751595717,0.5260382148719162,0.1283843431938988,0.17039838070665045,nan
1740797623.0550606,0.07419051150247086,0.5789387508544751,0.19943676303085997,0.19123706604719543,nan
1740797623.0589666,-0.039724510812846864,0.24236066267064513,0.1034260937266217,0.1355650221526759,nan
1740797623.0628726,-0.09177547837049177,-0.22026384638838298,-0.13427128152167372,0.007657434975440754,nan
1740797623.0667787,-0.10454230419450147,-0.5213624700650897,-0.323421387344994,-0.12027781460191876,nan
1740797623.0706847,-0.12849938832988833,-0.5414583908450576,-0.29238433223880317,-0.17961337503976085,nan
1740797623.0745907,-0.16221269412137124,-0.33344715609815234,-0.06243352827361118,-0.1699826046099993,nan
1740797623.0784967,-0.14261500350990577,-0.03678487541186734,0.17960844194954653,-0.13981917175850897,nan
1740797623.0824027,-0.028173411721810263,0.19909715178107748,0.26790974977855864,-0.11473330545441301,nan
1740797623.0863087,0.12536821918067925,0.28043696616150793,0.19290704484381865,-0.06838757027973283,nan
1740797623.0902178,0.20202862264468222,0.2263632201011208,0.06175500816722948,0.030177468336560265,nan
1740797623.0941238,0.1463911119798262,0.15494705308901566,-0.03243381604022116,0.15805672389344605,nan
1740797623.0980299,0.02737568971699334,0.1654252625697875,-0.07690636017330373,0.24453471131141247,nan
1740797623.1019359,-0.037028496690695065,0.21929137101155396,-0.10072140805827541,0.2339291390231637,nan
1740797623.1058419,-0.00931809775910087,0.1698382670556955,-0.11541077513227554,0.13239172470821162,nan
1740797623.109748,0.03676363348304161,-0.06462790416485555,-0.10696402747097708,-0.0052222157745827795,nan
1740797623.113654,0.01694965879869275,-0.37531031197200915,-0.06192766623376939,-0.12033614484770012,nan
1740797623.11756,-0.059773088089656055,-0.5439010865671425,0.018138466154211195,-0.17857069815746252,nan
1740797623.121466,-0.11128861751479652,-0.45044770569696346,0.11468322061979436,-0.17184699658557914,nan
1740797623.125372,-0.09189779738289562,-0.1747893249108606,0.18451966730073838,-0.1161948277176648,nan
1740797623.129278,-0.0441969504885826,0.11248112266215154,0.1671754916602516,-0.048833900382713014,nan
1740797623.1331837,-0.0283181029916175,0.3207379530496709,0.03710353412673372,-0.007031764097396402,nan
1740797623.1370928,-0.03107032761408634,0.4652303414863603,-0.1390369306780448,0.005367013180248697,nan
1740797623.1409988,0.013900587419030198,0.5455561601523754,-0.229588015946814,0.02314974290827392,nan
1740797623.1449049,0.11678456931626238,0.46963989780320314,-0.15875299763753592,0.07676426097142913,nan
1740797623.1488109,0.18677536033451578,0.15055111339769936,0.005591562880376681,0.14603670808039615,nan
1740797623.1527169,0.13129360266437623,-0.33357586999717986,0.11857993276783507,0.17337931126207243,nan
1740797623.156623,-0.0160721283026587,-0.7268033444972973,0.11805909203069974,0.12865904994733418,nan
1740797623.160529,-0.11248024553880441,-0.7774319440463081,0.07973732262511218,0.04419531031731765,nan
1740797623.164435,-0.06859526046190252,-0.4416024154884312,0.08837803887409755,-0.02997596335197666,nan
1740797623.168341,0.03666581857848453,0.08293152165541882,0.09554556351773198,-0.09143004530004543,nan
1740797623.172247,0.04325566693688054,0.5039030924399107,-0.021749469192832854,-0.17378550162582243,nan
1740797623.176153,-0.09166976674611331,0.6207197260740519,-0.24994346657047836,-0.2629845627062249,nan
1740797623.180059,-0.22470854347075128,0.4236424129888058,-0.36751483638715365,-0.26324674655272323,nan
1740797623.1839678,-0.18341934548691516,0.07915064028641247,-0.17150228221561514,-0.09361159820270532,nan
1740797623.1878738,0.02767097397299924,-0.1752478247264938,0.2351426758271891,0.17943389853327654,nan
1740797623.1917799,0.21894655746468458,-0.1906980610700275,0.4797004272347852,0.3537888675976083,nan
1740797623.1956859,0.22218471183455268,-0.03194237995654028,0.3084746925768165,0.28120241398806994,nan
1740797623.1995919,0.07243580883140176,0.06407390856988825,-0.10479501123178508,0.03891430757920171,nan
1740797623.203498,-0.04524607123709887,-0.07985106972682315,-0.3290681188656898,-0.13059235826269627,nan
1740797623.207404,-0.01532882510270642,-0.358955212112567,-0.16528422578745516,-0.07378983746494078,nan
1740797623.21131,0.08378319533946012,-0.44546799333026194,0.12247358364877803,0.10343540736106852,nan
1740797623.2152157,0.08912529476565051,-0.13685857864284354,0.13408558715665803,0.15262216530759457,nan
1740797623.2191217,-0.046249414241648065,0.36265349950708,-0.16175982096432154,-0.034784393839103075,nan
1740797623.2230277,-0.20193560718946377,0.5900566468408055,-0.3715516187555091,-0.2987138390232343,nan
1740797623.2269337,-0.23571074115654064,0.3085866794752329,-0.16275273024319686,-0.38201067073465506,nan
1740797623.2308426,-0.13799196653041265,-0.19548492137298404,0.2981227011040146,-0.20347207596166397,nan
1740797623.2347486,-0.014782383155230002,-0.3852374780547781,0.5147665947327593,0.0749156340989479,nan
1740797623.2386546,0.05701296666176227,-0.06107616781074401,0.2543902814504715,0.2421938238480596,nan
1740797623.2425606,0.10671448594243095,0.3942566542445361,-0.16413975912078518,0.24894133228865234,nan
1740797623.2464666,0.18849153255069576,0.4245658340637249,-0.2613581523436651,0.1982269997812241,nan
1740797623.2503726,0.26457410116392643,-0.07354549899094578,0.003976086358947183,0.16836968766862148,nan
1740797623.2542787,0.2225417595277894,-0.6188666134594438,0.1822437546062217,0.11480038870061775,nan
1740797623.2581847,0.01889481762655814,-0.6677312968353286,-0.08255000352367194,-0.03177082304286034,nan
1740797623.2620904,-0.2306514682788888,-0.19677813551736392,-0.5481921240654436,-0.22293652084954996,nan
1740797623.2659965,-0.3403172601197592,0.3115502753754294,-0.604633739536983,-0.3125274107344286,nan
1740797623.2699025,-0.23486194734428248,0.4342695418662182,-0.005572593701561016,-0.2229300314027482,nan
1740797623.2738085,-0.021469233636210654,0.24373229999398827,0.7693528079560448,-0.04213253288756336,nan
1740797623.277717,0.12356979199982505,0.1223912262063226,0.9827366869469373,0.07735816468952139,nan
1740797623.2816231,0.12295205797705068,0.22994776557373528,0.42188731757854614,0.08964254427277075,nan
1740797623.2855291,0.04372345044559446,0.30222041735891153,-0.39005792857653215,0.0802304612219348,nan
1740797623.2894351,-0.004738094060811787,0.02564965127483493,-0.7671980379670411,0.12308883642038579,nan
1740797623.2933412,0.014172472423788121,-0.49427189455004744,-0.5384771502562581,0.16810217641249398,nan
1740797623.2972472,0.05633431542067816,-0.7740952950324802,-0.09370778665413379,0.1118409463615009,nan
1740797623.3011532,0.07263516035155758,-0.48288076402336505,0.14905400949986491,-0.0444256799722526,nan
1740797623.3050592,0.058842450011732675,0.15938156596811895,0.16211531405787,-0.1672323753760013,nan
1740797623.3089652,0.03153289256348992,0.5897751012350795,0.16847684032954616,-0.1424175960614999,nan
1740797623.3128712,-0.011409747466767319,0.48454188189831665,0.24130200693049553,-0.015086216306714967,nan
1740797623.3167772,-0.07870753886653167,0.06291890810290034,0.21409522908340242,0.06469690356824863,nan
1740797623.3206832,-0.1430815823280921,-0.19894023511110373,-0.01454882774038036,0.02438128480404239,nan
1740797623.3245916,-0.14374155127471933,-0.08770088571239039,-0.25283580064380423,-0.052510187564525204,nan
1740797623.3284976,-0.05201667457042153,0.16887332635567173,-0.2208942048196637,-0.04858502437642079,nan
1740797623.3324037,0.07560075742318953,0.20997261539132084,0.06413177438289752,0.02874614623393297,nan
1740797623.3363097,0.13456092607437536,-0.05244764692326061,0.25383348492854607,0.061910419807493886,nan
1740797623.3402157,0.07475459340273127,-0.3645731431062706,0.07877448004528273,-0.009524318614202444,nan
1740797623.3441217,-0.040864434402451744,-0.4179482935845901,-0.2933667405107756,-0.0939040672614419,nan
1740797623.3480277,-0.09199433576099302,-0.15298493198104327,-0.4188195698393833,-0.05823362882711272,nan
1740797623.3519337,-0.019209224487856495,0.20985762094535604,-0.09318178230356121,0.09288895003444894,nan
1740797623.3558397,0.11565945513970954,0.3864422412503795,0.38936001356373834,0.20395538327593568,nan
1740797623.3597457,0.18738907831921978,0.2626827055842799,0.5459154065120401,0.14719615427787372,nan
1740797623.3636518,0.1236723648896198,-0.03548899052351109,0.2240184062076391,-0.026134188238072065,nan
1740797623.3675578,-0.03301647899353597,-0.2542579854044331,-0.2586047010244511,-0.1484633323219222,nan
1740797623.371467,-0.16975851179227322,-0.21108667637064257,-0.4762013194881306,-0.1306641753959078,nan
1740797623.3753731,-0.20234170801639073,0.0544357349106144,-0.31383218390723067,-0.04721192531700115,nan
1740797623.3792791,-0.13574398292392945,0.2985821357250151,0.004092566632932222,-0.018702978016472114,nan
1740797623.3831851,-0.04081682656599942,0.2777565352206203,0.22117417863474825,-0.056233527350166235,nan
1740797623.3870912,0.01788431954798073,-0.01697976292233789,0.28173318614979137,-0.06639831294567591,nan
1740797623.3909972,0.03257454582906509,-0.32941917900440326,0.26033284045786353,0.006016271996832413,nan
1740797623.3949032,0.04205007270011924,-0.37797847720252703,0.17429255461101334,0.09847677736661839,nan
1740797623.3988092,0.08134329793151389,-0.13867294265687452,-0.03113470168750752,0.11843516132303532,nan
1740797623.4027152,0.14318769953689603,0.1375819728407632,-0.32445449770097623,0.07054730980097455,nan
1740797623.4066212,0.1838991170405144,0.20483133198600584,-0.5128116842471918,0.044108629001796,nan
1740797623.4105272,0.16102966281646244,0.08432071399098796,-0.3956790130626586,0.07772667006993267,nan
1740797623.4144332,0.06451854900568924,0.003799626536748383,0.013919419065827538,0.09272329305880705,nan
1740797623.4183426,-0.08114107687150043,0.09308141083183398,0.4585167581943958,-0.0021522074128859123,nan
1740797623.4222486,-0.2320257857717323,0.21572955463843857,0.6361078508610409,-0.16905191351273868,nan
1740797623.4261546,-0.3347687824395641,0.1492964931994907,0.43034643186757054,-0.25974937784387303,nan
1740797623.4300606,-0.33237211927463683,-0.11395095161208618,-0.022887616559291238,-0.18605331577870543,nan
1740797623.4339666,-0.18785118395388004,-0.33193056215364053,-0.44193079395362483,-0.026621116898951656,nan
1740797623.4378726,0.07216974980376492,-0.29440018203349966,-0.5706579870876075,0.07173999108501085,nan
1740797623.4417787,0.33621222713974913,-0.06725833365938302,-0.3280475400376892,0.07333991689492639,nan
1740797623.4456847,0.4573718840354297,0.10587795986321205,0.11929301498109643,0.07886723250448896,nan
1740797623.4495904,0.35872544854898714,0.10690870375205407,0.43417005554671156,0.16293021587731296,nan
1740797623.4534965,0.10546762099328592,0.054389382325556755,0.35461399128632914,0.24401417061861422,nan
1740797623.4574025,-0.13760223537931807,0.09309136992069011,-0.0531704178304857,0.17431413857256162,nan
1740797623.4613085,-0.23946320790552028,0.16972072783780875,-0.40416548868123064,-0.0529646180503737,nan
1740797623.4652178,-0.20411068577703922,0.11695722269972134,-0.33857069090120123,-0.2529796125746418,nan
1740797623.4691238,-0.13969942109401937,-0.07021477254788709,0.10291734132690748,-0.24531641194048476,nan
1740797623.4730296,-0.13018757182487983,-0.1754551643951753,0.48771964043820065,-0.06817618463489566,nan
1740797623.4769356,-0.1478621395351183,-0.04802342807215954,0.4263601313263222,0.060468567837963394,nan
1740797623.4808416,-0.09944720424770268,0.14045994779302537,-0.013438929016204285,0.0012989603642721457,nan
1740797623.4847476,0.05049672061765287,0.07023650026524343,-0.3797845541897067,-0.13926652929478908,nan
1740797623.4886537,0.2211194025487348,-0.27915304441221517,-0.3312164654611294,-0.1409008209073517,nan
1740797623.4925597,0.28921444551844716,-0.49768261163546573,0.0005312958215434564,0.05721466141806837,nan
1740797623.4964657,0.21297486873786042,-0.1940557940156948,0.18931847553936942,0.27411965122955084,nan
1740797623.5003717,0.06888279566028044,0.4624824668309704,0.018563629483332948,0.2954340362742331,nan
1740797623.5042777,-0.03425888080641119,0.8144816810056499,-0.27765420203488944,0.11824171633630307,nan
1740797623.5081837,-0.06351686170722654,0.4237363072050879,-0.30242611031499494,-0.06010275038413423,nan
1740797623.512094,-0.07425746295832623,-0.37683244014884226,0.04218184325578196,-0.08426738920122699,nan
1740797623.516,-0.12359027391617765,-0.7833584014393431,0.45213195918381066,-0.012928249953288574,nan
1740797623.519906,-0.19159215865141058,-0.3951809436780451,0.5606337247438176,-0.019025713566023793,nan
1740797623.523812,-0.19999486733185387,0.32965907096088043,0.2992435817060391,-0.15624664044251538,nan
1740797623.527718,-0.10281056378502317,0.5865173550437117,-0.10340958469396233,-0.2846019329367214,nan
1740797623.531624,0.054738609414250766,0.13041037588711693,-0.39986103693772423,-0.23927391603339482,nan
1740797623.53553,0.1721212616858515,-0.4683962384206486,-0.5075054092716457,-0.027830300137844145,nan
1740797623.539436,0.18381216990028088,-0.5056307265627521,-0.4403987091378886,0.1806560561244017,nan
1740797623.543342,0.11241587882164929,0.04777467576957464,-0.19431675795054737,0.24701848611140045,nan
1740797623.5472481,0.038636281737887315,0.547239202503593,0.2002494681662457,0.19564311785837318,nan
1740797623.551154,0.024442120174133854,0.4499255904106315,0.5587476318242932,0.14395570128531676,nan
1740797623.55506,0.06128367291381407,-0.07413097785432579,0.6139374818554376,0.139002597551398,nan
1740797623.5589688,0.08303529905962843,-0.3963063990472961,0.2802233630760174,0.11004875539036557,nan
1740797623.5628748,0.026484234535715898,-0.19823219513916251,-0.2040028741209382,-0.018356008826717646,nan
1740797623.5667808,-0.11065337152054924,0.1820172221399006,-0.47984488515923573,-0.20928029439745846,nan
1740797623.5706868,-0.25786868189259743,0.2109657455786213,-0.415288079895384,-0.33847394118229857,nan
1740797623.5745928,-0.31613278768740216,-0.16708920102287514,-0.18980510321499355,-0.32133461984231787,nan
1740797623.5784988,-0.22813837440153553,-0.4625732253990186,-0.0250881961497341,-0.184797081712897,nan
1740797623.5824049,-0.02269127638296875,-0.23922463152509182,0.08066247501631608,-0.013633028503894869,nan
1740797623.5863109,0.20154748496046887,0.34997557480376296,0.26726267393639697,0.140277223442956,nan
1740797623.5902169,0.3396403746636765,0.7126973905642625,0.504190456152644,0.2700193935353933,nan
1740797623.594123,0.3400972649171267,0.4586220064233492,0.5111104454362668,0.35340842923814547,nan
1740797623.598029,0.21966928895902424,-0.19879445906451623,0.08063869595924503,0.32645278988063264,nan
1740797623.601935,0.03801356926692544,-0.6862281888919776,-0.5725390656822588,0.14674762405219755,nan
1740797623.6058435,-0.1339205938487046,-0.6361692807218442,-0.9156063795070164,-0.1243712738846614,nan
1740797623.6097496,-0.23433099310346173,-0.16855636312760422,-0.6134318490937596,-0.3320356361970123,nan
1740797623.6136556,-0.23106729396701822,0.31883823074020273,0.10680162836879967,-0.34425461456799156,nan
1740797623.6175616,-0.14596634702156538,0.5320903092490266,0.6686127727328072,-0.1685442694649657,nan
1740797623.6214676,-0.053132129451372384,0.44393141392588503,0.7086152745228773,0.04664829129143277,nan
1740797623.6253736,-0.023822704280818466,0.18683611418441354,0.3699628749391902,0.13459181996160383,nan
1740797623.6292796,-0.05226137748865917,-0.10237418113985397,0.04397311127037159,0.052019075778800244,nan
1740797623.6331856,-0.04691198207910757,-0.3283216678884905,-0.08380912220402544,-0.0842243130834375,nan
1740797623.6370916,0.07556049657181824,-0.41881650476121296,-0.15143942495313004,-0.10322070698909867,nan
1740797623.6409976,0.2756316274943285,-0.3381536810367586,-0.32857263722609237,0.05602572191688228,nan
1740797623.6449037,0.390493027860029,-0.12115578275504128,-0.5335019996453649,0.26918394027324627,nan
1740797623.6488097,0.2791964314851231,0.13858853483584724,-0.5151934723451138,0.3252700300668981,nan
1740797623.6527183,-0.022607028669285153,0.3424085158929854,-0.1708937248241492,0.12928270175685136,nan
1740797623.6566243,-0.3102597241686003,0.4190787622135272,0.30651298218054307,-0.18100220276211892,nan
1740797623.6605303,-0.39050833241119315,0.3256186162816715,0.6131820906029023,-0.3405945025548546,nan
1740797623.6644363,-0.2534502943440678,0.0702746480892642,0.6064668149592712,-0.20883698977889975,nan
1740797623.6683424,-0.0562186556785682,-0.23945516610398532,0.36419524235708045,0.07968284682590798,nan
1740797623.6722484,0.05512668413621829,-0.41637630871945097,0.03766890301799996,0.23607396920738197,nan
1740797623.6761541,0.08060551092385049,-0.3335756083083486,-0.2666443072191429,0.10402368052095118,nan
1740797623.6800601,0.11307681267116759,-0.06684955234046473,-0.4647762391657211,-0.18217423730584148,nan
1740797623.6839662,0.18092949185784626,0.14639346734806677,-0.46291793547541876,-0.337536676283468,nan
1740797623.6878722,0.19439670123589442,0.13629829975897992,-0.2405954238727321,-0.21332853984187283,nan
1740797623.6917782,0.06875607767819952,-0.018844102962085642,0.05467926156258477,0.07583096644990225,nan
1740797623.6956842,-0.13219972958305914,-0.07903796539501663,0.1934350863755875,0.3012781926433392,nan
1740797623.6995926,-0.22809823010355043,0.08281780473302203,0.09917310829944222,0.3502077834538118,nan
1740797623.7034986,-0.1149456157344242,0.32585069725417193,-0.04382196467185156,0.2761636989823242,nan
1740797623.7074046,0.10313124892859848,0.38375973777589095,0.01542780320647066,0.15795216848972074,nan
1740797623.7113106,0.21054520197018942,0.14297108980714876,0.28963110117254004,-0.008800771534118165,nan
1740797623.7152166,0.10785784416636263,-0.24691253925844908,0.49893078774589567,-0.23892802283524506,nan
1740797623.7191226,-0.08728141231515095,-0.5216005265459409,0.35835916107058624,-0.4319132416407896,nan
1740797623.7230287,-0.18096278294197835,-0.5182691876372589,-0.10424967422786931,-0.4164639655234441,nan
1740797623.7269347,-0.11899945438701974,-0.2518286113200254,-0.5553672529854707,-0.1565760535451926,nan
1740797623.7308407,-0.025909902855537077,0.14425859976320796,-0.6735279075560923,0.1470769344612477,nan
1740797623.7347467,-0.02935779819623725,0.4846597602904337,-0.42545199416007345,0.2403285147005071,nan
1740797623.7386527,-0.09083298276258289,0.5777752881459755,-0.030860586144538855,0.10293073284100362,nan
1740797623.7425587,-0.05431892707657812,0.32700536120089885,0.28479806912457506,-0.01580736125040268,nan
1740797623.7464683,0.1424056762292777,-0.13637037454300183,0.4502890060875131,0.10550888626502765,nan
1740797623.750374,0.353376301200831,-0.473640997490116,0.4912416562308416,0.367378880553644,nan
1740797623.75428,0.3594225759525451,-0.4076593400429898,0.40373332793678324,0.43117706474894407,nan
1740797623.758186,0.10977464800010313,-0.016349456541842253,0.14838259760973008,0.1115388121871073,nan
1740797623.762092,-0.2061672849467754,0.30451269749927173,-0.24262834679273354,-0.37492548040706264,nan
1740797623.7659981,-0.3449208814312675,0.24074965235001952,-0.6042957338066846,-0.613352780411531,nan
1740797623.7699041,-0.24871638630045168,-0.09772297063678798,-0.7159297669601243,-0.42655728997066145,nan
1740797623.7738101,-0.07769062228050136,-0.3037831588726509,-0.45171134375736055,-0.04477371140647232,nan
1740797623.7777162,-0.01278688612764038,-0.14735988211589915,0.1136356943912365,0.17466142700190124,nan
1740797623.7816222,-0.06217264962492369,0.16201403700536787,0.7047273249094509,0.13391615530178994,nan
1740797623.7855282,-0.08322114057531001,0.24869178348123414,0.9609250371251727,0.040766934056819165,nan
1740797623.7894342,0.026672394012922655,0.04465579767994798,0.6511572544061394,0.0992147094797756,nan
1740797623.7933435,0.20472685846174693,-0.13594749259091315,-0.11067130605234668,0.2518392761973771,nan
1740797623.7972496,0.301874299985968,-0.023833834911691446,-0.8493276539420148,0.281608510753472,nan
1740797623.8011556,0.25514096186942337,0.22673688262017155,-1.0349132167865067,0.11174027374955775,nan
1740797623.8050616,0.14022218975588008,0.2195657913973904,-0.5295757072217938,-0.09369115190697543,nan
1740797623.8089676,0.05154970050650658,-0.14677827965757337,0.2488213220658847,-0.14632254773748748,nan
1740797623.8128736,-0.024732789294424778,-0.48322994841087935,0.6796990067396456,-0.07113170849395571,nan
1740797623.8167796,-0.17361297004590995,-0.3538268031280771,0.5147168660122193,-0.055070173075006154,nan
1740797623.8206856,-0.3925536029554523,0.16373998575218987,0.08587982410294862,-0.18385764431543253,nan
1740797623.8245916,-0.5228847394436786,0.5183919087020096,-0.0916925412384623,-0.3175274499125109,nan
1740797623.8284976,-0.389401482744445,0.32148264091665374,0.10650766747842162,-0.2646967702849687,nan
1740797623.8324037,-0.009950679017629731,-0.18529998066234799,0.30850946999368495,-0.023459726154088357,nan
1740797623.8363097,0.374441916698472,-0.4156549882281772,0.12141391105045343,0.22040752264845173,nan
1740797623.8402188,0.513119964750222,-0.13986675802740897,-0.3775494700558428,0.3198838468838345,nan
1740797623.8441248,0.384766478937944,0.25776828493093495,-0.7152676753439785,0.31094018811737195,nan
1740797623.8480308,0.19553758004242563,0.27663493528191124,-0.5630797137558122,0.29720091259076914,nan
1740797623.8519368,0.13154552204259196,-0.07587001478955734,-0.09037753192797568,0.25985288669079554,nan
1740797623.8558428,0.14435446464100926,-0.3126531698058468,0.27413895286242,0.07750865715999102,nan
1740797623.8597488,0.022037171942223426,-0.09951387234660646,0.34590479114892536,-0.2587557859675591,nan
1740797623.8636549,-0.3248263168655552,0.31435745257770165,0.3223492596444582,-0.5409346637758317,nan
1740797623.8675609,-0.6918132248062484,0.4070441200210241,0.4197495445729164,-0.531965985548265,nan
1740797623.8714669,-0.7428062113455892,0.03291875396173911,0.5213965602914539,-0.2372468699454859,nan
1740797623.875373,-0.3530939504431771,-0.407477378230657,0.3189763651458222,0.08630680689762614,nan
1740797623.879279,0.23539292842417145,-0.4679089405492359,-0.23223005331737745,0.21280227579078473,nan
1740797623.883185,0.6238759846469898,-0.1717670434147813,-0.7530713658561246,0.17872448720045991,nan
1740797623.887094,0.6156559451308917,0.09639948190354439,-0.8181657536046422,0.18106605212666635,nan
1740797623.891,0.3528040073332298,0.13014384262190207,-0.4215057355679798,0.28552927433399666,nan
1740797623.894906,0.11270281062809819,0.13122200592574332,0.043340220212078125,0.33015042240045106,nan
1740797623.898812,0.015921877517531643,0.3358702984320404,0.25194349678142813,0.1513149018314333,nan
1740797623.9027178,-0.0352151345558828,0.5761696273516033,0.2717101978604534,-0.16667368272391805,nan
1740797623.9066238,-0.16104627342369832,0.4216732881939497,0.35425276223962326,-0.3551597616477766,nan
1740797623.9105299,-0.3213805851838481,-0.23044358442159651,0.5123218178888812,-0.2708159347087438,nan
1740797623.9144359,-0.3684063794388369,-0.8888424569246347,0.46989437138259105,-0.061623785705363136,nan
1740797623.9183419,-0.24848341254250061,-0.9359737680073039,0.0651172649093207,0.021889799928310555,nan
1740797623.922248,-0.08128627176787839,-0.31236004506965176,-0.4376698519610072,-0.06971514383957615,nan
1740797623.926154,-0.010319214074156539,0.40729006476200186,-0.5826193011344392,-0.1474243875508725,nan
1740797623.93006,-0.01811338581917661,0.6438950444869835,-0.25540306392076284,-0.04693891978414446,nan
1740797623.93397,0.04918970649979439,0.396428542357919,0.14935033358499952,0.15521534045637386,nan
1740797623.937876,0.2678735894993229,0.11415803589257892,0.1665620349524598,0.2461910010927096,nan
1740797623.941782,0.5011769879511342,0.09030039790835917,-0.1998189062198401,0.1530012958315717,nan
1740797623.945688,0.5237954763504232,0.16118215406233527,-0.47714712404519166,0.026007683180774427,nan
1740797623.949594,0.2679602587569797,0.03446779867867477,-0.2632804799765126,0.029656658563560877,nan
1740797623.9535,-0.1016044710998894,-0.25927233982011394,0.3228163344929747,0.12564455547514594,nan
1740797623.957406,-0.36826185312139165,-0.40997292943337005,0.7723931081239804,0.1328888553438483,nan
1740797623.961312,-0.471745156010124,-0.2745245693726396,0.7078682927226322,-0.025267222499363234,nan
1740797623.965218,-0.49381532150035146,-0.08102385620340707,0.20810378811454863,-0.21948429618805249,nan
1740797623.969124,-0.46747220175010573,-0.0927189139421139,-0.34075234851573466,-0.2856723886441153,nan
1740797623.97303,-0.29075875492814074,-0.19982318819626776,-0.6067566753620698,-0.2275794215717207,nan
1740797623.976936,0.11158056862763892,-0.03884736019220586,-0.5033806011720954,-0.17609354108011807,nan
1740797623.9808447,0.5810633249607859,0.4695606109744892,-0.14750949173405953,-0.17249202505402414,nan
1740797623.9847507,0.7805412302604534,0.8831340291217629,0.23522266995856556,-0.09040190837536381,nan
1740797623.9886568,0.5178935913844627,0.6859448262580278,0.38544328880209616,0.17720742535348122,nan
1740797623.9925628,-0.011323425943723287,-0.07897633158389898,0.15588953546446277,0.5125606107930871,nan
1740797623.9964688,-0.37092156599033704,-0.7821455347739096,-0.3023664974120864,0.6437129155270606,nan
1740797624.0003748,-0.30301444674293765,-0.8587932088668363,-0.5645528703176155,0.43123564879841997,nan
1740797624.0042808,0.022258777933833237,-0.37955389559786756,-0.29669569413157615,0.021248798530377415,nan
1740797624.0081868,0.19816763820138,0.11306800110226851,0.3519434920522228,-0.32003784474874386,nan
1740797624.0120928,0.006431840842156887,0.25168793085702135,0.8147793382781576,-0.47124162570404116,nan
1740797624.0159988,-0.3764224583294731,0.17010735934441712,0.6633309675878885,-0.4943952601109364,nan
1740797624.0199049,-0.5856282700596319,0.17651235215824976,0.068848979878859,-0.44675925936942273,nan
1740797624.0238109,-0.4330719074296672,0.2872928262362176,-0.3853190812256935,-0.2717089746363486,nan
1740797624.0277195,-0.043915923663972185,0.2522197012587912,-0.3574206293735586,0.062089967404726346,nan
1740797624.0316253,0.32537122283438386,-0.01632452820235512,-0.10302218472370524,0.3923027037265939,nan
1740797624.0355313,0.5317763417473513,-0.2548014307442846,-0.10364943814823885,0.4670844097190122,nan
1740797624.0394373,0.5900085776847777,-0.19178151771608032,-0.42699439949319046,0.2493472164621832,nan
1740797624.0433433,0.5373274757814245,0.05242095105763265,-0.6203699475179418,0.01714499503189524,nan
1740797624.0472493,0.342247504035262,0.09768671465312825,-0.2816053518007847,0.06156810672937895,nan
1740797624.0511553,-0.022278527537438052,-0.16788803146132442,0.4020560455844816,0.3126162881761733,nan
1740797624.0550613,-0.4581732572943966,-0.3830124480731445,0.8286185115222638,0.3798541118337001,nan
1740797624.0589674,-0.7549164708607397,-0.16393410273255332,0.6641097222384651,0.013443982331520403,nan
1740797624.0628734,-0.7467819866547655,0.34536102194832147,0.19625425192174306,-0.5551102824841064,nan
1740797624.0667794,-0.4504454161581349,0.5772930148605534,-0.05888920904518805,-0.829669555390535,nan
1740797624.0706854,-0.04392733333833169,0.2313923121668546,0.017191856359747775,-0.5904735705119399,nan
1740797624.0745938,0.279898230363089,-0.3171286422015828,0.06615317055667778,-0.11590429197427006,nan
1740797624.0784998,0.44012698492360824,-0.45433301778213775,-0.21840300595411,0.17499270649306095,nan
1740797624.0824058,0.4775136564722641,-0.09155861436040856,-0.6558565795382679,0.2057877320817742,nan
1740797624.0863118,0.4686437981630962,0.2282985040565586,-0.7848181369249358,0.25365953538807684,nan
1740797624.0902178,0.43243552471949326,0.055635789060538836,-0.42406523787850703,0.5017048359280148,nan
1740797624.0941238,0.30520496657482726,-0.3316990903509701,0.12318540636707266,0.73480809211166,nan
1740797624.0980299,0.010400241530728705,-0.2517788644007253,0.43844383148722105,0.5899731535071924,nan
1740797624.1019359,-0.4203786825549253,0.44666567447173877,0.4266337217537701,0.04428547253871607,nan
1740797624.1058419,-0.7872447783148915,1.0376090638294861,0.30491714805520703,-0.4992163917508167,nan
1740797624.109748,-0.8269002646010446,0.7019279335970522,0.2575988067778103,-0.6589537536648107,nan
1740797624.113654,-0.4438769838490544,-0.44146953633887615,0.26169020823564615,-0.496088395025412,nan
1740797624.11756,0.14458333151243236,-1.34815089330785,0.24694815269942486,-0.3741313594451101,nan
1740797624.1214693,0.5460068805113043,-1.1830565434082898,0.24323033952217382,-0.44180247449460025,nan
1740797624.1253753,0.536099519394278,-0.2561618587356188,0.2456830822852615,-0.4178288832071808,nan
1740797624.1292813,0.2672337655011173,0.3939545761639957,0.05161942084171979,0.02230236340698867,nan
1740797624.1331873,0.08986561545262851,0.2990116061328594,-0.5425967603477871,0.7380751620526307,nan
1740797624.1370933,0.15316457017471252,0.14020698026554965,-1.334031102485148,1.1610064313908421,nan
1740797624.1409993,0.2384308005196047,0.8080540997268627,-1.6940849857286668,0.884867523189941,nan
1740797624.1449053,0.04718584143144122,2.0137151877443826,-1.1418440266948573,0.1286252290529847,nan
1740797624.1488113,-0.37540065213302304,2.226077460330279,0.10804220154547059,-0.4732779645726825,nan
1740797624.1527174,-0.6114367314470143,0.2871158292058065,1.3368844263965847,-0.5144246691062462,nan
1740797624.1566234,-0.33301139568385485,-2.9562931485485535,2.0564843116410496,-0.17787460535236835,nan
1740797624.1605294,0.25669970192275987,-4.942447605336839,2.329095068741819,0.0332241900743386,nan
1740797624.1644354,0.5598414561406101,-3.6252632043478603,2.2360384713923955,-0.1655069454176988,nan
1740797624.1683447,0.21241197625837163,0.45396918711606493,1.3104411971944299,-0.6039749746077551,nan
1740797624.1722507,-0.4814180989134147,4.374478368494674,-0.9933890938188814,-0.8685241148103885,nan
1740797624.1761568,-0.8226341469442623,5.269173188518851,-4.072728512729159,-0.6502761360902786,nan
1740797624.1800628,-0.4268204474338541,2.7498808410346003,-5.829567997745562,0.06314505104168279,nan
1740797624.1839688,0.3939362647888341,-0.9080806972616808,-4.229589947671267,0.9714402747953786,nan
1740797624.1878748,0.9651536433174251,-2.910982874602377,0.4618794473483702,1.5623777452850938,nan
1740797624.1917808,0.896842391171752,-2.3513364363546088,5.255845144834861,1.3799761855752966,nan
1740797624.1956868,0.3561421662594219,-0.676667896103565,6.739694381855573,0.4204871580943751,nan
1740797624.1995928,-0.2205114915651858,0.044657815403982865,4.064249630163127,-0.6985900564952573,nan
1740797624.2034988,-0.5430996483635044,-0.7468259964161263,-0.38467498223715085,-1.161393480899363,nan
1740797624.2074049,-0.5734786044212976,-1.6553232429252878,-3.3136744704054637,-0.7372190583736311,nan
1740797624.2113109,-0.379274218692374,-0.9311756463503325,-3.412432742958252,-0.09309673332423304,nan
1740797624.2152202,-0.06691587544810891,1.532589053285547,-1.9403144002826385,-0.11099632267376991,nan
1740797624.2191262,0.15291887308251836,3.844302963526699,-0.8028341462530469,-0.8171407618223712,nan
1740797624.223032,0.04193783975954472,3.818237788741149,-0.5374838981910164,-1.191859510758969,nan
1740797624.226938,-0.3639427409176839,1.1092007955449799,-0.3067752599333079,-0.29549815052360734,nan
1740797624.230844,-0.6155402430388397,-2.323722193216293,0.5825479777418693,1.4461907737603934,nan
1740797624.23475,-0.24062376770176558,-3.919911097448661,1.7219017976847386,2.3989243557305873,nan
1740797624.238656,0.6473229018547145,-2.767067975867891,2.2020784896839496,1.42061033544007,nan
1740797624.242562,1.3071446105143572,-0.26152373222302117,1.696472216287877,-0.6897370207925574,nan
1740797624.246468,1.1389959597124677,1.3642305521099913,0.5958367627489873,-1.7850398428003598,nan
1740797624.250374,0.432495113488841,1.1160532937583456,-0.6793438003303831,-0.6196929420897913,nan
1740797624.25428,0.05949816316179998,-0.08094231199474904,-1.9440623064558307,1.6237676842410012,nan
1740797624.258186,0.28221422376785327,-0.5712420372414546,-2.723781320508026,2.3403618373990116,nan
1740797624.2620952,0.14559221328311353,0.3329685030770958,-2.067772837430471,0.16481734309533963,nan
1740797624.2660012,-1.4653323240621305,1.8014710490283645,0.4172528530299366,-3.4491887118208115,nan
1740797624.2699072,-4.01283869102719,2.40060715845798,3.349048614826951,-5.402847250095461,nan
1740797624.2738132,-4.985157071282963,1.3909697797598997,4.1188405514936335,-3.7104300693785124,nan
1740797624.2777193,-2.0742319934814004,-0.7585963001336365,1.3592103431152693,0.8333691070575638,nan
1740797624.2816253,3.9910889911348892,-2.819121132465825,-3.14458279810526,5.434995956758656,nan
1740797624.2855313,9.088967428716431,-3.5978642937657006,-5.584749466281,7.4365355852350365,nan
1740797624.2894373,8.835333709046552,-2.5432019161553625,-3.629121457954909,5.815824674899155,nan
1740797624.2933433,2.5796869094018384,-0.04278089728898162,1.2333620794022735,1.3001099192251793,nan
1740797624.2972493,-5.6109242424674095,2.63003866017985,5.051208395088056,-4.200087185878761,nan
1740797624.3011553,-10.139815298213692,3.904244126512889,5.097284405033169,-8.164225327136238,nan
1740797624.3050613,-8.368573204144168,2.9390481729348075,2.062061185013446,-8.307864470809324,nan
1740797624.3089702,-2.3447323904205,0.3645684503043902,-1.2516815169737345,-3.9986206887046847,nan
1740797624.3128762,3.4737457569904477,-2.0816199409410143,-2.866526556384237,2.661810958325817,nan
1740797624.3167822,5.958794137296683,-2.9025399788954407,-2.91540672459288,7.6324690561906525,nan
1740797624.3206882,5.072680304044968,-1.9690425907381575,-2.4013624616636924,7.735105422590509,nan
1740797624.324594,2.701629349177518,-0.3432561595385603,-1.5779785505745683,3.280793825467551,nan
1740797624.3285,0.4954776396557873,0.9035538065204972,-0.06681089558419705,-2.09015636949767,nan
1740797624.332406,-1.0428280713993248,1.506925120242635,1.8411727137854883,-4.505863433374758,nan
1740797624.336312,-1.9727789756505452,1.6585978505817047,2.879511504272832,-3.074345552527587,nan
1740797624.340218,-2.2242478077054817,1.2325483124528627,2.1756636913149876,-0.18281216992833174,nan
1740797624.344124,-1.7411348445947794,-0.13676272772317644,0.4933301384509154,1.1940361140555384,nan
1740797624.34803,-0.9249912682330351,-2.0997099559515564,-0.4890368432951975,0.2915932609258264,nan
1740797624.351936,-0.426475759569872,-3.183263156351086,-0.14630554952710523,-1.248901786653931,nan
1740797624.355845,-0.39280993341446135,-1.953884883734163,0.36514758621971194,-1.5425973391765084,nan
1740797624.359751,-0.2158321729690562,1.2338621816428823,-0.35453497599038186,-0.38135131310091314,nan
1740797624.363657,0.7168000650489814,4.022414791280671,-2.0304291041316707,0.9912704504243626,nan
1740797624.3675628,2.1004215533857455,4.0453976933666365,-2.8836445186555233,1.5352779477061649,nan
1740797624.3714688,2.8039179035671222,1.2296644952483498,-1.7551028398720407,1.3801440972115033,nan
1740797624.3753748,1.9905941235204117,-2.1053332555402564,0.46328940857795153,1.185849231665514,nan
1740797624.3792808,0.035106002690345244,-3.537572286695629,1.893945980510512,1.0382620908177806,nan
1740797624.3831868,-1.78776519985893,-2.735524740276449,1.8664425895849397,0.39363469918910293,nan
1740797624.3870928,-2.463145973163275,-1.224306784240782,1.4362396252533491,-0.9552524150575241,nan
1740797624.3909988,-1.9777488981431903,-0.26086061148552525,1.626176462836414,-2.274160818470055,nan
1740797624.3949049,-0.9973774989776399,0.4840310452575433,1.8079525852620097,-2.5152329474827884,nan
1740797624.3988109,-0.08121733152783207,1.8957470996482433,0.5177273966284841,-1.4379710670307968,nan
1740797624.4027195,0.6275887428332302,3.54249066786267,-2.2276755032484776,0.14023459589460635,nan
1740797624.4066255,1.1125921425640017,3.6045428424351993,-4.236117562022684,1.2295179120883477,nan
1740797624.4105315,1.2400700911500238,0.9980999260590303,-3.347566258436406,1.582306861657109,nan
1740797624.4144375,0.9487743388422162,-2.8272392572861653,-0.08640037906073345,1.595229737038484,nan
1740797624.4183435,0.48693647909611976,-4.839780398787174,2.5820671392013232,1.492377388650989,nan
1740797624.4222496,0.19445087862286992,-3.382291765118342,2.399477407902137,0.9559950261104202,nan
1740797624.4261556,0.04787558834187095,0.09646117424478133,0.27864110119631913,-0.2932663466133338,nan
1740797624.4300616,-0.33217731791471655,2.5220859744078385,-0.8679754431331111,-1.7650944141188394,nan
1740797624.4339676,-1.069143253401919,2.277675922066232,0.38744133864724567,-2.3808750800306098,nan
1740797624.4378736,-1.5951684186809016,0.5298081877776301,2.308368542228097,-1.5203883389445256,nan
1740797624.4417796,-1.1358280926394282,-0.46445589021868217,2.1182185585593025,0.22483659537323641,nan
1740797624.4456856,0.28501991821507655,0.07818586921508851,-0.6038672330351419,1.4992453102024306,nan
1740797624.449594,1.5620709326706539,0.9324998360249369,-3.2946245512033885,1.4189415530485723,nan
1740797624.4535,1.5102235969405082,0.6717664854448384,-3.2776834973286,0.32855940379597387,nan
1740797624.457406,0.1668742777652633,-0.5640092655645916,-0.7422798689130531,-0.6411994683541071,nan
1740797624.461312,-1.1209611572395026,-1.3936707858964332,1.6011931160676514,-0.6778957904434535,nan
1740797624.465218,-1.0604194901943997,-0.9825074947113865,1.6468894033405748,0.06109798323506455,nan
1740797624.469124,0.22061319692103212,0.0057042069142686945,0.08797011360566243,0.7637935913912173,nan
1740797624.47303,1.329387473687538,0.3567052497408382,-0.732661517112597,0.7779633862827076,nan
1740797624.476936,1.1174098111326765,-0.1702203582824849,0.2785560109511989,0.12106805829292981,nan
1740797624.480842,-0.1417277367335586,-0.6376426514261566,1.791281531436221,-0.6544153407624482,nan
1740797624.4847481,-1.1654392923555241,-0.17575604644407328,1.7989845176656785,-0.9684692608513475,nan
1740797624.4886541,-1.0925741579316723,0.9437792862254032,0.02087943462326005,-0.6338778690660136,nan
1740797624.4925601,-0.2799219391861203,1.6585739471276941,-1.8497255230530385,0.06242638423748063,nan
1740797624.4964695,0.315633777492302,1.3188600889103195,-2.1220818249455364,0.6009217982908628,nan
1740797624.5003755,0.27650517744453473,0.25551483753045706,-0.8573345523567995,0.6167480883505748,nan
1740797624.5042815,0.023631688100032886,-0.7894335687178852,0.49513005016462985,0.17431123453901026,nan
1740797624.5081875,0.08163100816701513,-1.4421380300497142,0.834103581691761,-0.2954641333968345,nan
1740797624.5120935,0.3707962823180797,-1.716917914472576,0.38011682781459977,-0.38159730580160744,nan
1740797624.5159996,0.40856250897322793,-1.5128296189435428,0.005045555927702757,-0.07088268699572664,nan
1740797624.5199056,0.048789536059509746,-0.5356318242222526,0.06686964940547739,0.26419012948042914,nan
1740797624.5238116,-0.28171443783039074,1.117640398498689,0.20610523577981282,0.27506965974802255,nan
1740797624.5277176,-0.16284529853689486,2.55695098211711,0.08784957859000345,0.010134153025947829,nan
1740797624.5316236,0.21999570146470301,2.6451488960587195,-0.08637420630924375,-0.16749153778907455,nan
1740797624.5355296,0.28540650784954413,1.0701202061566562,0.054273982843626487,-0.02548871283741508,nan
1740797624.5394356,-0.17143574201143075,-1.2256346914422793,0.4309779670095944,0.24992847664343354,nan
1740797624.543345,-0.6530700278385095,-2.7624740756257475,0.5460166686369833,0.26834396842316716,nan
1740797624.547251,-0.5433211171846891,-2.6538019069095435,0.10748799987330267,-0.09749445328814998,nan
1740797624.551157,0.10539475912896043,-1.0982812033747529,-0.5989133296930361,-0.5418806330489528,nan
1740797624.5550628,0.5803254963718785,0.9762586236449179,-1.0395155824311542,-0.6490854057241823,nan
1740797624.5589688,0.341382091702953,2.5150807223211635,-0.9745467418415013,-0.3253203687896583,nan
1740797624.5628748,-0.3192685075333028,2.719766693481156,-0.5401552246320639,0.1476662518402019,nan
1740797624.5667808,-0.5947074945113336,1.3356239267350505,0.07912842592762406,0.4512379671174224,nan
1740797624.5706868,-0.08838305426195324,-1.0216355045383312,0.8007622081053465,0.5257785043790882,nan
1740797624.5745928,0.7353775328705925,-2.907329271732095,1.417726498918731,0.5016422274285286,nan
1740797624.5784988,1.0687148221718705,-2.909829527803195,1.4775564005135944,0.43038383578946665,nan
1740797624.5824049,0.6061806056211332,-0.8835613454656225,0.6718860180379121,0.20718325962623385,nan
1740797624.5863109,-0.23012329697933492,1.690888412794043,-0.6449363440124001,-0.22194348946080242,nan
1740797624.5902202,-0.8293395917639417,2.867924148070957,-1.5610036901753093,-0.6737217462816727,nan
1740797624.5941262,-0.9705887249570553,1.9517241950275197,-1.4120766501610034,-0.8424664997644168,nan
1740797624.598032,-0.8149263387896732,0.027783600831965585,-0.4424735782238135,-0.5984010886056563,nan
1740797624.601938,-0.5019596109854203,-1.2490818177236827,0.45788074400718937,-0.11312076502383656,nan
1740797624.605844,0.014301004382096591,-1.269512930986601,0.66417135359179,0.32212207109443725,nan
1740797624.60975,0.6980849355136453,-0.7469773721126417,0.3457661013859061,0.5467398383445088,nan
1740797624.613656,1.2000273318344108,-0.5300980072726904,0.07671919561124524,0.571699104316545,nan
1740797624.617562,1.0992209886348592,-0.5234310926283555,0.10133384009977892,0.4431983479853783,nan
1740797624.621468,0.39045697387722034,-0.03047069881022336,0.16563616174251647,0.17690970168275225,nan
1740797624.625374,-0.4105214665324643,1.0302880838670603,0.01840026498046501,-0.15139085151451417,nan
1740797624.62928,-0.7456125570901472,1.7123140675044632,-0.17625311701232682,-0.35329368175120457,nan
1740797624.633186,-0.5543068202626696,1.082916052252013,-0.08463475965552006,-0.2804156186645201,nan
1740797624.6370952,-0.2543071315190084,-0.5216488787713058,0.2572067311966311,-0.030648282039539836,nan
1740797624.6410012,-0.20725842342627376,-1.6449856658024389,0.39102730151338194,0.09661587047900813,nan
1740797624.6449072,-0.3195638086561613,-1.2247503900552508,0.0004500889779320787,-0.07872401397643315,nan
1740797624.6488132,-0.23406020952081352,0.24135715906528918,-0.6232448760933675,-0.3789690219682591,nan
1740797624.6527193,0.16489042107582721,1.2326168235004111,-0.844203962872019,-0.4330129592279433,nan
1740797624.6566253,0.5716153088967587,0.8330830593408975,-0.3916051150392941,-0.09379889381405153,nan
1740797624.660531,0.6131444067124786,-0.3823216013620238,0.3329377898789304,0.3741635283359624,nan
1740797624.664437,0.286250744051674,-1.1073734198033527,0.7037702774501371,0.5729721462787105,nan
1740797624.668343,-0.05180268127174304,-0.7252580778657576,0.5197856805928871,0.397511915152991,nan
1740797624.672249,-0.10591421217713722,0.20676264500555275,0.11241677090105816,0.11123074782861879,nan
1740797624.676155,0.04082734618016577,0.7657986183457778,-0.11773956035589525,-0.0012695732492801343,nan
1740797624.680061,0.07409593594875682,0.6540764124673178,-0.10920866893007965,0.03372068726769116,nan
1740797624.68397,-0.15406855395546784,0.27234258207283196,-0.053438474857290495,-0.034380422686741206,nan
1740797624.687876,-0.45723224714213956,0.03349686822009367,-0.05889092383880989,-0.3047286653058316,nan
1740797624.691782,-0.5404561084225208,-0.09041546002131573,-0.05921841620450282,-0.5505878746101122,nan
1740797624.695688,-0.31861214708189844,-0.3047025209457052,-0.018098266114647002,-0.47665843394670887,nan
1740797624.699594,0.03218622328175791,-0.5384450944761975,-0.042396346009331065,-0.09035113324492274,nan
1740797624.7035,0.29188155434150187,-0.49050652554372237,-0.19689667199527566,0.27869806075551457,nan
1740797624.707406,0.3906827581973392,-0.0854506530950359,-0.3150683769117681,0.34304407197736114,nan
1740797624.711312,0.38599668028627704,0.33685556618516427,-0.15787260113385576,0.1674029826799645,nan
1740797624.715218,0.32520897096179163,0.3940835491423843,0.23243246809647863,0.05802637292018059,nan
1740797624.719124,0.1988124900593706,0.11608815876727616,0.4868069484021623,0.17884993325910356,nan
1740797624.72303,0.012124189192232853,-0.1098127961064272,0.32003353148795644,0.3598640763880872,nan
1740797624.726936,-0.16784919183588343,-0.019609400273484973,-0.08847620133162866,0.31220722173465093,nan
1740797624.7308447,-0.27295436283336594,0.2384387655877187,-0.26700679520497844,-0.024749026836400494,nan
1740797624.7347507,-0.3086731399789284,0.33316882543142756,-0.01842175959673571,-0.41128105499706713,nan
1740797624.7386568,-0.32363415642667936,0.14830961645450869,0.3173500050899498,-0.5660135210547058,nan
1740797624.7425628,-0.31163911216346785,-0.15341012721984712,0.26410941279295114,-0.43364563691719454,nan
1740797624.7464688,-0.19423152361489346,-0.3904681403445564,-0.19903144545235193,-0.17720695405550052,nan
1740797624.7503748,0.06938965943177038,-0.5213401385470334,-0.5906501839033499,0.03603470644105001,nan
1740797624.7542808,0.37933022609149025,-0.5158800202828974,-0.4929957840925745,0.17436047370715346,nan
1740797624.7581868,0.5458723256255101,-0.24378865410395445,-0.03490860872847617,0.2799582452771238,nan
1740797624.7620928,0.45790894814142874,0.33261578018201826,0.29447143091593975,0.34786497723072635,nan
1740797624.7659988,0.18455094559711036,0.8987514805007955,0.24453791374379646,0.32318114202464615,nan
1740797624.7699049,-0.09925935876360062,0.9402388804853997,0.05775601645140657,0.19554468658025104,nan
1740797624.7738109,-0.2700400205660504,0.2922762492750418,0.09031579351849409,0.03501372741801613,nan
1740797624.7777195,-0.3232413094563544,-0.5536448327963839,0.32280333107912546,-0.08584457111023175,nan
1740797624.7816255,-0.30563170826206415,-0.8705081475366615,0.39688999823187493,-0.16858325206014058,nan
1740797624.7855315,-0.22847529657075108,-0.4590074200148963,0.10641987143690532,-0.2543179299025888,nan
1740797624.7894375,-0.07545471845622226,0.13709000245194805,-0.31567731630770546,-0.33166015244282476,nan
1740797624.7933435,0.1224639667322595,0.2662119557275359,-0.48392290233027974,-0.32464320335496244,nan
1740797624.7972496,0.26291730499430116,-0.074953983583463,-0.3289392231370695,-0.1849458566020956,nan
1740797624.8011556,0.24798049961428298,-0.28054269205556254,-0.13343232063762453,0.035118972893113845,nan
1740797624.8050616,0.08139538250721098,0.06798444160220936,-0.11309440154153426,0.2275082414152024,nan
1740797624.8089676,-0.11918461016515512,0.6306132739934702,-0.12625302118328963,0.32996753566974896,nan
1740797624.8128736,-0.20845153758757043,0.6907662061916713,0.09027748735855105,0.3527068232482022,nan
1740797624.8167796,-0.11778454745480968,0.04521334638780042,0.484456144158369,0.312698721758141,nan
1740797624.8206856,0.10228379720045745,-0.6910129081768951,0.665166547045767,0.18960607717222985,nan
1740797624.824594,0.31576176109976206,-0.7626135492380052,0.36585951293825564,-0.022886513029526896,nan
1740797624.8285,0.3775738115563355,-0.13734642176265047,-0.188931514394324,-0.24998300060471149,nan
1740797624.832406,0.21424958917602224,0.4722519940049315,-0.5025911322969866,-0.37252919033764087,nan
1740797624.836312,-0.12490481950774043,0.4422465850663586,-0.35976035847308346,-0.34353928402782147,nan
1740797624.840218,-0.47895465024866213,-0.07292845898862665,-0.03624504654877385,-0.2320303726323696,nan
1740797624.844124,-0.6568513812850779,-0.38671085100051467,0.07523302391122967,-0.12456925206383132,nan
1740797624.84803,-0.5454427732026123,-0.11993915319643553,-0.06724070139873814,-0.01333696693317814,nan
1740797624.851936,-0.1723831782252165,0.3801463000576551,-0.170911177299271,0.16486198770464544,nan
1740797624.855842,0.3112671208877713,0.4943925375669012,-0.03927574656533254,0.37766994610203913,nan
1740797624.8597481,0.7015608045581185,0.06431762513768474,0.1730685453268823,0.454093998923043,nan
1740797624.8636541,0.8206129341469567,-0.4596219405085857,0.20181096850935332,0.2586060800286346,nan
1740797624.8675601,0.5891614076576221,-0.5605494461439002,0.05341362658017073,-0.10355690989438608,nan
1740797624.8714695,0.08632486766286798,-0.2008112008504705,-0.008245089971726613,-0.3312607224743092,nan
1740797624.8753755,-0.4493404165504654,0.22490361674993217,0.1474777711026152,-0.2300377657061055,nan
1740797624.8792815,-0.7336704214045111,0.37072862031204423,0.29475662751657067,0.056557240417774976,nan
1740797624.8831875,-0.629916011039813,0.2491116595488559,0.13007929494475162,0.18126237970755932,nan
1740797624.8870935,-0.26422661584807483,0.0851459831119787,-0.2917053982828188,-0.023271950366824452,nan
1740797624.8909996,0.07423076488994035,0.00652356010419558,-0.5529373747291142,-0.34096964932346857,nan
1740797624.8949056,0.1872606854760125,-0.036952645236641005,-0.35278633700387424,-0.3985967443896398,nan
1740797624.8988116,0.13215258842841884,-0.11501186921568557,0.11255813678796185,-0.08225172046798869,nan
1740797624.9027176,0.12010699529160243,-0.199754831149235,0.35827488515309774,0.3250473947397936,nan
1740797624.9066236,0.2540953756653426,-0.22464725230004395,0.17242212841972168,0.44408628390497795,nan
1740797624.9105296,0.399492740773192,-0.17297834773728607,-0.148517693969663,0.2019973326349491,nan
1740797624.9144356,0.33940612523669206,-0.05431610081552237,-0.17180370179890167,-0.10886800989146854,nan
1740797624.918345,0.039081672942579124,0.14345207342117655,0.1498254921055032,-0.16535633612199735,nan
1740797624.922251,-0.28941622742119155,0.3873743273090077,0.43149391876036075,0.04408907166122326,nan
1740797624.926157,-0.4027253791457239,0.5054062668144189,0.31867120169454394,0.23736558737823563,nan
1740797624.930063,-0.275348373039543,0.28688039135035664,-0.10734394650687637,0.16506289247837902,nan
1740797624.933969,-0.09900183137153301,-0.2390983690365958,-0.4398007017811252,-0.1317873307938994,nan
