timestamps,TP9,AF7,AF8,TP10,Right AUX
1740797236.5614269,0.22438333939664173,0.07081428590324848,0.6777119791477327,0.09690330768769191,nan
1740797236.565333,0.047106943665553985,0.08436562378381499,1.5284908006907176,-0.09473239455343423,nan
1740797236.5692387,-0.09292613241517263,0.10223085338609648,1.0985358116257857,-0.15591225462141647,nan
1740797236.5731447,-0.08624751489686715,0.1909110795488548,-0.06516231009243495,-0.08777087117580135,nan
1740797236.5770507,0.009200666475998015,0.2502622744854135,-0.8057484648901122,-0.012781363435291933,nan
1740797236.5809565,0.05563383977408442,0.1413920039806707,-0.5839029353732549,-0.02424387613304977,nan
1740797236.5848625,-0.005756049751371646,-0.11413906261759582,0.08059832062241636,-0.08491217705276842,nan
1740797236.5887685,-0.1059547176385919,-0.330410854716131,0.3584879040182577,-0.09133829797937307,nan
1740797236.5926743,-0.143424463457517,-0.35381104490920146,0.06729207856946699,-0.01431920928193348,nan
1740797236.5965803,-0.09241199542055004,-0.20824467156718604,-0.2756887135179407,0.06580553639873918,nan
1740797236.6004863,-0.004237318084218112,-0.020945224444367173,-0.21969534616900868,0.07028018431047045,nan
1740797236.6043923,0.06986263425426834,0.14225017949193147,0.0811951807596124,0.02833043716350426,nan
1740797236.608301,0.12037340034039218,0.30009036326135935,0.18445730050150327,0.03338931500591048,nan
1740797236.612207,0.145925736423786,0.42675070136532245,0.002798834202367538,0.10414866576180169,nan
1740797236.616113,0.11928819836059018,0.3905221356763647,-0.11729307392528172,0.139836280475527,nan
1740797236.6200187,0.021320556900335734,0.09454624584969247,0.05741061774846176,0.044116604901162246,nan
1740797236.6239247,-0.10118352634108795,-0.3408459541783116,0.2748578246351222,-0.13269809941794203,nan
1740797236.6278307,-0.15189009505161913,-0.6152206836300997,0.14096391636093872,-0.2247216403428018,nan
1740797236.6317365,-0.08318881810753319,-0.515080083101702,-0.28493519796331435,-0.1364878633167027,nan
1740797236.6356425,0.036509353261911064,-0.12724817443269962,-0.48302095138959084,0.037719365735277434,nan
1740797236.6395485,0.08246203439689176,0.24468626936958796,-0.12336926123503777,0.1153708121005578,nan
1740797236.6434543,0.007309187469653033,0.3696451641744117,0.45857296797114905,0.03526330940077729,nan
1740797236.6473603,-0.10307249001204792,0.2704912060646877,0.6137960621338653,-0.07543668326979398,nan
1740797236.6512663,-0.12146918218585093,0.1307209026634563,0.15499399908357675,-0.058998330346388954,nan
1740797236.655175,-0.017549917969656346,0.07469801875311155,-0.41290876109242514,0.0803274503844769,nan
1740797236.659081,0.11348387428562864,0.07320661392527156,-0.5013863855901823,0.18113683271927936,nan
1740797236.6629868,0.15880484243065698,0.03410547986777819,-0.12458110316093972,0.11888349342090379,nan
1740797236.6668928,0.10287058811813207,-0.07436066469635999,0.18301740002072106,-0.04655247674984413,nan
1740797236.6707988,0.02172248368627637,-0.20516754718477134,0.07675551976622888,-0.14397352016192386,nan
1740797236.6747046,-0.020332137531559533,-0.29220907978676924,-0.18490157146685088,-0.09015409864976155,nan
1740797236.6786106,-0.03708041581790234,-0.28969448060905323,-0.13392652916485134,0.024531914838977962,nan
1740797236.6825166,-0.07433028723990562,-0.17458405547095884,0.25155599730870276,0.056669792718936816,nan
1740797236.6864223,-0.12371127171680572,0.035923268899874995,0.49865458784370326,-0.019631943193709304,nan
1740797236.6903284,-0.11800383284576699,0.2560996606402887,0.2588854474311969,-0.09541979850511316,nan
1740797236.6942344,-0.02125965921285876,0.3654970247642048,-0.21966882378965316,-0.0690920138972988,nan
1740797236.6981401,0.10117444808134507,0.31259277845479083,-0.38937508273869853,0.03366653631830891,nan
1740797236.7020488,0.13338574067105297,0.17069753856498918,-0.09235395671382222,0.10037500763841593,nan
1740797236.7059548,0.036887784223649155,0.050792048129595424,0.2417823610007923,0.06863671044412828,nan
1740797236.7098606,-0.0899449357485898,-0.037071444680636625,0.14215520365826262,-0.009865515701945618,nan
1740797236.7137666,-0.10155714716994887,-0.18091869241813197,-0.3067190626583592,-0.04208766439441984,nan
1740797236.7176726,0.0399438805814287,-0.3968220161007969,-0.5631690822901648,-0.0008126772064206418,nan
1740797236.7215784,0.20879527729729094,-0.5157418161756516,-0.28286798152102743,0.0588958429176267,nan
1740797236.7254844,0.22666709740626736,-0.3290765873801124,0.286199816178334,0.07349312946889036,nan
1740797236.7293904,0.03736829248419979,0.13163262123266736,0.6194781735315008,0.03323768784221412,nan
1740797236.7332962,-0.22658113310113864,0.5342070911085469,0.502122323692143,-0.029961853485411118,nan
1740797236.7372022,-0.3535439063431818,0.546090295911829,0.17142408979523344,-0.08816610740508785,nan
1740797236.7411082,-0.23748984982429053,0.1911162264298043,-0.06887054299145183,-0.12898365954185595,nan
1740797236.7450142,0.03173492884999307,-0.1627657232423835,-0.19029690791787068,-0.1342610913376072,nan
1740797236.7489223,0.2500010795616709,-0.20288096631329552,-0.3205113694398649,-0.07928913853936041,nan
1740797236.7528281,0.2716968829428868,-0.00527223263422215,-0.4275526902006107,0.032061097428948526,nan
1740797236.7567341,0.11826553763635152,0.09234526326160593,-0.3195888880988291,0.14645050618992414,nan
1740797236.7606401,-0.0631013609091564,-0.077149978657043,0.028200629453000434,0.19655710258490952,nan
1740797236.7645462,-0.13694184319832972,-0.3032592468654437,0.3241446931328616,0.16030231595932667,nan
1740797236.768452,-0.08298796994118557,-0.2705460662465489,0.2757572969556479,0.07440893587318748,nan
1740797236.772358,0.015686259522498042,0.03194417566725408,-0.012212747987343377,-0.011758973401303453,nan
1740797236.776264,0.0663807525159966,0.28100814567853016,-0.12452343163251771,-0.08170867735929929,nan
1740797236.7801697,0.04328696089207506,0.21088941654970955,0.1373498977425096,-0.14270075363857304,nan
1740797236.7840757,-0.014438059438133493,-0.06258595370114893,0.4532334541833128,-0.18481062309313828,nan
1740797236.7879817,-0.057227973951666955,-0.19012678176191222,0.34432270111656466,-0.17283876074217114,nan
1740797236.7918875,-0.06564185068352779,-0.02061668977178289,-0.20949538117494873,-0.0871240104957033,nan
1740797236.795797,-0.046978983318888654,0.22449566958562164,-0.6751604187911997,0.041011394261428386,nan
1740797236.7997031,-0.01416701084658558,0.24221888445745482,-0.5584490759758933,0.1487675058343334,nan
1740797236.8036091,0.020236923343715296,0.024089945725875563,0.014862606800924598,0.194029744147622,nan
1740797236.807515,0.04003105027322777,-0.15749329813994462,0.4384601991601755,0.1779634408266642,nan
1740797236.811421,0.03559347397824454,-0.11669677623397944,0.32218401291542587,0.12012864092128347,nan
1740797236.815327,0.022977797107970613,0.012391054330125006,-0.09157449970972419,0.0316084800420778,nan
1740797236.819233,0.035884944471242755,-0.022111830397476804,-0.2685022559713475,-0.0748713197400268,nan
1740797236.8231387,0.08085770566532349,-0.22567022617092866,-0.02765041337689774,-0.16244210324102934,nan
1740797236.8270447,0.10622741923216387,-0.3188373472015026,0.29580734132663844,-0.18471486846919044,nan
1740797236.8309507,0.04204267489397532,-0.08959117967339648,0.31456369212200197,-0.13253097417410042,nan
1740797236.8348565,-0.11136342234889621,0.30913911453787213,0.052556767971064476,-0.05077463581757779,nan
1740797236.8387625,-0.24728258479750695,0.5020682096400266,-0.15536211792111834,0.007869433679789718,nan
1740797236.8426719,-0.2355010692627041,0.3084656015708638,-0.13089437995618416,0.04023461290190041,nan
1740797236.846578,-0.05727158362028857,-0.06867355976650752,-0.04598534239696968,0.08483716924054042,nan
1740797236.850484,0.15510202427405723,-0.2887620506570105,-0.11894685650158733,0.15331249719428125,nan
1740797236.8543897,0.23538857463847682,-0.23235873515246405,-0.2699922646996068,0.19115587416274357,nan
1740797236.8582957,0.14450386701365958,-0.055343762576108894,-0.22528264631822648,0.12982403602685155,nan
1740797236.8622017,0.0015704115841952545,0.057673079193130354,0.07612073339794977,-0.023907764812481577,nan
1740797236.8661075,-0.05155444801420901,0.08007150671164774,0.3465196018577753,-0.17245312856094971,nan
1740797236.8700135,-0.000956120933516044,0.06404556056789446,0.2982864433503228,-0.21458704176773113,nan
1740797236.8739195,0.042757174619459194,-0.00789749269193992,0.024657548686085492,-0.1400426071728495,nan
1740797236.8778253,-0.00848264106797373,-0.17325946722415786,-0.10836237473258542,-0.026237112130367085,nan
1740797236.8817313,-0.10846078411381754,-0.32022432379083093,0.05912833617112685,0.05064573818679497,nan
1740797236.8856373,-0.13475139499828484,-0.21733469901948096,0.2562405146569884,0.08070111158456045,nan
1740797236.8895464,-0.044595691716002805,0.19408503730894755,0.12537656901472374,0.09419706905860516,nan
1740797236.8934524,0.0639270557076832,0.6080521880895517,-0.292498780704537,0.09733202347869645,nan
1740797236.8973584,0.06511443967435691,0.5979761651691853,-0.5645963875420337,0.06317306951701815,nan
1740797236.9012642,-0.039267889789463106,0.0965881683355461,-0.3804680474815919,-0.014949909359831093,nan
1740797236.9051702,-0.11120707608693116,-0.4606895545957972,0.06743870245241808,-0.09051801323017786,nan
1740797236.9090762,-0.03221706141041914,-0.5672276022366551,0.3215526652841827,-0.10555106471782877,nan
1740797236.912982,0.15268363637422414,-0.19513482080065903,0.21771491877078752,-0.05532731348906502,nan
1740797236.916888,0.2690013724298797,0.18334131781092622,0.055892226470650556,0.010636963397725801,nan
1740797236.920794,0.19023018093327035,0.14799639998968867,0.16671248367389363,0.05189137116143492,nan
1740797236.9246998,-0.033134391585814674,-0.18792595436327167,0.4331709170499224,0.07610271609580675,nan
1740797236.9286058,-0.22490857683983173,-0.335844872674241,0.39840571753047493,0.09979862286023096,nan
1740797236.9325118,-0.2505014155024976,-0.031881587411150665,-0.143518022464197,0.09206389377739793,nan
1740797236.9364207,-0.1267880223659141,0.4437266140040244,-0.8007581826864693,-0.002479158374525877,nan
1740797236.9403267,0.01812792528181272,0.5964919632262048,-0.9390318845861075,-0.1707608035238423,nan
1740797236.9442327,0.07151517532534701,0.2806546894343195,-0.3598891697587797,-0.2905798576365914,nan
1740797236.9481385,0.023363184927327134,-0.17200258269895854,0.4667438129752974,-0.2243783532346383,nan
1740797236.9520445,-0.04469809845904019,-0.36476471002822436,0.8700708778475291,0.03213972920143618,nan
1740797236.9559505,-0.0359060497272775,-0.253560786724193,0.6161792744043109,0.3123593575373051,nan
1740797236.9598565,0.08287567485243506,-0.09232068626443278,0.04696228408795149,0.4104254099359872,nan
1740797236.9637623,0.24468204788754097,-0.05732231523112175,-0.343068219084393,0.2568438770328791,nan
1740797236.9676683,0.31292337401095355,-0.06823741183906522,-0.3652843322689914,-0.03361913009963536,nan
1740797236.9715743,0.1785457009730158,0.0065929071328995545,-0.17894509071930725,-0.2730271452304415,nan
1740797236.97548,-0.13098378241017647,0.10878120501863008,-0.006190142712478935,-0.34420070492614757,nan
1740797236.979386,-0.43098980628591993,0.07656046601267455,0.0781220036548932,-0.24979865108736582,nan
1740797236.983295,-0.5014770426146039,-0.07241398021327107,0.09800376310026818,-0.06539144947805536,nan
1740797236.9872007,-0.27105285458886863,-0.09824769774234497,0.052447870890692874,0.11922919987145511,nan
1740797236.9911067,0.1072818646357398,0.14904744272971285,-0.06903615305863813,0.22572848807990753,nan
1740797236.9950128,0.37729777629237665,0.46391652041194276,-0.1875844806845291,0.2080677146362236,nan
1740797236.9989188,0.39204837080676086,0.46111239923887376,-0.15742677728048285,0.08742022065578187,nan
1740797237.0028245,0.2135082856127853,0.02807705482936895,0.06550953588626983,-0.043640045437923346,nan
1740797237.0067306,0.013753677249340637,-0.4997423924373494,0.321731580021017,-0.08973041633108719,nan
1740797237.0106366,-0.09829407887768002,-0.6803594924550626,0.37630104626778477,-0.0434664170460183,nan
1740797237.0145423,-0.13809815723589788,-0.4258974168146528,0.15663687013232094,0.008226187518618786,nan
1740797237.0184484,-0.15859296644300055,-0.03880378932988394,-0.16792058448770172,-0.01362472470529677,nan
1740797237.0223544,-0.15359615564060808,0.1839605307660887,-0.35357875263497496,-0.08221296813931651,nan
1740797237.0262601,-0.07846247622650397,0.25754678329025327,-0.3060212033729325,-0.09507840996863459,nan
1740797237.030169,0.05460101268840854,0.3598550286524653,-0.12729994351826107,-0.0047484446056267095,nan
1740797237.034075,0.15121237613663727,0.4798434321033402,0.02801475634590372,0.10946235777452282,nan
1740797237.0379808,0.1280581242109578,0.38040753315026415,0.10135319905559244,0.12531229523838297,nan
1740797237.0418868,0.010172357565471529,-0.048562902398432625,0.1350727413389948,0.02218282768848274,nan
1740797237.0457928,-0.09396087247268241,-0.5289087390674644,0.17188057334942655,-0.09052961779165102,nan
1740797237.0496986,-0.10930735997979354,-0.6273521883282517,0.1869950909760318,-0.09917656038544508,nan
1740797237.0536046,-0.056612679160676464,-0.24791968828338853,0.12162197692835051,-0.013084324499643862,nan
1740797237.0575106,0.007218592476984042,0.22345940843556253,-0.033814003491053304,0.060561089598256936,nan
1740797237.0614164,0.07143682289574714,0.3322240112058078,-0.19805922351421396,0.05552150055318728,nan
1740797237.0653224,0.15313119404784692,0.052307794739330664,-0.24454056506692287,0.018866602753171743,nan
1740797237.0692284,0.21110933424772038,-0.2173437467412271,-0.10971679509194485,0.02786285267442187,nan
1740797237.0731342,0.1432485971903258,-0.13666623459863125,0.11800983464364828,0.06843111993176443,nan
1740797237.0770428,-0.0838115665601048,0.19709176900100023,0.2293578942546574,0.04469470984851258,nan
1740797237.0809488,-0.32902567800778065,0.401113698251887,0.07144182398283913,-0.08375705136075598,nan
1740797237.0848546,-0.37185225029452623,0.2599703235632751,-0.26116096871621886,-0.21618659517532468,nan
1740797237.0887606,-0.14799531867106727,-0.0714405318341719,-0.441733051361267,-0.2025733749448029,nan
1740797237.0926666,0.14605833815706498,-0.30002658506615587,-0.20052028742280362,-0.016612931306998372,nan
1740797237.0965726,0.2415558575708794,-0.31221700316287043,0.3561600907420905,0.19718978407573648,nan
1740797237.1004784,0.09567475015003014,-0.19936700076851183,0.7616771370362466,0.2646133715493986,nan
1740797237.1043844,-0.05082172258716803,-0.053904378599094686,0.6076024807358025,0.15118944737443135,nan
1740797237.1082904,0.04512961599665037,0.1239546160298327,-0.027422783039482347,-0.025687534445618623,nan
1740797237.1121962,0.3159607942265058,0.30258817758405976,-0.616040184297966,-0.13402159852800136,nan
1740797237.1161022,0.41773467443137535,0.33322149241232407,-0.6941936030972335,-0.14083277589073115,nan
1740797237.1200082,0.1080594408330506,0.10562229734333234,-0.3122643069067579,-0.0896076462587366,nan
1740797237.1239164,-0.4450949114039921,-0.24267167694308758,0.0725704332612432,-0.014812228400468416,nan
1740797237.1278224,-0.7848425394926178,-0.40040569300189605,0.13448563364505844,0.07344471301697965,nan
1740797237.1317282,-0.6052643374545975,-0.22113880812788864,0.017482798573301553,0.13327559180212628,nan
1740797237.1356342,-0.042392486662750695,0.08890253606118916,0.08240437594637541,0.08601043216943595,nan
1740797237.1395402,0.48032938807488584,0.2089029912553222,0.3898990594013909,-0.0847743765925168,nan
1740797237.143446,0.6561344798217548,0.09505456774245492,0.5775045521885468,-0.251435625972342,nan
1740797237.147352,0.5090461267486247,0.017575477385056118,0.30608306878392094,-0.2251662506386646,nan
1740797237.151258,0.2429637064295351,0.170534157553108,-0.2704600237190034,0.040959559646251524,nan
1740797237.1551638,-0.02195566730160101,0.35762212019314865,-0.6188907584372642,0.35388928896228766,nan
1740797237.1590698,-0.2951531487488204,0.20292702591349362,-0.42573037352285537,0.43283444548450384,nan
1740797237.1629758,-0.5431571650608747,-0.33217451024739436,0.032357047618196626,0.18047545814719182,nan
1740797237.1668818,-0.5942615021146349,-0.7859722764967421,0.21205781929753575,-0.21044900711107994,nan
1740797237.1707911,-0.30213106782642346,-0.6573243845722414,-0.049922147703241826,-0.43410285810024474,nan
1740797237.1746972,0.21774948635660912,0.015339191505756938,-0.3435460724305352,-0.3490531057447308,nan
1740797237.1786032,0.6050892207633287,0.6518229724459607,-0.18749198951796459,-0.0763420080970169,nan
1740797237.182509,0.5681706935613079,0.7327910359969376,0.36891187336613346,0.15418382499082464,nan
1740797237.186415,0.16909341255615787,0.31654019268884026,0.7651287706238241,0.21926464547685276,nan
1740797237.190321,-0.23912041003647716,-0.10726095759896691,0.5535626889687997,0.162317806970682,nan
1740797237.194227,-0.3594072427298804,-0.2046218710504189,-0.09861006264653446,0.08503931846849605,nan
1740797237.1981328,-0.2057520870120775,-0.10753068107001944,-0.5975415856112799,0.03142904368669222,nan
1740797237.2020388,-0.01376822643881065,-0.12635308113381707,-0.5570424802280591,-0.01510682267288979,nan
1740797237.2059448,0.04810274507050245,-0.2961270549305097,-0.151156321642609,-0.06351673330061934,nan
1740797237.2098505,0.023415466324915344,-0.3479626305780368,0.16152885258070973,-0.08758972839781454,nan
1740797237.2137566,0.038386764567707746,-0.1044645824422127,0.1538435269382856,-0.06687038006445584,nan
1740797237.217666,0.10542596627914635,0.24990693037343495,-0.009286504941789628,-0.02395728168450358,nan
1740797237.221572,0.11628185748619002,0.3806978027703617,-0.06603417235839358,-0.001647355412680802,nan
1740797237.225478,0.011603734303274625,0.21005464460292475,0.0216270225437223,-0.013073965735680669,nan
1740797237.229384,-0.11526077883279785,-0.01123230026105239,0.09485960123010788,-0.030658037473777124,nan
1740797237.2332897,-0.1250335541332149,-0.04023567498378243,0.05967503334441127,-0.02101403977964984,nan
1740797237.2371957,-0.011497073353239518,0.0672586440544252,0.0072883324654030215,0.023596359270055732,nan
1740797237.2411017,0.08377025136554635,0.07635513617828635,0.061680330801347646,0.08651007513880546,nan
1740797237.2450075,0.046382520587924726,-0.08981741104285657,0.1923182238625966,0.13866967235651811,nan
1740797237.2489135,-0.066731632994187,-0.2564235309663904,0.2410872832226881,0.14051897240814984,nan
1740797237.2528195,-0.09889388039329283,-0.2473318546757759,0.10604396304872428,0.05524673903438569,nan
1740797237.2567253,0.007416850375366806,-0.1086443498427203,-0.15882743869695604,-0.10671552197214154,nan
1740797237.2606313,0.13559034531460168,0.0004621752958731957,-0.4152479038257419,-0.2544683257394762,nan
1740797237.2645407,0.13927606045479476,0.06247712775029401,-0.5446391208301615,-0.26412931865739675,nan
1740797237.2684467,0.023019102187511478,0.20137460002654722,-0.46588383309015124,-0.09546169527165715,nan
1740797237.2723525,-0.0711041155627659,0.4096218312773105,-0.13579743416433196,0.14092351437970227,nan
1740797237.2762585,-0.05320253170816385,0.427693750045815,0.3705471186191306,0.2644614064173644,nan
1740797237.2801645,-0.003527696245688281,0.04258119706268796,0.7932214181759726,0.19351489932512644,nan
1740797237.2840703,-0.05605162773061691,-0.5323424398331245,0.8204404227460964,0.024224133124533448,nan
1740797237.2879763,-0.18970890075484337,-0.7546296060450925,0.3821702429278291,-0.07548432964819234,nan
1740797237.2918823,-0.20937261556378878,-0.33430648318999145,-0.21616315246939624,-0.04445227515868218,nan
1740797237.295788,0.021233175470091327,0.3655820321987803,-0.5463105840180138,0.020384513310945904,nan
1740797237.299694,0.36036361559812596,0.658628396863529,-0.4759233815864068,-0.005897125146993567,nan
1740797237.3036,0.47513705727766914,0.28589055875454017,-0.27658947941021617,-0.12124773311644287,nan
1740797237.307506,0.18682601304819918,-0.28329356459630956,-0.2654006746213137,-0.19765974343457465,nan
1740797237.311415,-0.2967102563408252,-0.38743236423406824,-0.39127028194743185,-0.1302551036578646,nan
1740797237.315321,-0.5463303313568322,0.06280792959039633,-0.2847520458522252,0.044331397463384006,nan
1740797237.3192267,-0.33170142287199206,0.49361521179127393,0.25120668583102773,0.19091637673056822,nan
1740797237.3231328,0.14182377158984424,0.3556813634462746,0.8945305322595473,0.21565043816112356,nan
1740797237.3270388,0.4366836221606809,-0.23366367838356583,1.0615253598795167,0.13893053369974456,nan
1740797237.3309445,0.31554393320202345,-0.6479678401009593,0.5234924288128375,0.03943094360604215,nan
1740797237.3348505,-0.04924745078199451,-0.488208697819637,-0.3135317741343814,-0.0371102716034229,nan
1740797237.3387566,-0.29075645985882703,-0.0006146018676895617,-0.7999735763729021,-0.09517415667969575,nan
1740797237.3426626,-0.2312451212582413,0.28915912782005737,-0.6772953549772132,-0.14148046442908097,nan
1740797237.3465683,-0.01998146876450937,0.21934451649982528,-0.26324364639620607,-0.15848443915562194,nan
1740797237.3504744,0.09069285998400335,0.10926549328983692,-0.026437462735500652,-0.13076542535375787,nan
1740797237.3543804,0.04356218391452687,0.25458270473468453,-0.07347722016309446,-0.06821316119859208,nan
1740797237.358289,0.005986461110473117,0.4901545431157406,-0.1165038011080974,0.015560793751899778,nan
1740797237.362195,0.1208910400117094,0.390300305928673,0.10802855837650047,0.12525921505716073,nan
1740797237.366101,0.2940542581966842,-0.15809345045087994,0.4987272785230698,0.25000605805786974,nan
1740797237.3700068,0.2793437236657564,-0.7460378712354399,0.7016389474851966,0.313805402878899,nan
1740797237.3739128,-0.031150802748920115,-0.8650972509251605,0.49667258902691297,0.21124634572848774,nan
1740797237.3778188,-0.4456245486792691,-0.4463652702887998,0.006671868124967297,-0.06613871328266001,nan
1740797237.3817246,-0.6293616060908184,0.11472762068275742,-0.4523217220711658,-0.35637125592079233,nan
1740797237.3856306,-0.41630884332308177,0.4234108140310263,-0.6501869029096983,-0.4358926044463829,nan
1740797237.3895366,0.048354487681555404,0.4497284322779631,-0.5576071677276653,-0.2343586096196295,nan
1740797237.3934426,0.4604599273626203,0.40517038581821907,-0.2703732235105234,0.07824799012987481,nan
1740797237.3973484,0.6165806428925359,0.38733374623553135,0.08439766626149914,0.2518447587454249,nan
1740797237.4012544,0.5168289933234713,0.28343317373419674,0.3709485826501351,0.20231822777195443,nan
1740797237.405163,0.2617209144768361,0.006462053669666107,0.469556712386676,0.07016904891268037,nan
1740797237.409069,-0.07557906062295934,-0.31720239487601737,0.3545651083438287,0.030533266186128477,nan
1740797237.4129748,-0.44049775453515255,-0.4800353177331332,0.1338378744253061,0.08595356523976963,nan
1740797237.4168808,-0.7069722805118078,-0.44292621780859265,-0.04555317828900127,0.08876842159492448,nan
1740797237.4207869,-0.6869221129626637,-0.34144424903009785,-0.14124746782218464,-0.04583952664061425,nan
1740797237.4246926,-0.2939625442782123,-0.2526919208974609,-0.22397027006251718,-0.2105475064690337,nan
1740797237.4285986,0.30494542775574307,-0.08026417472000111,-0.32601171515926736,-0.2265313003188445,nan
1740797237.4325047,0.7519726949115818,0.2555118589717353,-0.3362281494727701,-0.06411497367641472,nan
1740797237.4364107,0.7644520108003546,0.5957877326608777,-0.11758125231161393,0.1131845686833346,nan
1740797237.4403164,0.36557920587461357,0.6513114641785237,0.26957775782259014,0.13706510089640508,nan
1740797237.4442225,-0.14320166052839609,0.35447407147332216,0.5363615688034942,0.023103139999915402,nan
1740797237.4481285,-0.44085404883141865,-0.012512637026409512,0.42488440793039883,-0.0665392244674196,nan
1740797237.4520369,-0.42958492241408835,-0.1359190120594856,-0.005610449394835641,-0.02742006023818246,nan
1740797237.4559429,-0.2500349367851052,-0.06153653337469409,-0.4009270010307398,0.0741069512693657,nan
1740797237.4598486,-0.09384285430920723,-0.1343564444809254,-0.4433287401785394,0.10588815525680763,nan
1740797237.4637547,-0.023593065966542988,-0.5157188525623833,-0.14423984189050376,0.03987169500421757,nan
1740797237.4676607,0.03237040727585435,-0.8821106851557686,0.19990372251673957,-0.03254534756566553,nan
1740797237.4715664,0.14193633666951028,-0.736503568130707,0.30998549720824975,-0.040173807627799596,nan
1740797237.4754725,0.25933677673811645,-0.0060902150147618475,0.15350266954532604,-0.023566933993814685,nan
1740797237.4793785,0.2648582118956401,0.7962838485293674,-0.09402261194089186,-0.05510541636738225,nan
1740797237.4832842,0.10658159233274311,1.0742064725461702,-0.24158082422968613,-0.11010496798204275,nan
1740797237.4871902,-0.11412487569836523,0.7417003956917315,-0.20966533633848328,-0.08400164564072633,nan
1740797237.4910963,-0.21724945228789036,0.22777687117928158,-0.029077512117650126,0.05290033045506141,nan
1740797237.495002,-0.11887081317811811,-0.06925343846950889,0.19948861047210603,0.1762987337197546,nan
1740797237.4989104,0.06829545024058929,-0.18677880539854294,0.3347330230848212,0.13651778764419503,nan
1740797237.5028162,0.12863406424102974,-0.3944910847780111,0.2608698356679466,-0.04815239228508565,nan
1740797237.5067222,-0.03641818501403603,-0.7086637945898195,-0.00431588190792499,-0.18411440583119915,nan
1740797237.5106282,-0.2780887286641784,-0.7962586471036895,-0.2793517513662709,-0.11429967019662719,nan
1740797237.514534,-0.3184623359893312,-0.4088408028734415,-0.3598956561287438,0.09549413573871829,nan
1740797237.51844,-0.034496246782093655,0.22565038048781508,-0.21537376519858484,0.22299136893952923,nan
1740797237.522346,0.3730944601180567,0.593324606473963,-0.011455666516002884,0.1352381400048125,nan
1740797237.526252,0.5321773583705934,0.46673376619124934,0.08783422756633424,-0.07260462318382647,nan
1740797237.5301578,0.260667712016649,0.15599878125169517,0.10120618500641543,-0.19708488280113537,nan
1740797237.5340638,-0.22273590944408433,0.11668055160823934,0.15913080216527462,-0.1486358853144457,nan
1740797237.5379698,-0.48367102042230675,0.3855846789587282,0.2723859757183759,-0.01853415203552583,nan
1740797237.5418756,-0.2955866773604278,0.531209510999455,0.26756150314560256,0.05711260521179813,nan
1740797237.5457852,0.1299980810941574,0.1800982277417441,0.01731365733738576,0.0459384393174527,nan
1740797237.5496912,0.36001775390702895,-0.5102001808667358,-0.3190989244171571,0.013084256933018797,nan
1740797237.5535972,0.1853585987333883,-0.9835943211690336,-0.40278424091037224,0.011284218706913924,nan
1740797237.557503,-0.17752912766379658,-0.8556423231274614,-0.10766340137136232,0.030094629200800284,nan
1740797237.561409,-0.34076060595801727,-0.27338082333652935,0.2708330463879407,0.046927378518626994,nan
1740797237.565315,-0.16526642543058587,0.2902150363694439,0.29978608200648876,0.06914761553346592,nan
1740797237.569221,0.1198539835437026,0.5115538705346824,-0.09514229992928123,0.09253446517014391,nan
1740797237.5731268,0.21268648666431664,0.43639317616767737,-0.5028272966222781,0.05835024199577142,nan
1740797237.5770328,0.08582639501435918,0.29715191859549483,-0.4518042509112095,-0.0828660315789016,nan
1740797237.5809388,-0.020628162383295033,0.2291359714651585,0.07721577721011519,-0.2585081806950609,nan
1740797237.5848446,0.06955619701512356,0.19558978482784103,0.6280453650688678,-0.289352628117643,nan
1740797237.5887506,0.2331146753654619,0.10764254074360806,0.7442477454953639,-0.07654275009444637,nan
1740797237.59266,0.2008501273786945,-0.06533905775606366,0.3926087963335444,0.24151101903665745,nan
1740797237.596566,-0.09217714193231126,-0.28444106559331933,-0.10277974322907206,0.383229730438381,nan
1740797237.6004717,-0.39909698880552624,-0.46096408914473525,-0.44773096983816846,0.20842809894683212,nan
1740797237.6043777,-0.43606472042978744,-0.473740287763086,-0.5896322087373136,-0.11952996935192677,nan
1740797237.6082838,-0.20293950633763416,-0.246458197746352,-0.5753959517935258,-0.294833121922681,nan
1740797237.6121898,0.044749249245792114,0.12664720337127994,-0.3678422633881831,-0.18436187543011945,nan
1740797237.6160955,0.12827779349434498,0.37719797856652426,0.066957585049273,0.055547240243304756,nan
1740797237.6200016,0.1508930353143268,0.2905602812942208,0.5447198022731703,0.1784959699264339,nan
1740797237.6239076,0.3048886950418055,-0.029796777227427036,0.7110976007375596,0.1131541591725357,nan
1740797237.6278133,0.5311721543214906,-0.206845703052909,0.40388855822655984,-0.009095926036270803,nan
1740797237.6317194,0.5035255479019286,0.014219448945102747,-0.10223491036402929,-0.05543067483235195,nan
1740797237.6356254,0.021661059062445406,0.43645122141984094,-0.3381559771761535,-0.04202618577715282,nan
1740797237.6395345,-0.6452277120997749,0.5762932032064518,-0.1466136861484844,-0.057417987756500116,nan
1740797237.6434405,-0.9324162932588658,0.1994703491267221,0.1454611302659974,-0.10008978630334324,nan
1740797237.6473463,-0.5516622153946675,-0.381044773106708,0.1197384278612503,-0.07408646994236363,nan
1740797237.6512523,0.16428754329301876,-0.6294347734901453,-0.23257778839057203,0.05227819708039784,nan
1740797237.6551583,0.5681281264003095,-0.38634872404906206,-0.5043735644288964,0.16205721898937994,nan
1740797237.6590643,0.3602666430356237,-0.03465762356293259,-0.36340555606253516,0.12305451254476452,nan
1740797237.66297,-0.10726196027169109,-0.01751666870062062,0.06222488292318429,-0.02641317595877347,nan
1740797237.666876,-0.22471753822040816,-0.28137381411545553,0.36074021386812505,-0.10201380566367452,nan
1740797237.670782,0.2039796746946782,-0.3307504445878096,0.32784106108836986,-0.0036531730254576833,nan
1740797237.6746879,0.7327509752468948,0.14807136340051794,0.15491042641934447,0.1403558458307443,nan
1740797237.6785939,0.7268931066386543,0.8394107408644395,0.11422833904832391,0.11958844180138412,nan
1740797237.6825,0.01906202940666555,1.0833665457884567,0.1880068431485738,-0.08907752224617557,nan
1740797237.6864088,-0.8981018532916507,0.5856942829185303,0.1299734916802322,-0.27185200358425293,nan
1740797237.6903148,-1.3094579251555911,-0.25847793949721287,-0.14708967753984564,-0.22542910814814077,nan
1740797237.6942208,-0.8956987471872198,-0.782650665503101,-0.40122022011997954,0.0003126216918296122,nan
1740797237.6981266,0.03317096775526442,-0.713029227386326,-0.3557026459563034,0.1677675646754712,nan
1740797237.7020326,0.8375213711180601,-0.34682139815756513,-0.07287502746216208,0.14094570731628023,nan
1740797237.7059386,1.0564897661416301,-0.12309608275735416,0.10362642290554783,0.0320550702469039,nan
1740797237.7098446,0.6967648712213712,-0.14421596775388593,-0.010520670227371841,0.027205597227333417,nan
1740797237.7137504,0.13170916721888357,-0.1684930423855565,-0.18411282999500955,0.12924482214293284,nan
1740797237.7176564,-0.23977140524069812,0.021430331429443138,-0.05482617162028921,0.15823946718905738,nan
1740797237.7215624,-0.2875957243359751,0.3659530733522686,0.3792136249935195,0.005610377216537105,nan
1740797237.7254682,-0.18921222258814208,0.6371249690908604,0.6839652257278367,-0.2007028087144592,nan
1740797237.7293742,-0.20701668535244527,0.6811886773277329,0.4607894844642363,-0.2472187327124871,nan
1740797237.733283,-0.40342559497492336,0.4876726066003928,-0.17616530626070043,-0.10808950339950321,nan
1740797237.7371888,-0.5572783249018031,0.10225539961234527,-0.6799215658238766,0.023520540377207067,nan
1740797237.7410948,-0.38070169299198714,-0.3930144204763017,-0.6243745042166011,-0.004380973495322044,nan
1740797237.7450008,0.15727581450698977,-0.8003378670840328,-0.11787588181925522,-0.09273959649660848,nan
1740797237.7489066,0.7330569073783995,-0.8460927715743735,0.3449298490907613,-0.021269840213830937,nan
1740797237.7528126,0.9267453237536565,-0.4340367427445905,0.3816451091179793,0.23606209037919515,nan
1740797237.7567186,0.5954032484076827,0.15813542460098923,0.0383473881882915,0.42433447803267216,nan
1740797237.7606246,-0.013792464251407292,0.46355820351784455,-0.3263482127344812,0.2894158046898166,nan
1740797237.7645304,-0.5094800930952105,0.2859240482615977,-0.38059190370232665,-0.10391851740931726,nan
1740797237.7684364,-0.6779788038577234,-0.07259862031430446,-0.05487498342063983,-0.4140767232888407,nan
1740797237.7723424,-0.5561072429670747,-0.12504597955883523,0.4388588204177394,-0.386506327741276,nan
1740797237.7762482,-0.2647147925482323,0.26029901370317027,0.7378004888525661,-0.11047921718168162,nan
1740797237.780157,0.11220080073100586,0.7035884840053104,0.5481766690163493,0.11932626481098836,nan
1740797237.7840629,0.4559380678381753,0.7210606069967106,-0.10858027074093146,0.14125510787917286,nan
1740797237.7879689,0.54599100573521,0.22589745532941613,-0.8080229530987254,0.05462126705702098,nan
1740797237.791875,0.23276919105243427,-0.42940736406440416,-0.9865266779105022,0.02679576306429337,nan
1740797237.7957807,-0.2891987577424248,-0.850463564419425,-0.440661294145807,0.07122029070108221,nan
1740797237.7996867,-0.5255901686997648,-0.9251045428429092,0.4095566054512369,0.07827294600398453,nan
1740797237.8035927,-0.1653789445567356,-0.7423070229600401,0.8525150135193381,0.010655501565802684,nan
1740797237.8074985,0.48091310051014885,-0.3423257243661982,0.5601971621980664,-0.03738225028626479,nan
1740797237.8114045,0.6895708085995229,0.28299732105390113,-0.09166154661417238,0.0032456768436226265,nan
1740797237.8153105,0.10212007801262098,0.9495953246049501,-0.43481739273739367,0.04962248349735803,nan
1740797237.8192165,-0.7620001775378039,1.2321275523574935,-0.21876995198480917,-0.021307576838713732,nan
1740797237.8231223,-0.9497806114547512,0.8303735725481282,0.1701589436445775,-0.16703481671348921,nan
1740797237.827031,-0.11951863359649223,-0.02668237182127314,0.211860714579436,-0.19161870611181064,nan
1740797237.830937,0.9624267566391017,-0.6913354029388004,-0.13101158197138993,-0.0040724671764318906,nan
1740797237.8348427,1.1377276565089613,-0.7074394377989578,-0.40489312048915876,0.21457707101881082,nan
1740797237.8387487,0.10621062848969268,-0.2634202266901063,-0.23929412552077653,0.1994941292142218,nan
1740797237.8426547,-1.160010075319591,0.04982989441701961,0.21308778463744682,-0.05445716307956284,nan
1740797237.8465605,-1.3691500939651917,-0.08411914267293587,0.48236982160231395,-0.24308488558875804,nan
1740797237.8504665,-0.2552873347687609,-0.37781020752280053,0.33543939299533476,-0.10858244708762842,nan
1740797237.8543725,1.1302711109302983,-0.3318713641152663,-0.011444863581447853,0.21861298576515917,nan
1740797237.8582783,1.4972724312893468,0.13657734785646522,-0.22628136195154763,0.34083242619789444,nan
1740797237.8621843,0.597656149117042,0.5834686478403112,-0.25262972915663573,0.06824356643787718,nan
1740797237.8660903,-0.6316337193739376,0.5608154935723484,-0.26089699742185624,-0.32462412510324723,nan
1740797237.8699963,-1.1154071440059399,0.13141633054362656,-0.2987355531005807,-0.39696861221765944,nan
1740797237.8739045,-0.6697454136632811,-0.22833574177932028,-0.18136579415571966,-0.055949975675779855,nan
1740797237.8778102,0.034011506203381094,-0.18690287869485078,0.20310043089386853,0.32982679936914233,nan
1740797237.8817163,0.3433772997364953,0.10294385707667535,0.6127232668544589,0.35629629975478816,nan
1740797237.8856223,0.2500383523425877,0.2493527677068962,0.6414373007073039,0.03653267211680424,nan
1740797237.8895283,0.15034640143575373,0.09610423627131597,0.19508176509267236,-0.25273544567618705,nan
1740797237.893434,0.2179481104977278,-0.15643296404825774,-0.35169802871333844,-0.23543617812749856,nan
1740797237.89734,0.22874057106117426,-0.2702871910372871,-0.5479065029113691,-0.0291850816434423,nan
1740797237.901246,-0.02255501016084423,-0.2662389888202349,-0.34050210787844304,0.06624880316277379,nan
1740797237.9051518,-0.3541181421950579,-0.318482028873921,-0.05957894353022672,-0.025601224617606857,nan
1740797237.9090579,-0.3930923320798286,-0.4283739344692379,0.027141323741362498,-0.08643897841901954,nan
1740797237.9129639,-0.06324668852483852,-0.34908062614940233,-0.0010030597662267218,0.0672150283311825,nan
1740797237.9168696,0.29546731313653557,0.10643872106338384,0.07088672938159153,0.3078738883963291,nan
1740797237.9207792,0.33527643177857597,0.7544471675109277,0.2302039231877844,0.34138909812068874,nan
1740797237.9246852,0.09977047189769656,1.1340782334855888,0.24734365512878898,0.07914701560232743,nan
1740797237.9285913,-0.09458552574539342,0.929718948077934,0.03563740487051894,-0.24615657745121086,nan
1740797237.932497,-0.10419881661096068,0.25968460891653933,-0.17112310538275718,-0.36095275740403265,nan
1740797237.936403,-0.11140904917790563,-0.4627493680548599,-0.10811937444392315,-0.25501397821630956,nan
1740797237.940309,-0.27937416308870017,-0.9030607128677451,0.14705482927041005,-0.12815603051434687,nan
1740797237.9442148,-0.4088586978691447,-1.0054748633560824,0.2507270497977699,-0.08492508425297089,nan
1740797237.9481208,-0.1353023966799459,-0.8748924940585191,0.0461088144753973,-0.00772599476795502,nan
1740797237.9520268,0.5182252418761712,-0.5684777201139397,-0.22161106404393546,0.22359393605648428,nan
1740797237.9559329,0.9691148466989918,-0.0666259442222401,-0.24243536264547605,0.4830951153199243,nan
1740797237.9598386,0.6323997530120695,0.5803580283419096,-0.07678050116743444,0.4891156268328745,nan
1740797237.9637446,-0.35994652491825224,1.1503699802012026,-0.06280713872221287,0.14688352227405163,nan
1740797237.967654,-1.1495004296606948,1.3402244934343714,-0.28858522110812734,-0.29593947554293,nan
1740797237.97156,-0.9717610968823336,0.9754211129792859,-0.3759572249322205,-0.4958985049882595,nan
1740797237.975466,0.04102532336098655,0.15914459571838274,0.03855381897180052,-0.36737743461289,nan
1740797237.9793718,0.9588951031767196,-0.7477481506729888,0.7128926516611924,-0.11978727201307762,nan
1740797237.9832778,0.9705211110847726,-1.3034963735444232,0.9484315570887067,0.03151774808573883,nan
1740797237.9871838,0.1531584743173791,-1.2312723631537836,0.414541605113954,0.08782627548055544,nan
1740797237.9910896,-0.6780941677887139,-0.6014455910572877,-0.3721395676929994,0.1610002750220997,nan
1740797237.9949956,-0.8129272748970569,0.18981735811317818,-0.6080854327656837,0.2401388708646075,nan
1740797237.9989016,-0.2728503423277939,0.6801694457437483,-0.1824759799985775,0.1899942854846127,nan
1740797238.0028074,0.3503381570519997,0.6686627524376552,0.17010913179324536,-0.014677340067736105,nan
1740797238.0067134,0.5462331432903152,0.33383860136883464,-0.18590435193739063,-0.17747970761451803,nan
1740797238.0106194,0.3067331011869984,0.03019361275708401,-0.8991518147157852,-0.09964276897734177,nan
1740797238.0145288,-0.02172149288864406,-0.03549471025192729,-0.9752552917829898,0.13616919221773213,nan
1740797238.0184345,-0.15880505687771324,0.06937591978294406,-0.010158752307344617,0.22201935137689782,nan
1740797238.0223405,-0.10762218606277613,0.15861304495902132,1.2077056642494535,-0.001389492399559993,nan
1740797238.0262465,-0.03408231962685252,0.13803873875014097,1.532117523885936,-0.3187541994964452,nan
1740797238.0301523,-0.043696883117516516,0.0323865945741353,0.7542306297449873,-0.37568503144503157,nan
1740797238.0340583,-0.10478335507446153,-0.1306645571806405,-0.2208502440208725,-0.10319857103957608,nan
1740797238.0379643,-0.13114340779571199,-0.3544336182758128,-0.5108796259061947,0.20129266114116515,nan
1740797238.0418704,-0.08295218913559513,-0.5647293243906195,-0.2605457879074694,0.24180501924769857,nan
1740797238.0457761,0.008674409454710028,-0.5662274179678916,-0.2677403433996725,0.07123409922128617,nan
1740797238.0496821,0.08156115671704395,-0.2256657908582538,-0.7827722615102232,-0.02066178379372508,nan
1740797238.0535882,0.09922895364487253,0.2999115971231837,-1.1019555549407989,0.08534424698609383,nan
1740797238.057494,0.08660231543424556,0.6308382210829834,-0.5181584663734762,0.18412226563584533,nan
1740797238.061403,0.10899165058758202,0.5442625293361977,0.6286167477598884,0.04951242429664866,nan
1740797238.065309,0.1889664079057408,0.2373233286479924,1.2393703185335465,-0.2212098081865917,nan
1740797238.0692148,0.2381772958521873,0.10375569996254645,0.7814434683445405,-0.30172398446912807,nan
1740797238.0731208,0.11423729408120363,0.23891219975339217,-0.05161388121394504,-0.0625776594882516,nan
1740797238.0770268,-0.20823471104898128,0.288816931860543,-0.23222952945952782,0.23575439625248998,nan
1740797238.0809326,-0.5358721511933114,-0.10551897991004323,0.29099180227567406,0.2520343061374302,nan
1740797238.0848386,-0.5886762040631969,-0.7747797546504084,0.575650416832705,-0.019473731540354075,nan
1740797238.0887446,-0.2732799985597277,-1.0981837777243155,-0.008070342457626155,-0.26432653434995235,nan
1740797238.0926504,0.19980288476297056,-0.6849245648944161,-0.880822981895989,-0.256342174765324,nan
1740797238.0965564,0.5096294951334795,0.1320359764307512,-0.9934602758083597,-0.1009493092871944,nan
1740797238.1004624,0.521174447714269,0.6314190476060343,-0.2496661114688587,-0.004580150222873385,nan
1740797238.1043684,0.34602037113200373,0.5176690111869668,0.31696730029125936,0.06084640624288371,nan
1740797238.108277,0.12788663882425924,0.22909504830335786,-0.06655317203250599,0.27660152595691295,nan
1740797238.112183,-0.12685865414502365,0.3292217272262484,-0.7761478001013,0.5771402722343822,nan
1740797238.116089,-0.4279235138442469,0.717483192839088,-0.520257020091879,0.563204386130194,nan
1740797238.1199949,-0.5880239232785375,0.6882942309576818,0.8903827794865307,-0.009974198844215434,nan
1740797238.123901,-0.3214981845908198,-0.14540304949888405,2.06667822404971,-0.7619294036761777,nan
1740797238.127807,0.33891866698064527,-1.1832435878382315,1.6478111529312036,-0.9660259260282436,nan
1740797238.1317127,0.8395520233381356,-1.3567798423009962,0.03150491826852964,-0.3889347753107166,nan
1740797238.1356187,0.5529437989817033,-0.3686999843968783,-1.066710227901412,0.34662241659587517,nan
1740797238.1395247,-0.46743826044605313,0.793780675747693,-0.792960292257588,0.45989216006103123,nan
1740797238.1434307,-1.3143932142453685,0.8171676812890701,-0.26479384943287226,0.002406198935665769,nan
1740797238.1473365,-1.0327365255212473,-0.44232656896089834,-1.0021210207592717,-0.15714250652771505,nan
1740797238.1512425,0.32696026244440785,-1.5979337103686946,-2.5613850629493307,0.5072144703872529,nan
1740797238.1551511,1.5887581031576294,-1.053087197338066,-2.5833852936967436,1.2767823868007115,nan
1740797238.159057,1.5473390772681495,1.263096151504419,0.36272429175987053,0.8514947312350631,nan
1740797238.162963,0.2058465648323521,3.539292654643046,4.444688667803945,-0.9778016285830003,nan
1740797238.166869,-1.1770836645648173,3.564219438469439,5.876703129242622,-2.6488796721899517,nan
1740797238.170775,-1.3364447221571345,0.7157314016429196,2.824378222044181,-2.2292114004485724,nan
1740797238.1746807,-0.2541185731573865,-3.3337563215716557,-2.414868638540253,0.43322612480788325,nan
1740797238.1785867,0.8826012104050047,-5.787148197638469,-5.54100277235805,3.2278782860868653,nan
1740797238.1824927,0.9243278444588373,-4.772119684393607,-4.4203706479237805,3.6839847502547967,nan
1740797238.1863985,-0.1261614430109325,-0.6931023988035737,-0.779341021573072,1.324983688661436,nan
1740797238.1903045,-1.2209470874246455,4.015452101718422,2.1080511533717474,-1.9777036460142,nan
1740797238.1942105,-1.3454794578904545,6.472845726737845,2.732660149231036,-3.8732301696240223,nan
1740797238.1981163,-0.4032013952436912,5.201324086881772,1.9784459318557968,-3.4839786230729834,nan
1740797238.202025,0.8619119712658387,1.0599152541076706,1.0601471326432872,-1.5307345722635903,nan
1740797238.205931,1.6069718392299221,-3.355742789069281,-0.03925480574136757,0.9355506476786493,nan
1740797238.2098367,1.4892086648757075,-5.475887139608012,-1.6618254754310664,3.2930465560601245,nan
1740797238.2137427,0.7191458480688029,-4.442425917666236,-2.855333456178361,4.842944408656645,nan
1740797238.2176487,-0.2270461108500114,-1.459886741194959,-1.9008513543106906,4.347542927176979,nan
1740797238.2215545,-0.9064742240544374,1.3960250702945745,1.2359964862369395,1.0048969686549378,nan
1740797238.2254605,-1.1196627492412095,2.803853540635351,3.880127160708314,-3.9199490651955977,nan
1740797238.2293665,-1.0071027882019639,2.83192509817069,3.1023075437276013,-7.133756911913262,nan
1740797238.2332726,-0.8992052085958888,2.22830354645527,-0.7672530111510675,-5.877084694558818,nan
1740797238.2371783,-0.9118450475930793,1.3745166096732857,-3.9313221395296583,-0.7565858686995675,nan
1740797238.2410843,-0.6798499696462698,0.10449578449462316,-3.056148516416341,4.344519377332761,nan
1740797238.2449903,0.3061787995598579,-1.5688120363127847,0.8992018689618791,5.664676682267801,nan
1740797238.2488985,1.9340586366645982,-2.907932764811982,3.5224266548306336,2.9992847949921146,nan
1740797238.2528043,3.163627741491004,-2.932577761110915,1.8015288721025315,-0.3858808836929378,nan
1740797238.2567103,2.8020678847594533,-1.4590951881065846,-2.4258706982032527,-1.268798663868783,nan
1740797238.2606163,0.748756453491829,0.5490805148746077,-4.409808360691097,0.3193595945617402,nan
1740797238.2645223,-1.6932661833514837,1.8261553497219027,-1.6881835910084257,1.5074451776251994,nan
1740797238.268428,-2.99270803023202,1.9519625627482728,3.2549239740894826,-0.02981725102092094,nan
1740797238.272334,-2.857684964641307,1.53525113125478,5.701118578386139,-3.4568939315831106,nan
1740797238.27624,-2.2656464662784486,1.2798944574470887,3.567301278180513,-5.607806183639928,nan
1740797238.280146,-1.930549966661503,1.0754604559191103,-0.8848229760818701,-4.149519348690187,nan
1740797238.284052,-1.1083313313540686,0.2029125900653534,-3.881976234722832,0.27415522081704635,nan
1740797238.287958,1.4938023842205594,-1.577420936163949,-3.8742124032447456,4.802191689318895,nan
1740797238.2918637,5.453893883336574,-3.3395962396595484,-2.1738277178946754,6.796999868131165,nan
1740797238.2957733,7.827102723106828,-3.58379942180335,-0.6124465208586174,5.490832107954906,nan
1740797238.2996793,5.45123666144868,-1.610724913500588,0.4254621082329295,1.8388519242716697,nan
1740797238.3035853,-1.5063849482449585,1.6463384335185258,1.4861074668943155,-2.4658954323811626,nan
1740797238.3074913,-8.61291923962039,4.143055547614202,2.464704752216095,-5.662381068441702,nan
1740797238.311397,-10.480604363995306,4.18879210660534,2.4695102232521986,-6.300577482252928,nan
1740797238.315303,-5.532345509564272,1.6987519101582362,1.2325389031098288,-3.900016414332802,nan
1740797238.319209,2.4338891933484508,-1.685275173141553,-0.1686962028808903,0.36902203401294253,nan
1740797238.3231149,7.559412452345072,-3.6915221653578465,-0.5555007715314647,4.0200423136044305,nan
1740797238.327021,6.942539405256954,-3.0145494598771485,-0.2664599655239665,4.906975429818772,nan
1740797238.330927,2.5747081599635306,-0.313474380791376,-0.7921856098020114,2.9133932055461855,nan
1740797238.3348327,-1.2998649466727956,2.2148250817543285,-2.6154312717712,-0.02235182004740113,nan
1740797238.3387387,-2.3100849366100973,2.5487281908087573,-4.0207998268944225,-1.6856317691776133,nan
1740797238.3426497,-1.4245926191471598,0.5549827172072211,-2.7256100864052186,-1.4366306167625393,nan
1740797238.3465557,-0.8767438305451521,-1.8534490212277788,1.3029876939809464,-0.37115269411306323,nan
1740797238.3504615,-1.3904132527219346,-2.442810669582765,5.207049576237193,0.12444458075771773,nan
1740797238.3543675,-1.7636849852585565,-0.7526581330826368,5.80137152170331,-0.2656524028344791,nan
1740797238.3582735,-0.7987746393043701,1.5143583460134717,2.66871043069979,-0.8282970128110746,nan
1740797238.3621793,1.0259627330010144,2.269816793870048,-1.537940160681428,-0.8728261229893722,nan
1740797238.3660853,2.0792484218773843,1.1515339440444314,-3.771504888819302,-0.42402306844587717,nan
1740797238.3699913,1.4728429946730726,-0.3016529828348846,-3.249112078641763,0.08273002514328938,nan
1740797238.373897,0.01719105025010752,-0.572422779482466,-1.473642090693738,0.446067070889844,nan
1740797238.377803,-0.7694092467853748,0.06227273166954388,-0.16172812353649324,0.7882886446969569,nan
1740797238.381709,-0.3115623864344402,0.028632966457861956,0.31766022749201533,1.118385088710776,nan
1740797238.385615,0.5775715053085161,-1.3392601144674923,0.5676766690241593,1.1251482987183241,nan
1740797238.3895242,0.7616188975835294,-2.6101175027049224,0.9266900321742992,0.5573594090284664,nan
1740797238.3934302,-0.0015896673597783945,-1.751318345956594,1.1113551615816728,-0.33759046160314965,nan
1740797238.3973362,-0.9708982322604011,1.2513528817651778,0.8887616119278663,-0.9703248887788164,nan
1740797238.401242,-1.3102045313609776,3.8218046851962364,0.5181454739794431,-1.0188502422478616,nan
1740797238.405148,-0.8412728711419691,3.299648913692599,0.2947062741982822,-0.7241570642954263,nan
1740797238.409054,0.007679740831639394,-0.06738365985743196,0.017570417309678718,-0.5026288704424715,nan
1740797238.4129598,0.7138521946907644,-3.0913468896542167,-0.6567017984002885,-0.39776438883400334,nan
1740797238.4168658,0.9823369895508587,-2.8708322490752693,-1.417623253957115,-0.09467476281412596,nan
1740797238.4207718,0.7461322399289301,0.13748976585610745,-1.3626768559499916,0.5365373054854574,nan
1740797238.4246776,0.13953366775480053,2.6052863871507297,-0.14110938243939275,1.1171744061071922,nan
1740797238.4285836,-0.461817134708355,1.9080152088216407,1.2512364379907548,1.1296642083094202,nan
1740797238.4324896,-0.5884079432394754,-1.1020312627068514,1.320426494190674,0.5405169062753841,nan
1740797238.4363985,-0.09311082972158656,-3.119284258151273,-0.1689409138557914,-0.12322287269602326,nan
1740797238.4403045,0.5805776277355398,-1.994846323528796,-1.6523445872938258,-0.3686873396173057,nan
1740797238.4442105,0.7244355147601218,1.054516781407248,-1.3416289951975042,-0.2755012649851543,nan
1740797238.4481163,0.07734050464501761,2.9323956553985,0.723694897662408,-0.31312376575098677,nan
1740797238.4520223,-0.8420346952701911,2.0158383967638414,2.5447607815770135,-0.676598061794776,nan
1740797238.4559283,-1.2157606839463015,-0.3419437200543227,2.2334931084220746,-0.9828826710116437,nan
1740797238.4598343,-0.7374680986132816,-1.5887037039318874,0.01693041746420575,-0.7165319779725219,nan
1740797238.46374,0.13161501415218266,-0.7954331110045774,-2.0432493242884444,0.1188303425408104,nan
1740797238.4676461,0.710993713511193,0.6199311245018152,-2.2356531349996067,0.936101051987331,nan
1740797238.4715521,0.7821970446487727,0.8008842728589938,-0.8239290995499006,1.1596060190726896,nan
1740797238.475458,0.6370947367789854,-0.40673463243219576,0.5518472575275953,0.7740497411297749,nan
1740797238.479364,0.5451538380667862,-1.4697571225229726,0.7706221566855255,0.2267740470758205,nan
1740797238.4832728,0.3843768210345126,-1.0805999163222726,0.20668802699350028,-0.11684655316979353,nan
1740797238.4871786,-0.09854877597618342,0.36747510505138087,-0.08953566982531938,-0.2829734539514847,nan
1740797238.4910846,-0.7878977077828258,1.3435713039247934,0.2505160291790858,-0.4637730688882193,nan
1740797238.4949906,-1.1690679250062241,0.9523353041875093,0.6539304172222145,-0.647546258838977,nan
1740797238.4988966,-0.8668655232994261,-0.16024199864992283,0.5185809389099343,-0.6142517288960494,nan
1740797238.5028024,-0.09998619653615251,-0.6698340866826814,-0.018890761040575858,-0.26674002273255837,nan
1740797238.5067084,0.5233392420730948,-0.08002925232757675,-0.36781952579075744,0.18047487926525543,nan
1740797238.5106144,0.6375817720144099,0.818513105789515,-0.28576926869593733,0.4194646409048823,nan
1740797238.5145202,0.43225732602318206,0.9060094421893539,-0.10342606706996338,0.38588042359799823,nan
1740797238.5184262,0.3086722919476858,-0.05781374564461353,-0.17402701506006474,0.2777708000698911,nan
1740797238.5223322,0.3519030745784043,-1.2398419116537822,-0.3779055886561216,0.25249074792011594,nan
1740797238.526238,0.27924841661224337,-1.608203745792525,-0.33924593283648535,0.22109327804001813,nan
1740797238.5301466,-0.10967188181819097,-0.8746484959292069,0.007032687097276388,0.014574061879970707,nan
1740797238.5340526,-0.5916900776742297,0.36835258693890116,0.305660351210653,-0.31287245391702717,nan
1740797238.5379586,-0.7382567312616258,1.2619508376574236,0.2642134057878784,-0.4726215755539792,nan
1740797238.5418646,-0.41811207408790824,1.3492848042023111,0.048031380373182525,-0.2727770907314499,nan
1740797238.5457704,0.04926631642848858,0.7615704043196277,0.04518722165259287,0.11660152278647036,nan
1740797238.5496764,0.2742106040338458,-0.04670258543984313,0.32449286168959607,0.31465541188514823,nan
1740797238.5535824,0.22676159743495658,-0.6533642315159052,0.5173590462464865,0.14038871691778596,nan
1740797238.5574882,0.18828346058620077,-0.8524407255546325,0.2813132962114131,-0.1947528703090062,nan
1740797238.5613942,0.31706350488525925,-0.654028767783808,-0.2597530939117551,-0.3300336253509068,nan
1740797238.5653002,0.40670336086673636,-0.2087347075999671,-0.6528418716735817,-0.14152610848989958,nan
1740797238.569206,0.15970893044973258,0.2677127623776754,-0.6277994951986811,0.16322382289150808,nan
1740797238.573112,-0.36683267544744746,0.5603590607129124,-0.3339610186758759,0.30838571321128405,nan
1740797238.5770206,-0.7224217110581355,0.5269329741140534,-0.06325796481270064,0.23359130681300896,nan
1740797238.5809264,-0.5232422279498711,0.17353198168828582,0.10914624674983144,0.09142975013688392,nan
1740797238.5848324,0.1064570469878536,-0.3089390024403195,0.2971895697842743,0.023923576388058435,nan
1740797238.5887384,0.6243734131470623,-0.6141783129305811,0.5026373528589733,0.016121486181515987,nan
1740797238.5926442,0.6011660513553929,-0.5086842472235946,0.5251197612132732,-0.028376557581030137,nan
1740797238.5965502,0.11884449676713225,-0.025689074839611446,0.23584352473059358,-0.13534868007141268,nan
1740797238.6004562,-0.3608555447861851,0.5176863453719313,-0.17627488561267485,-0.23262511839855166,nan
1740797238.6043622,-0.4674242818422261,0.7451241608127444,-0.3653019308069011,-0.24894527564148206,nan
1740797238.608268,-0.22333098503630283,0.5170465003920411,-0.2225234355000628,-0.18376696538878495,nan
1740797238.612174,0.07671249930913672,0.026371791349398297,0.0021527428485393074,-0.07057725212164742,nan
1740797238.61608,0.1963507200859891,-0.39446496332216674,0.01369544867430487,0.07837162912900196,nan
1740797238.6199858,0.13466241446861027,-0.5527374962143945,-0.17847019737927775,0.24853948542268828,nan
1740797238.623894,0.03577079523013934,-0.48646142976055673,-0.3060945505021944,0.3669229041451543,nan
1740797238.6278,0.007550690568038608,-0.32332132375527173,-0.19147044836291643,0.33079868395600576,nan
1740797238.631706,0.04731123688840978,-0.11853203005678412,0.06257676359712533,0.12276380374125609,nan
1740797238.635612,0.0909749737537125,0.1388089381849649,0.25120593833532295,-0.1303286385868936,nan
1740797238.6395178,0.08225517953925895,0.40699473992432084,0.3229973811392959,-0.2560391209532986,nan
1740797238.6434238,0.0014185628965060336,0.5577217392646506,0.3592161375024364,-0.2025406736720059,nan
1740797238.6473298,-0.12747269800669594,0.4881958293582052,0.35413467759289935,-0.08459401377698875,nan
1740797238.6512356,-0.2362430355960703,0.23060248930024946,0.1677546882131685,-0.05184611100577,nan
1740797238.6551416,-0.24456529449280745,-0.08364440884476139,-0.23989229289431774,-0.12611921582134678,nan
1740797238.6590476,-0.1252023742846936,-0.34494185638521546,-0.6271790658427363,-0.1860203465185494,nan
1740797238.6629534,0.0602840776710015,-0.5071268682912147,-0.6559762621980603,-0.10562461611825102,nan
1740797238.6668594,0.208995495491098,-0.5255378908498354,-0.2671371886116696,0.1105956105707546,nan
1740797238.6707692,0.26424320495675063,-0.33880577947435425,0.22478988609580738,0.330419341257778,nan
1740797238.674675,0.24285954428503717,0.02638178757989485,0.459480629615089,0.41012312541721513,nan
1740797238.678581,0.17591948284983613,0.37463166130749553,0.3852665617678225,0.3006702299925934,nan
1740797238.682487,0.05291887928493135,0.469063636447106,0.2160599947250416,0.06447116459307815,nan
1740797238.6863928,-0.14309508862252207,0.28294485223480265,0.09483954313302995,-0.17893577302148259,nan
1740797238.6902988,-0.3520367212471847,0.061265401172725165,-0.055898070498447285,-0.322472947309883,nan
1740797238.6942048,-0.43324705051798984,0.050510067195450724,-0.30363353409845345,-0.32291341222621356,nan
1740797238.6981106,-0.2839396375603534,0.18255381177938357,-0.4622885532405665,-0.2172477654831043,nan
1740797238.7020166,0.03903574406427816,0.12819537294931588,-0.2531714334342591,-0.08846069420284429,nan
1740797238.7059226,0.34020109486215216,-0.27823521958333947,0.2769248917217983,0.005385338221372652,nan
1740797238.7098286,0.4420740019905409,-0.7387424197828727,0.6548062028198863,0.07536568260920909,nan
1740797238.7137344,0.3187295779968325,-0.7389683932967466,0.43778147903538966,0.16392397864964917,nan
1740797238.7176397,0.08103676607897416,-0.12952165718222378,-0.2527475652687335,0.26119609463698096,nan
1740797238.7215455,-0.14109666014787856,0.6268160014734864,-0.7795402395696721,0.28365002308563003,nan
1740797238.7254515,-0.27876073038979765,0.8823786248000094,-0.6278396275987879,0.16290964093666693,nan
1740797238.7293575,-0.30852217477100036,0.4681372032229013,0.06376904758100001,-0.05077664540948747,nan
1740797238.7332635,-0.21598961999248484,-0.15007255837903438,0.6662630342137152,-0.2094050510023211,nan
1740797238.7371693,-0.017268103098222198,-0.3995201303307105,0.7058913840502065,-0.2129399980648575,nan
1740797238.7410753,0.19755263461163722,-0.20235202021285886,0.2663007976828977,-0.11577515955117462,nan
1740797238.7449813,0.294405329017191,0.028604475512122456,-0.22494827372583592,-0.05711021168603835,nan
1740797238.748887,0.20491582125323438,-0.05100461833673883,-0.46908159207774663,-0.08846620357243301,nan
1740797238.752793,0.0009595284930940245,-0.30076045678091734,-0.4685120702026573,-0.10967724689086004,nan
1740797238.756699,-0.16239764243647214,-0.31026538107562013,-0.32432264090166,-0.0025890402424636103,nan
1740797238.7606049,-0.18429434383936513,0.053137962325459316,-0.053209876699016515,0.1960493217155004,nan
1740797238.76451,-0.09119991476410849,0.45334298458736816,0.3193079643088785,0.30454593017761894,nan
1740797238.768416,0.01958310589895156,0.47712629572488924,0.6032621145354082,0.19545608451530097,nan
1740797238.7723217,0.08192056070256964,0.11526590016521025,0.5483575338508686,-0.04741590129217334,nan
1740797238.7762277,0.09164294259565643,-0.24667098126560352,0.13429275185002754,-0.20687882088497153,nan
1740797238.7801337,0.06147963595851742,-0.2867472625901753,-0.34369683838766435,-0.16076472014407564,nan
1740797238.7840395,-0.007919667453038386,-0.08024859663184848,-0.5520827258155563,0.0016441327018419149,nan
1740797238.7879455,-0.09508178892340162,0.06602281808358564,-0.4384661198990659,0.09957814405609614,nan
1740797238.7918515,-0.13006501644760562,0.016348591723033327,-0.2091270724823981,0.061069660902064046,nan
1740797238.7957575,-0.04856644716091792,-0.07419345191053026,-0.02947120369015044,-0.03057566114757771,nan
1740797238.7996633,0.1148945553442332,-0.03067454105664081,0.1364878861003904,-0.07126428175297213,nan
1740797238.8035693,0.22144459302299777,0.08321228271338105,0.3557490850161171,-0.059888232381578234,nan
1740797238.8074753,0.15238335533416963,0.07150552041570075,0.5143909145828433,-0.06062402684449004,nan
1740797238.8113842,-0.05821878342324631,-0.08507432316399997,0.41220090919806246,-0.08058014179912092,nan
1740797238.8152902,-0.23885794258408796,-0.16087175779248425,0.05741337804933475,-0.04660316307765248,nan
1740797238.8191962,-0.2425571513822795,0.02238309140436844,-0.27048354369601785,0.08237526758147333,nan
1740797238.823102,-0.08528065126752808,0.3186481853491864,-0.3307721722361605,0.2254167706932318,nan
1740797238.827008,0.08554636497519742,0.38098761334697695,-0.21210160943925838,0.24705923419926137,nan
1740797238.830914,0.14794161495942515,0.06766264162153146,-0.1915671873715582,0.10832605112054065,nan
1740797238.8348198,0.1108952955372076,-0.36014888841296244,-0.32441041319139446,-0.08672025788135031,nan
1740797238.8387258,0.06684173089593601,-0.5033903262402726,-0.3297963833964183,-0.20415270827242685,nan
1740797238.8426318,0.06925127574080095,-0.2513518462508885,0.024230540962397507,-0.20719629552473612,nan
1740797238.8465376,0.08203727453317716,0.12093595093031123,0.5274102338938517,-0.14804805303762775,nan
1740797238.8504436,0.041137976979411316,0.27553552477431076,0.6953294276678582,-0.06613919366318087,nan
1740797238.8543496,-0.06380900957414264,0.1617871081572614,0.35325151080679495,0.046962190454189666,nan
1740797238.8582585,-0.18066657602585973,0.007571365556083371,-0.10895243411205563,0.17158172139391398,nan
1740797238.8621643,-0.24623979778273747,0.01355350889036686,-0.1959383491885,0.2108229993992341,nan
1740797238.8660703,-0.22359986368563683,0.13566636612081356,0.06061512031589352,0.08516491447465825,nan
1740797238.8699763,-0.10026139812140865,0.18111924636439516,0.1262955005529743,-0.1277480671007638,nan
1740797238.873882,0.1095926825263951,0.05292888190001503,-0.3238975331418373,-0.2179888225646332,nan
1740797238.877788,0.3355911488770296,-0.15589934157014967,-0.8909558238493638,-0.06173410151182927,nan
1740797238.881694,0.4462038124561099,-0.2865936530942187,-0.8457225934953168,0.2066825063103522,nan
1740797238.8856,0.32568986543764633,-0.26967910081223756,-0.018238395879118147,0.30353147401530717,nan
1740797238.8895059,-0.008006510736170092,-0.144910555740203,0.906292068840622,0.10046559293978807,nan
1740797238.8934119,-0.36860950486541105,0.016656256859143133,1.0995673897377427,-0.2174502105176009,nan
1740797238.897318,-0.5190917315481348,0.16086887927710725,0.4918613131322073,-0.34084190145178983,nan
1740797238.9012237,-0.35720746079807053,0.24196599578648625,-0.20715385410627707,-0.17110759223746697,nan
1740797238.9051323,-0.0021276334440511863,0.22709042024408232,-0.3689666011660352,0.08179837094823726,nan
1740797238.9090383,0.2989918854754481,0.13279762045381718,-0.12158701011371288,0.15121207553932603,nan
1740797238.9129443,0.36041708734808786,0.024296673933134314,-0.04285639205446648,0.017489754653593884,nan
1740797238.91685,0.18303925782936006,-0.05154705308687841,-0.3292252686056054,-0.09165421387318504,nan
1740797238.920756,-0.07116861848273916,-0.11258547087081956,-0.5388798262606636,0.005787945482700036,nan
1740797238.924662,-0.2120072875172672,-0.18641584117866866,-0.22956702285013939,0.21740595902813603,nan
1740797238.928568,-0.15271291552684157,-0.22541448065401132,0.3715184873109887,0.28441274629127494,nan
1740797238.932474,0.04187719587957153,-0.13867791002545274,0.5824238856339813,0.09145755671633653,nan
1740797238.93638,0.20939730915107072,0.0635316565493532,0.13020908483827104,-0.1922959229949865,nan
1740797238.940286,0.20918780091025843,0.21201364881651155,-0.44467131660225684,-0.30143978989092635,nan
1740797238.9441917,0.030417474903437085,0.14332052543765453,-0.4045985823908555,-0.1633418996327221,nan
1740797238.9480977,-0.1935625574563453,-0.07519682629559016,0.2778578234547239,0.043650775349101355,nan
1740797238.952006,-0.28981693864389085,-0.16699031615918516,0.8456031043972609,0.10856155805500602,nan
1740797238.955912,-0.19125615531691942,0.04096046321487586,0.6266515697063858,0.013183304574270856,nan
1740797238.959818,0.009036765969179676,0.36242890690115415,-0.1955718696076356,-0.08386400312843488,nan
1740797238.963724,0.15141902714188693,0.4050927550751693,-0.8159252449975186,-0.052633572708670896,nan
1740797238.96763,0.1594848169901203,0.017869000485749787,-0.7201010590626544,0.0694218704746704,nan
1740797238.971536,0.09212662282461678,-0.4800650442664759,-0.17503188471827832,0.14842163547888898,nan
1740797238.9754417,0.050596215707710036,-0.601750182713002,0.2082498807524548,0.11874255165041403,nan
1740797238.9793477,0.056148115233774075,-0.2223137786148154,0.20009339438816023,0.039131367198280045,nan
1740797238.9832537,0.04226080870909014,0.2705047570601877,0.07618029039417248,-0.002656778217847753,nan
1740797238.9871595,-0.03812456670179754,0.3985755748417074,0.11408853369231307,0.0020339115678424335,nan
1740797238.9910655,-0.13258279747629,0.11410688187829873,0.22028050356461892,-0.009783850069452694,nan
1740797238.9949715,-0.143281046140075,-0.17846884724973255,0.15907136529321925,-0.07864573071619863,nan
1740797238.9988797,-0.05037353526350081,-0.1135644064375327,-0.024171182233351626,-0.165998869139331,nan
1740797239.0027857,0.05277105430231081,0.2150818764215626,-0.03960399643915089,-0.19411995113455444,nan
1740797239.0066915,0.06348327470798062,0.3876074675795671,0.1893230382922074,-0.12381780183745585,nan
1740797239.0105975,-0.011122858678967312,0.16253472313323164,0.324177900629785,0.01475999372233686,nan
1740797239.0145035,-0.06612214182617045,-0.2524849199151655,0.01928251680558618,0.15280476581677266,nan
1740797239.0184095,-0.026634848549858106,-0.458275612357222,-0.5669988257482562,0.22953281238725448,nan
1740797239.0223153,0.06647111549581418,-0.30949250168115133,-0.8685205624659398,0.21877638232540814,nan
1740797239.0262213,0.11499990040545041,-0.022148474978328815,-0.5525082140446904,0.1344216811444759,nan
1740797239.0301273,0.08502977319053262,0.13204404968823005,0.09504064826104283,0.02011160241207978,nan
1740797239.034033,0.03495983980141739,0.12770159305144196,0.5335077074059815,-0.07856323994288858,nan
1740797239.037939,0.02060586636176421,0.12974783509964896,0.5989442834739821,-0.14483095130999507,nan
1740797239.041845,0.011785667502702567,0.21083054164536325,0.5729067298919048,-0.19013779338474973,nan
1740797239.0457547,-0.06025177700439162,0.24122097327359773,0.630099878553264,-0.21472891493509344,nan
1740797239.0496604,-0.18298164175380147,0.08447693702860495,0.47774363670600883,-0.17962699802275117,nan
1740797239.0535665,-0.2373520967563851,-0.18371784708597866,-0.23018376275964236,-0.044225135681260797,nan
1740797239.0574725,-0.12362432349150067,-0.3354953464833611,-1.2061819043959476,0.15774904379586152,nan
1740797239.0613785,0.10321147873713345,-0.2531143207817851,-1.5692778199626882,0.30361220268903927,nan
1740797239.0652843,0.26199846256172554,-0.05416752640862366,-0.7636611170962901,0.2785538738249913,nan
