timestamps,TP9,AF7,AF8,TP10,Right AUX
1740797227.0928316,0.25629007960265204,0.8116332297398827,-0.31509291549610535,-0.09426408751718077,nan
1740797227.0967376,-0.2002997267436437,0.6008755497547293,-0.6730359995517906,-0.20054457160282207,nan
1740797227.1006436,-0.4862075620878326,-0.0032449180130121233,-0.6119765382771879,-0.2208063616315003,nan
1740797227.1045494,-0.3694128737356949,-0.7077445013686157,-0.1280244184482125,-0.16576405076763223,nan
1740797227.1084554,-0.022227393947183673,-1.033503483358916,0.45401359521530893,-0.07474468005686727,nan
1740797227.1123614,0.18030720391013175,-0.758732646672952,0.7359013287656357,0.037828101474525394,nan
1740797227.1162674,0.07930577966114313,-0.15088417880859237,0.5631480993601733,0.16590235401142256,nan
1740797227.1201732,-0.1101617339437686,0.3021438769170388,0.11227914679093251,0.25924274736711816,nan
1740797227.1240792,-0.07764526154649226,0.3751270073432669,-0.3076728932486401,0.23874064377726076,nan
1740797227.1279852,0.20119463340336213,0.26178379928618023,-0.5134254367195618,0.09025973841263779,nan
1740797227.131891,0.4279674156700254,0.2568153600922942,-0.5127481651558766,-0.08476943526490789,nan
1740797227.135797,0.32587716125726945,0.3794311034219981,-0.36976178804734017,-0.15555767562898928,nan
1740797227.1397061,-0.04361905966567785,0.39105038151029736,-0.09040854199149266,-0.10220367847037021,nan
1740797227.1436121,-0.3545108159655574,0.1413514462470835,0.3102380016639579,-0.035463498875592726,nan
1740797227.1475182,-0.37606850510341655,-0.22534572626008445,0.6667090039581712,-0.058000697608525845,nan
1740797227.151424,-0.19173204886751197,-0.45337598919077327,0.695262840172794,-0.13403469713289534,nan
1740797227.15533,-0.04399843120265687,-0.47287751775964304,0.25538350761578377,-0.13559330040306933,nan
1740797227.159236,-0.02679519960614898,-0.40710394414847806,-0.4198629546026147,-0.011632235043474557,nan
1740797227.163142,-0.007697427733290648,-0.3147550759076546,-0.8313806663417931,0.1376523680057226,nan
1740797227.1670477,0.146432739463072,-0.07684140867225255,-0.6329984030007452,0.18209679040855237,nan
1740797227.1709538,0.34793528631559106,0.3685254835181254,0.030223544931386105,0.12245842786559093,nan
1740797227.1748598,0.36439458615183035,0.7708689447851063,0.6242626469573408,0.07598342150811277,nan
1740797227.1787655,0.10645967467834055,0.7262488470852893,0.6946482010891397,0.1012091756968632,nan
1740797227.1826715,-0.2289203873778357,0.15562790516940678,0.24909917694865247,0.10047159784648692,nan
1740797227.1865804,-0.3484519164282903,-0.48849824737432374,-0.30426078448944227,-0.049275018955111625,nan
1740797227.1904864,-0.17573408297780915,-0.6348472115830882,-0.5603653568872968,-0.29200485102358925,nan
1740797227.1943924,0.07140327498088768,-0.21430039624569408,-0.4368053007792176,-0.39558297563032446,nan
1740797227.1982982,0.12616192786576444,0.2482939978127668,-0.1317631041324808,-0.20165318478811017,nan
1740797227.2022042,-0.039462192474085486,0.22706775886246694,0.14499007274635556,0.1619744351424893,nan
1740797227.2061102,-0.20154977885652026,-0.19938496571820588,0.3337873466442084,0.37979958473057385,nan
1740797227.210016,-0.14414516601661784,-0.4508961631112179,0.44702719463169754,0.27185145807473987,nan
1740797227.213922,0.10609155800035155,-0.14648179110431198,0.4327212440093127,-0.02145762688873838,nan
1740797227.217828,0.3175013943771407,0.42698267194980194,0.20153512738095605,-0.2035585985486991,nan
1740797227.221734,0.2983535571450082,0.636063155831008,-0.210914397084151,-0.14034104685928278,nan
1740797227.2256398,0.07556270983382503,0.23036169949543275,-0.577334357373701,0.030964783151268917,nan
1740797227.2295458,-0.16097215422550432,-0.3743565162561956,-0.6369227173445047,0.10229093383380773,nan
1740797227.2334547,-0.2524923920795692,-0.5681530335245935,-0.33391483134371447,0.038950753381998306,nan
1740797227.2373605,-0.18873235521855014,-0.20237484034448466,0.11751358361085777,-0.021632905876716454,nan
1740797227.2412665,-0.05932978462115418,0.3071423667353116,0.4150597342122719,0.018258210746195574,nan
1740797227.2451725,0.05903362737275225,0.4760313130145376,0.4153132940812373,0.08270675172190993,nan
1740797227.2490783,0.14169185323281383,0.2297403529510726,0.21630392960215297,0.031915971685799,nan
1740797227.2529843,0.17049769052915764,-0.13103156369314065,0.028310348299303185,-0.13853197715699336,nan
1740797227.2568903,0.10556475660594065,-0.31892159272400794,-0.01939047473025071,-0.26877328671719136,nan
1740797227.2607963,-0.062149675877403,-0.3000862933406718,0.03470142326011835,-0.2104222306332887,nan
1740797227.264702,-0.24266397365572942,-0.18960009368651842,0.0511593474025565,0.011370248662913697,nan
1740797227.268608,-0.27799063536017354,-0.0573132910990461,-0.06751184987944568,0.2334609541127062,nan
1740797227.272514,-0.08395736036531672,0.08916490021353225,-0.2753077576846671,0.32047721025705667,nan
1740797227.2764199,0.23072441960622164,0.21259002836351887,-0.40340418551659524,0.258391346619394,nan
1740797227.2803285,0.4158807455725516,0.2551804445726175,-0.30052086961036395,0.10418617186426384,nan
1740797227.2842345,0.29213068474714887,0.23308570462903158,0.012091596877263642,-0.09042223397642939,nan
1740797227.2881405,-0.06484952458490861,0.21472575559963314,0.3225606904853909,-0.27124874438201,nan
1740797227.2920463,-0.3626484222747785,0.167778373575895,0.4019577368451508,-0.3445474414098117,nan
1740797227.2959523,-0.34674346343081436,-0.06196316590142113,0.22575631241883343,-0.2271243711971494,nan
1740797227.2998583,-0.04241640214158864,-0.4995636654578212,0.005554860803699438,0.03959474373721967,nan
1740797227.3037643,0.25739690553948885,-0.8204190233307311,-0.037169993189542866,0.270896264525901,nan
1740797227.30767,0.2646127507678395,-0.5754409345221774,0.07320379762665773,0.2889086223272322,nan
1740797227.3115761,-0.02649095200650393,0.24960395596274354,0.08717477809584485,0.09656777743997345,nan
1740797227.3154821,-0.3302195348289351,1.01192025823721,-0.15804974571320035,-0.12654868739645495,nan
1740797227.319388,-0.3424650833016177,0.9606462831026222,-0.4843270752347541,-0.20691568332189847,nan
1740797227.323294,-0.028606113798485596,0.07252684200249714,-0.5105674039755745,-0.12765195775965776,nan
1740797227.3272023,0.35234840168187714,-0.8049779121592873,-0.08050616355039218,0.01041465809581891,nan
1740797227.3311083,0.496031208783948,-0.8005667943290593,0.4967562311252312,0.12890795822286716,nan
1740797227.3350143,0.31588930651999997,0.02285846217141869,0.707963353477084,0.21513989965948008,nan
1740797227.33892,-0.02392904553598609,0.7166362551533293,0.3519916915230953,0.23864621564846242,nan
1740797227.3428261,-0.29435879548774113,0.5085357137216087,-0.250167747424728,0.11410892419918084,nan
1740797227.3467321,-0.38598764429244065,-0.32241019324403275,-0.5861851741582068,-0.17894426346891748,nan
1740797227.350638,-0.32586149736432957,-0.7863033559738221,-0.4513427483451818,-0.46749444171150384,nan
1740797227.354544,-0.17621106417713017,-0.3470957700183157,-0.0708984472276431,-0.47804305084117965,nan
1740797227.35845,0.025313889992922892,0.4643355703365014,0.23308048966536232,-0.12273746979575094,nan
1740797227.362356,0.2292913772834489,0.7072623805547145,0.37782537647045844,0.3435750059877417,nan
1740797227.3662617,0.3409633736729047,0.15142641575340265,0.4599010833457099,0.5323867293095165,nan
1740797227.3701677,0.2807839629253361,-0.48937670663113764,0.45387769627494595,0.3125284291905134,nan
1740797227.3740776,0.08117278918532148,-0.4612881004769508,0.15473287572940542,-0.05412478584763644,nan
1740797227.3779833,-0.11589454827160273,0.12300780298203677,-0.4891228822358666,-0.20573462648012192,nan
1740797227.3818893,-0.18434673265879978,0.4800242351490211,-1.0881976657176569,-0.07583908791546316,nan
1740797227.3857954,-0.12644564674123923,0.17064124241676157,-1.0512829161043435,0.06728110508761963,nan
1740797227.3897011,-0.04282026108361967,-0.3561549202737155,-0.20857816616858707,-0.023316471482419963,nan
1740797227.3936071,-0.004964502646655234,-0.3638987082789151,0.8764652057741195,-0.257317118997076,nan
1740797227.3975132,0.007022171818135551,0.20336751224198985,1.3499342073038287,-0.31730384716840215,nan
1740797227.401419,0.033526147896951006,0.6205879960679931,0.872184252712133,-0.059528011948353096,nan
1740797227.405325,0.04700305273166063,0.28489938224404576,-0.06235596504482644,0.28766399022581235,nan
1740797227.409231,-0.014359371391427615,-0.5065290342958221,-0.6415682493484539,0.37506705774407645,nan
1740797227.4131367,-0.12761432790832802,-0.8795224365689956,-0.532315615486525,0.13318778881086402,nan
1740797227.4170427,-0.1586332397094879,-0.4135453266689113,-0.11558936339918693,-0.15697858652017063,nan
1740797227.4209523,-0.00541619042881518,0.3805568482942129,0.03194352104487486,-0.1987106663796048,nan
1740797227.4248583,0.24496691887451952,0.6952668439728492,-0.21984534828453434,-0.010718958068122267,nan
1740797227.428764,0.36021752636052196,0.3637218026109285,-0.48577966849488563,0.1322003481467036,nan
1740797227.43267,0.19814747784359502,-0.041292056289871,-0.36470126623460397,0.0515340498076682,nan
1740797227.4365761,-0.12307649896037544,-0.006340197819425303,0.11431227024279883,-0.1295034247082407,nan
1740797227.440482,-0.3291287138684767,0.2732300736268049,0.5710595486426148,-0.16211082467273136,nan
1740797227.444388,-0.26708306613094823,0.20194803340223638,0.7008449569523117,0.010395306547129704,nan
1740797227.448294,-0.048374764248136276,-0.3784490439661776,0.5236929894472795,0.1874832301686845,nan
1740797227.4522,0.0969805859349571,-0.9106446399442175,0.2363657878287131,0.16111501301422124,nan
1740797227.4561057,0.07391185713667252,-0.7649141476740837,-0.05392803594372368,-0.04018056733317576,nan
1740797227.4600117,-0.009971959908680616,-0.004005166390989605,-0.3633029791087391,-0.20036675741922189,nan
1740797227.4639177,-0.015691216169462494,0.6712444660815856,-0.6529386569591135,-0.17147965103986976,nan
1740797227.467827,0.051948548717037926,0.7144413262521261,-0.7446876007361131,-0.016633578977596142,nan
1740797227.471733,0.081160768754425,0.29752428609298326,-0.4828690459370588,0.10369928592599628,nan
1740797227.4756389,0.029633158285011015,0.005539122342208599,0.053734510335189854,0.12259641783573147,nan
1740797227.4795449,-0.01059674085417696,0.09894631852615474,0.5616821381179684,0.09650909290521249,nan
1740797227.483451,0.04839520841410607,0.2572204699324316,0.7463168123458734,0.07944080041796478,nan
1740797227.4873567,0.1405166143420441,0.060157502298097416,0.5336183685102869,0.04450412977361579,nan
1740797227.4912627,0.10490463927890839,-0.4465875543703398,0.0826379633908925,-0.04358142696467385,nan
1740797227.4951687,-0.09950272626050372,-0.7967062741050597,-0.34245079584600285,-0.13301306437976942,nan
1740797227.4990745,-0.30078839656527084,-0.6538463856819047,-0.5001792850751486,-0.12734807363856512,nan
1740797227.5029805,-0.2873782413408475,-0.16740058757248596,-0.2740599127492033,-0.02089359993224831,nan
1740797227.5068865,-0.056615004374950144,0.2572765019835731,0.2187221711845788,0.06733970510327673,nan
1740797227.5107925,0.16720273724894166,0.4228596640194106,0.6019057229965112,0.03056580188612569,nan
1740797227.5147016,0.18251796376575977,0.46106360926652706,0.45805806216443334,-0.0851614421094677,nan
1740797227.5186074,0.03601607840487271,0.5351006043131614,-0.26935188577668784,-0.12654409454263518,nan
1740797227.5225134,-0.0462862738316177,0.5706528131624786,-1.0702290938837347,-0.01897895288019942,nan
1740797227.5264194,0.06154433740647466,0.36005834646586393,-1.197600829329122,0.1404475676500222,nan
1740797227.5303252,0.23266346887595446,-0.13285090450027148,-0.3537469650767222,0.2018483822918359,nan
1740797227.5342312,0.24062940668651028,-0.6722404859546075,0.9216763251025929,0.1391666480423424,nan
1740797227.5381372,0.026684376085580292,-0.9574642911120993,1.6359357420637228,0.05722547516652447,nan
1740797227.5420432,-0.23744939191278375,-0.8623312517783147,1.2147353181214975,0.028961479136507363,nan
1740797227.545949,-0.34768582635855555,-0.4584353346376105,0.026863237641818506,-0.008341493227575067,nan
1740797227.549855,-0.27089671228037127,0.10646761537422338,-0.9678779968488166,-0.14674971743507176,nan
1740797227.553761,-0.12127186359135261,0.667762067328484,-1.097769118487286,-0.330680082120405,nan
1740797227.5576668,0.01572931415781614,1.0231682376953515,-0.5148517879214511,-0.3656988077533797,nan
1740797227.561576,0.15576184906972315,0.9862321057548484,0.09252947427109395,-0.14028519524959243,nan
1740797227.565482,0.3011439980715744,0.5422324814864218,0.2327585999531987,0.20504545105698063,nan
1740797227.5693877,0.33863322406265806,-0.08635406193272975,0.014798554185689244,0.39435860565042224,nan
1740797227.5732937,0.14671582310535244,-0.6002110989063565,-0.11591550885819198,0.3075886991454889,nan
1740797227.5771997,-0.19185979234971381,-0.8481815491698053,0.07620554091728189,0.10299969030242401,nan
1740797227.5811055,-0.3771053918548069,-0.850174160192451,0.39669345820776064,0.01454175051757759,nan
1740797227.5850115,-0.18041739465795037,-0.6289561338137292,0.4954235201695471,0.06410254459851762,nan
1740797227.5889175,0.2562048324070484,-0.14687680254232888,0.26307916435349166,0.045618500656552555,nan
1740797227.5928233,0.4884500731599879,0.5079729421741759,-0.08410589811825828,-0.18659592544660886,nan
1740797227.5967293,0.20356042416753056,0.9679961940158823,-0.2663244766588712,-0.4766703189785077,nan
1740797227.6006353,-0.41817635183710805,0.8228437697142783,-0.22183153264898156,-0.4929189686149924,nan
1740797227.604541,-0.8242477376807792,0.10882886754760615,-0.1200045522561776,-0.10903402410081156,nan
1740797227.60845,-0.605629758635522,-0.5542620363406835,-0.13828992401092013,0.39671032800316236,nan
1740797227.612356,0.10675789069006372,-0.5115807223907468,-0.26280698459774277,0.5833485113219331,nan
1740797227.6162617,0.7614666579905686,0.18825339792009954,-0.3081983416895944,0.29415479741212425,nan
1740797227.6201677,0.8874469263598462,0.7372850883734563,-0.11843729543951508,-0.17404770713488318,nan
1740797227.6240737,0.47494816058365236,0.39501183032300574,0.25337774349454567,-0.37077471385224936,nan
1740797227.6279795,-0.098079307685271,-0.6480309071508911,0.5593282221084975,-0.14499719821626794,nan
1740797227.6318855,-0.45055853847965155,-1.3743519930014543,0.563626716125598,0.22487275980207636,nan
1740797227.6357915,-0.48499046802902257,-0.9831470401027753,0.2617346533215584,0.3440482318785225,nan
1740797227.6396976,-0.34816751743816915,0.24275500207995612,-0.1032582395041992,0.10658308798220907,nan
1740797227.6436033,-0.20121003212480162,1.2142586320540405,-0.2704582657625609,-0.23176742054313262,nan
1740797227.6475093,-0.0769034372280081,1.157650124053071,-0.22459717882493016,-0.3565417466987819,nan
1740797227.6514153,0.0688858084257427,0.34357330935223596,-0.20071989055959275,-0.21741791264854501,nan
1740797227.655324,0.23592169869248383,-0.3354663548516727,-0.3814195796192101,-0.027001982278101345,nan
1740797227.65923,0.3477292843155386,-0.37820903702235165,-0.6026990302274983,0.025417209376541253,nan
1740797227.6631358,0.32518358783822743,-0.10315304739589602,-0.4511836193028414,-0.0067164582187817755,nan
1740797227.6670418,0.16395510135951327,-0.0858467700968778,0.26002173647393795,0.07205295528608624,nan
1740797227.6709478,-0.060448740331936535,-0.3813546952905892,1.1296001622602938,0.30870728562332606,nan
1740797227.6748536,-0.24325714311943566,-0.4939704273420435,1.4007794637681323,0.48097124050925816,nan
1740797227.6787596,-0.30323978339336827,-0.08207284533822146,0.6704963571971323,0.3182168988117274,nan
1740797227.6826656,-0.21618396937189593,0.5217616611945273,-0.6215614352054541,-0.16296461046452151,nan
1740797227.6865716,-0.03127332861865442,0.6466646008909137,-1.4918269991185755,-0.5970448801622779,nan
1740797227.6904774,0.14301543564413263,0.0845811118252327,-1.280790032318693,-0.5953419349487701,nan
1740797227.6943834,0.20008582132494243,-0.6069061438376526,-0.24688018319482286,-0.1440114375824735,nan
1740797227.6982894,0.11411211199311934,-0.6779510981557415,0.7104144035623224,0.3524195921007413,nan
1740797227.7021976,-0.035236745418233635,0.00396957305907245,0.9069935251233155,0.45596011613684173,nan
1740797227.7061036,-0.12901541433995983,0.803706888865225,0.4400903029193675,0.1254824228845628,nan
1740797227.7100096,-0.11011712100556843,0.9666078174594414,-0.05878717030499939,-0.25601472642081724,nan
1740797227.7139156,-0.020121999964613353,0.34828162281851094,-0.13775875849738625,-0.2892809713703118,nan
1740797227.7178214,0.06004945910065867,-0.5072724837721927,0.07569292349013862,0.028781773852170005,nan
1740797227.7217274,0.09281844461515318,-0.9314648987284743,0.1451823615181693,0.32473815172849774,nan
1740797227.7256334,0.09842257406438791,-0.707295638192081,-0.12446166463359971,0.270138682077095,nan
1740797227.7295392,0.09833889069101825,-0.14078826635734723,-0.4833052501409927,-0.06007962030355798,nan
1740797227.7334452,0.07114380272332073,0.309424866670525,-0.5441219040159102,-0.28292191723221644,nan
1740797227.7373512,-0.01723261328434301,0.4124409459543087,-0.20281948746817968,-0.14418840431729213,nan
1740797227.741257,-0.1471563598068244,0.2532719960066355,0.27865089602038307,0.19092162105775604,nan
1740797227.745163,-0.23358569536869803,0.06704725900607805,0.5506328899174658,0.31576877770482464,nan
1740797227.7490728,-0.19762552769296726,0.025475088555853394,0.47655652214624206,0.032847794289790434,nan
1740797227.7529788,-0.04795991511701845,0.12369975635978206,0.180254402522784,-0.415108605435143,nan
1740797227.7568846,0.11920815620295988,0.20818283734837667,-0.12149171416663601,-0.5816742740062495,nan
1740797227.7607906,0.20430889715950293,0.11985238175420265,-0.2877116938278096,-0.2667455185849256,nan
1740797227.7646966,0.1837263456454094,-0.14222345425621685,-0.29879297288806966,0.2864586762842718,nan
1740797227.7686024,0.1062287102152282,-0.3858798451553608,-0.21084718252542234,0.6302038582231622,nan
1740797227.7725084,0.025011704125076736,-0.39178342641103747,-0.0921779837295447,0.5233006383042315,nan
1740797227.7764144,-0.048576253831794154,-0.1435597027551694,0.02318924010179452,0.11247545121262574,nan
1740797227.7803202,-0.12097708035834256,0.13061722032431483,0.14190980386951005,-0.24875168633383254,nan
1740797227.7842262,-0.1663733781465875,0.18601057394604784,0.2590632666604896,-0.324280501837013,nan
1740797227.7881322,-0.12985829930679024,0.026722766049557093,0.29536761590035276,-0.15827042561995397,nan
1740797227.7920382,0.004141399794817319,-0.10050853956290845,0.1347201956895467,0.024225013576169407,nan
1740797227.7959478,0.15734705040206573,0.004653491720700131,-0.21439566507900726,0.04028048903443001,nan
1740797227.7998536,0.1995097724465291,0.25530556680246463,-0.5080849575716231,-0.1051266504631626,nan
1740797227.8037596,0.06853782072272838,0.37493593591670715,-0.41969284421561553,-0.2454074870057523,nan
1740797227.8076656,-0.14830252439344832,0.22206330037150787,0.10509548029237925,-0.2060004715652092,nan
1740797227.8115714,-0.27016718383629945,-0.04975752433440443,0.6699140084456684,0.03849254016094418,nan
1740797227.8154774,-0.18067229121222902,-0.19040353673739888,0.7237519839680686,0.3267529070830925,nan
1740797227.8193834,0.059825318828404916,-0.15989794089365825,0.12025455667120354,0.43544028248863426,nan
1740797227.8232892,0.26311535325462104,-0.15465042196785025,-0.6535002326349317,0.27514620298064146,nan
1740797227.8271952,0.28155362456579414,-0.3151927892290747,-0.9027925902860077,-0.02024800837302124,nan
1740797227.8311012,0.13223211360356207,-0.48786894810440484,-0.4152212783866805,-0.21409791129579467,nan
1740797227.835007,-0.041692742644151605,-0.36527280432766185,0.32543378040714077,-0.19396230073070914,nan
1740797227.838913,-0.12179209972618954,0.13276375491431958,0.6555179094060076,-0.07112990907149117,nan
1740797227.8428226,-0.11428184922444626,0.6910888279956783,0.41355160029749966,-0.0385929406063879,nan
1740797227.8467283,-0.10305520238138352,0.8707002312009238,0.02784145167920863,-0.14195994899201017,nan
1740797227.8506343,-0.12846338483387623,0.5384399451050716,-0.059181384272148474,-0.22814863203436633,nan
1740797227.8545403,-0.14106121872557206,-0.014062746779637082,0.08082919728734603,-0.13592810320381804,nan
1740797227.8584461,-0.07798745967228203,-0.38061448126204733,0.02108946644489863,0.0986760884088814,nan
1740797227.8623521,0.04417339470683823,-0.4255680442864109,-0.3868248262488347,0.2743736112866106,nan
1740797227.8662581,0.1428121354803467,-0.3358693428578551,-0.7204795363455836,0.25808093318562575,nan
1740797227.870164,0.1705140741108653,-0.33097099712108824,-0.4502088743155448,0.13082556457719435,nan
1740797227.87407,0.16640437024896554,-0.3927066299610493,0.3663698271571758,0.06354769775025455,nan
1740797227.877976,0.18193045119615264,-0.3123702019696448,1.018125626574825,0.08496961045357822,nan
1740797227.881882,0.17812826278541294,0.031191724789987746,0.8516819543719217,0.04909724758524179,nan
1740797227.8857877,0.049404809113527064,0.49375402730506945,-0.017530755075546255,-0.14472998278758947,nan
1740797227.889697,-0.22367132659906314,0.7766655387525518,-0.8052535537292733,-0.36672111334855534,nan
1740797227.8936028,-0.4767283084557688,0.6900859524342042,-0.8645263202851114,-0.37245989870556956,nan
1740797227.8975089,-0.47615409537353426,0.2961431013493551,-0.3012478986011495,-0.10399777564673633,nan
1740797227.9014149,-0.16053583691976056,-0.17696817650853902,0.24835187469339645,0.20209492580402003,nan
1740797227.905321,0.2552455979619336,-0.5202511940189989,0.35623329638278545,0.2640908711223867,nan
1740797227.9092267,0.4573277401722154,-0.6434792802806828,0.19150825088499868,0.07872052367451511,nan
1740797227.9131327,0.3268802740519801,-0.5461113072766077,0.17382537211307603,-0.07993921245378614,nan
1740797227.9170387,0.04160317259541736,-0.2611650745561191,0.38433149576618864,0.001793613358065828,nan
1740797227.9209445,-0.12282633582881998,0.1359644186772379,0.4613318968578939,0.21304053169843343,nan
1740797227.9248505,-0.07106012695259761,0.48609218677204746,0.0768616862763644,0.25851488872975015,nan
1740797227.9287565,0.05258392530019594,0.5810144934628186,-0.6039845917183743,0.033902660741144175,nan
1740797227.9326622,0.0637532959641639,0.31220110454884575,-1.0281849379641086,-0.2326009089231,nan
1740797227.9365714,-0.05267028959447472,-0.18064001049706482,-0.7979466517211081,-0.2559849137281588,nan
1740797227.9404771,-0.15802887033402185,-0.5387259808671447,-0.05177044340879627,-0.04713191247762685,nan
1740797227.9443831,-0.1502683608304287,-0.4404220036010558,0.6861701261912067,0.10126258284679826,nan
1740797227.9482892,-0.0787185725064331,0.09876094211260682,0.9706391362801889,-0.0158129225122348,nan
1740797227.952195,-0.05058996987508465,0.6712937569323925,0.7372430201613297,-0.24998362973936555,nan
1740797227.956101,-0.06948802105803335,0.7796538143588068,0.23496212246334597,-0.27304624791618887,nan
1740797227.960007,-0.027205764458461287,0.26737579147756213,-0.22939635617093082,0.019283761650593857,nan
1740797227.963913,0.13635960289180088,-0.5169030686444716,-0.47381629128450536,0.3680722367005888,nan
1740797227.9678187,0.31542171628786964,-1.0003413078051524,-0.47868378560446767,0.4435350197629367,nan
1740797227.9717247,0.3283809060884608,-0.8636750538486235,-0.3464924135900359,0.20975271617855085,nan
1740797227.9756308,0.12215895623057273,-0.26955494386575146,-0.22046818716395508,-0.06936758397600956,nan
1740797227.9795365,-0.15173831859253983,0.34834461147892964,-0.1666498544313562,-0.15914859180088273,nan
1740797227.9834454,-0.28458430115436645,0.6792758506328386,-0.10084595398954645,-0.09700477843529762,nan
1740797227.9873514,-0.21479345106236003,0.7077262024504001,0.12089273404314846,-0.07421581410014738,nan
1740797227.9912572,-0.06425896289009365,0.5588623930750589,0.4883064115333555,-0.15395930643071715,nan
1740797227.9951632,0.01404603248237621,0.28882943119359444,0.7435524299164975,-0.20545917523653554,nan
1740797227.9990692,-0.01146650799996976,-0.10358786815134406,0.5889926558977051,-0.1151999701385858,nan
1740797228.0029752,-0.05762437772351205,-0.5119577535929031,0.030047856001412812,0.0383683573391109,nan
1740797228.006881,-0.04648552072284265,-0.700613657472617,-0.5417902070307344,0.09312299518312715,nan
1740797228.010787,0.021644003181746727,-0.5259676824123912,-0.6882868352240388,0.0385491473626073,nan
1740797228.014693,0.10522142730773638,-0.13508414279901618,-0.3615788890659297,0.03847772026642716,nan
1740797228.0185988,0.17991155410135204,0.15243667532942823,0.04861794735204276,0.19142031048722158,nan
1740797228.0225048,0.22893718921399336,0.18468225908482822,0.1373197897778088,0.3519804653986147,nan
1740797228.0264108,0.20461083522517284,0.1290865833376854,-0.08272070791865736,0.27991069422135123,nan
1740797228.0303192,0.05781326372160013,0.22487433503613277,-0.22541194267760345,-0.047958336632773074,nan
1740797228.0342252,-0.1733361324632067,0.4322102685476948,-0.0007756288952965554,-0.3660359826446966,nan
1740797228.0381312,-0.3425037537798442,0.44132142952556525,0.4316888671993734,-0.4046692108294593,nan
1740797228.0420372,-0.3138713626820259,0.07319166324503595,0.6302160400513495,-0.19098808648071663,nan
1740797228.045943,-0.11087872209130463,-0.4178374217313521,0.3618992643835667,0.006395736331568544,nan
1740797228.049849,0.08622151931161255,-0.5624583512554112,-0.14146699173643978,0.014945530284466555,nan
1740797228.053755,0.11829667904547178,-0.21153423039729186,-0.4374147130190145,-0.05087301772292311,nan
1740797228.0576608,0.013624253364116195,0.24727117071123203,-0.3328303396949224,0.02112788747723132,nan
1740797228.0615668,-0.04795002991343693,0.2941752018244173,-0.04345992570710665,0.2315369777383594,nan
1740797228.0654728,0.06069301038713421,-0.13082363523828014,0.08384956482462047,0.3515156895107976,nan
1740797228.0693786,0.26687057847805157,-0.5367741083948007,-0.056431894528769656,0.2207299039515062,nan
1740797228.0732846,0.3681029005560408,-0.41717623612711074,-0.25761913595900837,-0.033529176847844774,nan
1740797228.0771933,0.23655119966355717,0.18770384166982093,-0.2559345284200212,-0.15052173602146443,nan
1740797228.081099,-0.06104105816036756,0.7302867406002425,-0.0020067724899067497,-0.06680891128008416,nan
1740797228.085005,-0.3350849636294219,0.7316822514667223,0.3155266202291737,0.011406566607849345,nan
1740797228.088911,-0.43632451952199397,0.24072214192203134,0.46293861542134884,-0.10434340181036593,nan
1740797228.0928168,-0.3455449266641706,-0.2907754437203329,0.35249281861992654,-0.31202148042784844,nan
1740797228.0967228,-0.14149499261064505,-0.49801558012055747,0.08174414717311836,-0.3281027080747559,nan
1740797228.1006289,0.07488417662709948,-0.38813935208614764,-0.16229005108929057,-0.053400164794175156,nan
1740797228.1045346,0.2245622967735295,-0.1863007491951531,-0.23893752404913998,0.2727681098322092,nan
1740797228.1084406,0.2665348332321875,-0.038789580313443775,-0.14881291001547364,0.3411225545369265,nan
1740797228.1123466,0.21334743397314845,0.059745807169288345,-0.0315072182694674,0.13730390597809006,nan
1740797228.1162527,0.12784403638727063,0.1283156376804384,-0.045736549597717835,-0.052640103418001655,nan
1740797228.1201584,0.07168457384576898,0.1284752703884389,-0.20570075190701628,-0.0027285773665410755,nan
1740797228.1240683,0.042363804194752365,0.060241911707144505,-0.3334394263332557,0.17844574046815648,nan
1740797228.1279743,-0.019384848194740387,0.026014243607115444,-0.2181075536763976,0.19808862654905876,nan
1740797228.13188,-0.14080745816780632,0.1058356654253424,0.14641210616073716,-0.0429370491287104,nan
1740797228.135786,-0.25166818286494647,0.20551333693905172,0.5058447801124258,-0.32032077220353977,nan
1740797228.139692,-0.2425495643391106,0.1388211796568155,0.5706278195701151,-0.35753391555542113,nan
1740797228.1435978,-0.09753668838162718,-0.10966572424722647,0.30252942954794504,-0.14953794744193444,nan
1740797228.1475039,0.06208940254356811,-0.2993122323798583,-0.05483338595348152,0.0571824252845351,nan
1740797228.1514099,0.09885176925400112,-0.20446990132999257,-0.24173628681914175,0.07906951897542297,nan
1740797228.1553159,0.01660024083022409,0.06683489714681044,-0.23793208943990948,-0.0025192202573204557,nan
1740797228.1592216,-0.038171194579724475,0.15211450902398976,-0.21400356739300713,0.01223177800167899,nan
1740797228.1631277,0.05228108658174067,-0.1151203661778925,-0.26104230084666086,0.16279063235862576,nan
1740797228.1670337,0.2294610023185677,-0.42938254976600587,-0.26037365124063605,0.2802128427339568,nan
1740797228.170943,0.3133666122439492,-0.31642014098532845,-0.07193443511405424,0.21186945500781482,nan
1740797228.174849,0.19893676396216295,0.2824568907801985,0.20992357444787682,0.012902088178784752,nan
1740797228.178755,-0.03499527745166151,0.8477458410505379,0.30513519183060617,-0.13321694940925793,nan
1740797228.1826608,-0.22282715112630325,0.7941458214006761,0.09419129717585355,-0.13898510544305862,nan
1740797228.1865668,-0.2841500234732317,0.10627329487234036,-0.16627925668745108,-0.08750556185948802,nan
1740797228.1904728,-0.2639180844214029,-0.6311566256785202,-0.08940900407777445,-0.08810681180401582,nan
1740797228.1943789,-0.21963636146594853,-0.8433253725511848,0.35972075742073084,-0.13232878353193833,nan
1740797228.1982846,-0.13118321064559504,-0.5132870473091725,0.7209964703902859,-0.13661282020719004,nan
1740797228.2021906,0.04017423022250594,-0.07421557793303948,0.48064770976270915,-0.07918412516453421,nan
1740797228.2060966,0.2384544878435372,0.14740154198371472,-0.3358614408664935,-0.018135188281372363,nan
1740797228.2100024,0.3278796226840498,0.23266356759167914,-1.0873604120914824,0.02522884417642835,nan
1740797228.2139084,0.24463167467203406,0.40063770357071976,-1.0995881854364007,0.11837947104830328,nan
1740797228.2178178,0.08926582642088882,0.5967535380948508,-0.32700403870041683,0.2959546536794686,nan
1740797228.2217238,0.016774880244829246,0.5149082846906605,0.5932188524282693,0.4319634929192742,nan
1740797228.2256298,0.04443766020818715,0.025717632483704934,0.94643174466026,0.32877663260094914,nan
1740797228.2295356,0.027251284647631362,-0.5653859503384343,0.579429501539913,-0.035995448678797275,nan
1740797228.2334416,-0.14584425522749647,-0.793850815508902,-0.04560488051733976,-0.4152746361513336,nan
1740797228.2373476,-0.37269013866061623,-0.5250962167338696,-0.362915383225839,-0.5143609352751692,nan
1740797228.2412534,-0.4187368533855017,-0.066606213316554,-0.21381048723247073,-0.29817539673224924,nan
1740797228.2451594,-0.18697443363421268,0.2109918322418575,0.11727380112134522,-0.01917301120065124,nan
1740797228.2490654,0.14520751220783862,0.2600240729705187,0.2698224676997448,0.07450863725575133,nan
1740797228.2529712,0.30396888596990834,0.29753609272545145,0.13944367673543193,0.003078247812447013,nan
1740797228.2568772,0.21479341727742368,0.4354585674582017,-0.11741847683119509,-0.016087572409867083,nan
1740797228.2607832,0.0665957384916749,0.5026317548961503,-0.30484520125549947,0.13583344536772812,nan
1740797228.2646923,0.06789018430587018,0.2740068424870124,-0.3523051564796763,0.33357156133347243,nan
1740797228.2685983,0.19120136252847392,-0.20983025772893757,-0.29657721395373415,0.3731392321274717,nan
1740797228.2725043,0.2159460772862929,-0.639426834518288,-0.1824470465746747,0.21289143057437596,nan
1740797228.27641,0.014792226665906662,-0.735490527471669,-0.02030822917447581,-0.010000046038835479,nan
1740797228.280316,-0.2692716783406693,-0.48365758711820966,0.18543645475485346,-0.16733066392543758,nan
1740797228.2842221,-0.3739517900344903,-0.07731795003842687,0.4052745724845362,-0.25677248272293957,nan
1740797228.288128,-0.21630657825014962,0.28272420972934986,0.5800768827646299,-0.31486099972738063,nan
1740797228.292034,0.01747114023838061,0.4829939670339396,0.6214375673838929,-0.3017813595849251,nan
1740797228.29594,0.09200672267834448,0.474685820348053,0.42414448089506573,-0.15875655527093802,nan
1740797228.299846,-0.014999905446387966,0.28468333161866294,-0.06176574035385836,0.048670212646143754,nan
1740797228.3037517,-0.11213676502244586,0.06457089345697328,-0.7120568756971732,0.1533112794364729,nan
1740797228.3076577,-0.03587567471243361,0.010277921585276793,-1.1916278748987412,0.09795107349075872,nan
1740797228.3115666,0.1642588897395893,0.13385370187184947,-1.125736905856402,0.04561929275684751,nan
1740797228.3154726,0.30304824830372556,0.16650056113610848,-0.4115700295429739,0.18090422150035823,nan
1740797228.3193786,0.2787826931064332,-0.17478173087267873,0.6011114533546027,0.4212477028244508,nan
1740797228.3232844,0.16050285706747244,-0.7811582926808013,1.2895384385891682,0.4474323232827448,nan
1740797228.3271904,0.05893354040658173,-1.1206082298820852,1.2152171869481487,0.08838478992041442,nan
1740797228.3310964,-0.02827945754615443,-0.736434423303494,0.4811170479438619,-0.4030844939153695,nan
1740797228.3350022,-0.18863260198196768,0.22708022754950868,-0.34768678517392365,-0.5817790024485601,nan
1740797228.3389082,-0.4225284159915757,1.094070443077216,-0.7143939922000899,-0.32161566669409075,nan
1740797228.3428142,-0.5602256765998368,1.2894046547804854,-0.5161737307856074,0.024174178807558004,nan
1740797228.3467202,-0.40406896129459824,0.8376189705012678,-0.12266330421126517,0.05231532743022958,nan
1740797228.350626,0.03967675076753259,0.19849858762145747,0.030696299660405824,-0.18363739103394286,nan
1740797228.354532,0.5006100528725573,-0.283626525707977,-0.13552803953309578,-0.24200104858490265,nan
1740797228.3584409,0.6506831810715241,-0.61506221703452,-0.31974263184754076,0.118594698334708,nan
1740797228.362347,0.39526261463415013,-0.8633182461583382,-0.20888352478931704,0.576039854268166,nan
1740797228.3662527,-0.03085604941851167,-0.8668157968173503,0.16783610829983492,0.6075713080614614,nan
1740797228.3701587,-0.26497113260623456,-0.43515840473636497,0.4816880231237554,0.15532443144275013,nan
1740797228.3740647,-0.14100733274191193,0.23052571371740344,0.4803907304662666,-0.26124091575155634,nan
1740797228.3779705,0.15755063426032434,0.5844518285943886,0.25793860166515736,-0.177764672079847,nan
1740797228.3818765,0.2660415812740198,0.3490833481723996,0.10184547026464748,0.21001090115253473,nan
1740797228.3857825,-0.010581812201902895,-0.06496075034521324,0.10379874615609493,0.26181886885026207,nan
1740797228.3896883,-0.48581804555451613,0.00840485267868432,0.02491887923868203,-0.2889627754385104,nan
1740797228.3935943,-0.7365353976119119,0.6244785862651634,-0.3749162759388765,-0.9269324351475051,nan
1740797228.3975003,-0.49476076485449344,1.0332738595007318,-0.9142253763525648,-0.9087231196982272,nan
1740797228.401406,0.0832604356390643,0.5335689065323012,-1.031984260140102,-0.14388557759051607,nan
1740797228.405315,0.5518670101324101,-0.5987085099105977,-0.3592496041488903,0.6689530536321208,nan
1740797228.4092207,0.5994868465549563,-1.3097978582244771,0.7717510406393959,0.8302704826174735,nan
1740797228.4131267,0.33093710068731313,-0.9618511227652635,1.5054262637168314,0.4025516413077007,nan
1740797228.4170327,0.10807241176880998,-0.08934594463660141,1.2377914304098612,0.040505876718682825,nan
1740797228.4209385,0.12540947183585152,0.2651000691667082,0.20539072096272762,0.1419563208542193,nan
1740797228.4248445,0.20367825412682114,-0.14007459211211015,-0.7497898455857968,0.3937968359957778,nan
1740797228.4287505,0.04327880940292133,-0.44447903957294876,-1.0008803261633668,0.24861623484963122,nan
1740797228.4326563,-0.36402620260415114,0.16404789745598083,-0.6673639104496691,-0.32302554256170324,nan
1740797228.4365623,-0.6741932327680521,1.2724126543671261,-0.32018806205193995,-0.780648601832872,nan
1740797228.4404683,-0.5795058492479936,1.599409004002092,-0.2580881561882476,-0.7036311058340083,nan
1740797228.4443743,-0.18418597881404097,0.5594270757637518,-0.20881418415141614,-0.3035335121165971,nan
1740797228.44828,0.11033180515288167,-0.8931874855888169,0.22875796126676706,-0.09566686807801657,nan
1740797228.4521887,0.09438557224111231,-1.2869040290206761,0.9686617641257118,-0.18636155757648043,nan
1740797228.4560945,0.00765842164607811,-0.3683914065941307,1.4048671057434763,-0.139319036549749,nan
1740797228.4600005,0.2140450019643706,0.5744806258710132,1.017743695466197,0.38814226498168053,nan
1740797228.4639065,0.6751806669534833,0.2642046237944893,-0.062955644160099,1.0828831166482558,nan
1740797228.4678125,0.9049899132597479,-0.9903387345658795,-1.1459322057483248,1.2598144562894917,nan
1740797228.4717183,0.5254181171117146,-1.6260275096274504,-1.5806261179168748,0.6657187828365237,nan
1740797228.4756243,-0.23043023070337848,-0.6884961738404246,-1.2287883019416799,-0.2124941857097679,nan
1740797228.4795303,-0.7213032051853401,1.0244253061724171,-0.41761198840607733,-0.7214197927142929,nan
1740797228.483436,-0.6161573696841092,1.901745607095991,0.4123710074147522,-0.7536943482214628,nan
1740797228.4873421,-0.2652970471224909,1.356071841610969,0.9510421446998855,-0.7060855787359961,nan
1740797228.4912481,-0.24150658452243792,0.3289899180289406,1.0545823842973219,-0.8078901197839646,nan
1740797228.495154,-0.5925440868026541,-0.04226180787425147,0.7531594905932713,-0.7724214880634235,nan
1740797228.499062,-0.7458501597498924,0.17611070830771425,0.2822796381188021,-0.2543969723236237,nan
1740797228.502968,-0.2238163725962519,-0.0022284774904975982,-0.03547212631265199,0.5398500302351378,nan
1740797228.506874,0.7076761346691511,-0.9951735524819629,-0.0885475360528407,0.9928122157997658,nan
1740797228.51078,1.3000388527967095,-1.9669639488427162,-0.12373191260922875,0.8502353003648025,nan
1740797228.5146859,1.1996673801921567,-1.84453742438926,-0.44663810448870517,0.5780754694109416,nan
1740797228.518592,0.8190064887143634,-0.6729356867295017,-0.9445242877855407,0.7246345441903805,nan
1740797228.522498,0.6736354840565218,0.4900658568970305,-1.0792790117880284,1.0604332935699947,nan
1740797228.5264037,0.5269826999388052,0.9783132806045476,-0.5202568580912691,0.7017021444532054,nan
1740797228.5303097,-0.42140834799293037,1.2918073275009396,0.3079018554659237,-0.7607322149975992,nan
1740797228.5342157,-2.3117897555121196,2.126152760105544,0.5937012717484998,-2.4758313557789067,nan
1740797228.5381215,-3.839854327759915,2.942819384150459,0.17949571921805133,-2.9825286657645784,nan
1740797228.5420275,-3.173474888174607,2.1808746193951887,-0.018981768160545153,-1.6899560381457752,nan
1740797228.545937,0.07443663532552383,-0.797998469469307,0.9681515225648514,0.48402072698300264,nan
1740797228.549843,3.930399165860458,-4.331619809326215,2.6535628840159244,2.044245515296556,nan
1740797228.5537488,5.479755337258341,-5.596433149409902,3.0213401141054614,2.3167107208964652,nan
1740797228.5576549,3.4589270891519406,-3.323416299743802,0.5065820261723365,1.7512062061559142,nan
1740797228.5615609,-0.5314541999643653,0.8384525913703501,-3.8372008864939526,1.0112754223627287,nan
1740797228.5654666,-3.45351983998575,3.851139741693893,-6.583795174067941,0.20231242386227064,nan
1740797228.5693727,-3.500574849539137,4.058790201266391,-4.915438617562821,-0.7964551395365397,nan
1740797228.5732787,-1.4214391957415078,2.2955730910390293,0.4348908431549744,-1.5868704305181232,nan
1740797228.5771847,0.5903053946779078,0.4675446080683521,5.4487962769827565,-1.4230457025081218,nan
1740797228.5810905,1.0673742069283907,-0.4697297802546876,6.354926492445106,-0.30001952419929134,nan
1740797228.5849965,0.311298258964998,-0.9236600582343716,3.029394451113725,0.5729487014356712,nan
1740797228.5889025,-0.4095274532183081,-1.476993848763864,-1.1390505271555815,-0.0473841194799519,nan
1740797228.5928118,-0.3044736945451019,-1.9190150490133318,-2.7118694078718204,-1.735859555917551,nan
1740797228.5967178,0.3777514215903647,-1.640654158226815,-1.3839525276242768,-2.3877810718664256,nan
1740797228.6006236,0.9205498108080161,-0.5960457787457384,0.270203676137157,-0.3970952336496008,nan
1740797228.6045296,0.9169990911102608,0.5594650306783691,-0.0872382403729901,3.211556501899474,nan
1740797228.6084356,0.46296569485890615,1.2293341336585868,-2.0664332599382664,5.310141909923128,nan
1740797228.6123414,-0.11516793996494139,1.3848573605595433,-3.2174456273556142,3.67739833027722,nan
1740797228.6162474,-0.4831570373109321,1.20505651617827,-1.8471165875572437,-0.6040244857104642,nan
1740797228.6201534,-0.3774007182728077,0.6016663944673735,1.1843788579703398,-4.039424176711219,nan
1740797228.6240592,0.19266120930634523,-0.4791920023165132,3.4635036075564885,-4.09026967821224,nan
1740797228.6279652,0.6845991399726218,-1.4163394633622428,3.4812011819636806,-1.5126115060575747,nan
1740797228.6318712,0.23877240742411998,-1.169652768102654,1.8612005888229726,0.7079760475886292,nan
1740797228.6357772,-1.4357482217088844,0.45098199341397,0.30309294383288277,0.539537838235406,nan
1740797228.6396863,-3.2894531860047977,2.054641507719206,-0.307870636930064,-1.1879100257568163,nan
1740797228.6435924,-3.3873084987252406,1.7914223817320902,-0.5430547158810871,-1.934834827032582,nan
1740797228.6474981,-0.6142195852671685,-0.5885022145932665,-1.37147026663988,-0.1693442326519411,nan
1740797228.6514041,3.8638735711653087,-3.1307807304063955,-2.7861640883488006,3.175397804891618,nan
1740797228.6553102,7.025985768622351,-3.4945739841705783,-3.627393854050676,5.633719617308554,nan
1740797228.659216,6.267241520636269,-1.3084954096977424,-2.695631625338862,5.238279236882345,nan
1740797228.663122,1.59050019153475,1.5766614826243426,0.028952347000135763,1.7933139700047742,nan
1740797228.667028,-4.266626180716477,3.141790083045208,3.19333132250359,-3.183326848664676,nan
1740797228.6709337,-7.859724337738845,3.0565246798965524,4.99940273063832,-7.264305382825699,nan
1740797228.6748397,-7.399951270102783,2.253114713795753,4.439184355657585,-8.156578686038197,nan
1740797228.6787457,-3.5776880789674417,1.1519414632224505,1.9135332824391553,-4.91009097998293,nan
1740797228.6826518,1.395932721278498,-0.8140958326899534,-1.1386057991486114,1.1271425856503345,nan
1740797228.6865606,5.302406048702048,-3.63147206834719,-3.25453819199653,6.6258031576508545,nan
1740797228.6904666,6.798422846474316,-5.426311387897903,-3.8203197922534153,8.309641647880001,nan
1740797228.6943727,5.551063599065012,-3.8463587554638616,-3.154954725741584,5.412567292984442,nan
1740797228.6982784,2.163299848575655,0.9577588052922908,-1.8597727633696546,0.3171943968579135,nan
1740797228.7021844,-1.9137348162605883,5.452488317344029,-0.19743299878553344,-3.458840262618274,nan
1740797228.7060905,-4.824753605044017,5.736317638484303,1.783931320108214,-4.14582791178477,nan
1740797228.7099962,-5.2555952487100175,1.603039376350316,3.5838057487698616,-2.740759249610057,nan
1740797228.7139022,-3.289421510733735,-2.9627695007052113,4.060450511013044,-1.3707065249971389,nan
1740797228.7178082,-0.34871053438197563,-3.792312838288196,2.345907299762528,-0.9705855901078145,nan
1740797228.721714,1.8598235210957172,-0.8207760523020211,-0.9108432757532021,-0.7495435882543191,nan
1740797228.72562,2.5148117455816466,2.095473874137366,-3.5326748625423257,0.3044066375658545,nan
1740797228.729526,1.9825153686430768,1.619309657646155,-3.533900948470191,1.9174501405845277,nan
1740797228.733435,1.1508357384462984,-1.4008932404501098,-1.0623857576923807,2.7998917950948017,nan
1740797228.7373407,0.5792313274680185,-3.129496680143708,1.5656631744086404,2.18598562421493,nan
1740797228.7412467,0.23735431935484044,-1.2833677000574644,2.0515032962671134,0.6775007978866239,nan
1740797228.7451527,-0.14101225038883944,2.2589524073963663,0.36787423002251113,-0.5476617977751498,nan
1740797228.7490585,-0.6381625882594566,3.6629713127186587,-1.3394607904263407,-1.0369735637455229,nan
1740797228.7529645,-1.0832452782336068,1.462108254639327,-1.1448356321430473,-1.2503348329996025,nan
1740797228.7568705,-1.2516183031469443,-1.9460074540426064,0.5859563620886785,-1.5675085422681754,nan
1740797228.7607763,-1.0315247124673035,-3.102429174620473,1.737669805237886,-1.5742737643227072,nan
1740797228.7646823,-0.4525845857019952,-1.1757780457664992,0.9427312240301321,-0.6377656426866295,nan
1740797228.7685883,0.3189133949221865,1.5323651163437093,-0.8500035496580627,0.9897253476522431,nan
1740797228.772494,0.9792251871702607,2.396134220549319,-1.523153923829319,2.074193409722185,nan
1740797228.7764,1.1929791194704658,1.0976778780978984,-0.28117708530949503,1.6165882380694045,nan
1740797228.7803087,0.8349195421411049,-0.6612422158011796,1.429123100836292,0.0055633372645801935,nan
1740797228.7842147,0.1524627758337283,-1.4190253269814574,1.6067904519670857,-1.2886402906690644,nan
1740797228.7881207,-0.3898820465954869,-1.2449657551165418,-0.016624055453722936,-1.1898959701106244,nan
1740797228.7920265,-0.49855466832510914,-0.884895717924731,-1.7349357560328522,-0.031313869005746994,nan
1740797228.7959325,-0.2833709605247811,-0.4243652645451914,-1.8509952042060969,0.9430325937657421,nan
1740797228.7998385,-0.08045436131410645,0.5891110057089862,-0.49737469416232555,0.9138265476202245,nan
1740797228.8037443,-0.07005180673085822,1.9271463133693991,0.7549748023927902,0.16397206908965428,nan
1740797228.8076503,-0.12869105989311375,2.3478022193672894,0.8387101576409612,-0.4758464607558211,nan
1740797228.8115563,-0.06444153205001936,0.9261579471363509,0.2702632540173529,-0.5772365119744383,nan
1740797228.8154624,0.0868608275836284,-1.5374755509758726,0.19207467523339372,-0.37729389604492114,nan
1740797228.8193681,0.09525711447128368,-2.9681754615230376,0.7639130496172652,-0.26736535592829125,nan
1740797228.8232741,-0.134027108489885,-2.0639663451745482,0.9919327034779587,-0.2929495895223803,nan
1740797228.8271828,-0.3625303912621778,0.3281631204617093,0.1525574061684432,-0.22480490525407335,nan
1740797228.8310885,-0.24177302067274278,2.08172161942313,-1.092017402597389,0.057602790317703,nan
1740797228.8349946,0.2670826128708941,1.9233414742414312,-1.3892190128333575,0.42572564440248845,nan
1740797228.8389006,0.7710438608075982,0.49286581014813824,-0.3810810306127066,0.6929256255872476,nan
1740797228.8428063,0.7998149639437897,-0.6495547068025547,0.7495462514226949,0.7738591362556212,nan
1740797228.8467124,0.2760444634170669,-0.7336779086852424,0.6360610044234428,0.6188712404697261,nan
1740797228.8506184,-0.3995712545486207,-0.2981673902297159,-0.6054823125260601,0.15588802179158034,nan
1740797228.8545241,-0.7324862253407498,-0.20993800898864406,-1.4333437260563144,-0.5462938124649926,nan
1740797228.8584301,-0.5779956562863042,-0.5592022838446857,-0.6531257433532308,-1.1172574623012286,nan
1740797228.8623362,-0.20470734282377467,-0.6832741832694668,1.1557639209251647,-1.0978373214942223,nan
1740797228.866242,0.03279666904846928,-0.08741647914268713,2.226675480815761,-0.42690759772486825,nan
1740797228.870148,0.033674132070279576,0.9164815330115377,1.5218179412505453,0.37937410910104125,nan
1740797228.874056,-0.02581683780336046,1.5056018610434823,-0.20859422195696006,0.6872490977585467,nan
1740797228.877962,0.056862977971728006,1.1266444266209008,-1.3490472109307157,0.39744332443867686,nan
1740797228.8818681,0.2868105620028138,-0.04996476065244181,-1.1631513609598165,0.025630910341617286,nan
1740797228.885774,0.4846616939637901,-1.288783676807769,-0.3774395734230794,0.07933407622387545,nan
1740797228.88968,0.4718553000674291,-1.7854422624484665,-0.09863547894828498,0.45456943215848555,nan
1740797228.893586,0.22168924325821313,-1.159030378755459,-0.4752017443500507,0.5772606786401058,nan
1740797228.8974917,-0.139682090301208,0.2560021197878689,-0.6563207794893472,0.11982267439293418,nan
1740797228.9013977,-0.4349871949363752,1.5130595077208104,0.03262717117729376,-0.5756740505840797,nan
1740797228.9053037,-0.536246847626446,1.6690599262871393,1.170591851098256,-0.8727293187935407,nan
1740797228.9092095,-0.4145799974856818,0.5850725933831286,1.6461379895292043,-0.5480836237690299,nan
1740797228.9131155,-0.14529615502771767,-0.8369939281200032,0.8810359869336944,0.009506664961934284,nan
1740797228.9170215,0.12660628763331316,-1.3979258512760355,-0.5142204317390415,0.2949179372370221,nan
1740797228.920931,0.26401426585628407,-0.7283835367930922,-1.3328721993281711,0.2285635740803668,nan
1740797228.9248369,0.22802760317962512,0.36831622682923354,-0.9365908995229454,0.11406632006022424,nan
1740797228.928743,0.10921085177027354,0.7937444140744334,0.1915479340576167,0.16190241846371817,nan
1740797228.932649,0.05221089863629331,0.32415648360979626,0.9632186344202721,0.23958422833296605,nan
1740797228.936555,0.12058586357525164,-0.24493250263530053,0.6831804953495597,0.13251578374109899,nan
1740797228.9404607,0.2236368621644417,-0.13390111675666827,-0.38772735266847835,-0.10340505671210812,nan
1740797228.9443667,0.19122524233324395,0.45126385192405954,-1.309795141274279,-0.20268343681571035,nan
1740797228.9482727,-0.0517456664910339,0.5914903426676983,-1.2615008445308826,-0.06544820417601192,nan
1740797228.9521785,-0.3723520625809442,-0.15940164162189074,-0.1973303524427585,0.09489631405348758,nan
1740797228.9560845,-0.5095871251068723,-1.1319697245829272,1.1192706394540453,0.049650919214698074,nan
1740797228.9599905,-0.3068771881428478,-1.2533423234009518,1.7175864203919837,-0.11779821289434357,nan
1740797228.9638963,0.11018447135887226,-0.28120168623407427,1.1900858699681582,-0.12998844138409438,nan
1740797228.9678059,0.4051707433805574,0.9059208888539436,0.004705018437677629,0.0642947591070801,nan
1740797228.9717119,0.3255660681928058,1.2832335620449735,-0.9230661798879631,0.1635083266742328,nan
1740797228.9756176,-0.04274871596608605,0.7415928474571757,-1.0280845618296477,-0.08731248179442938,nan
1740797228.9795237,-0.32877350216331147,0.029148322026375986,-0.5218089495524061,-0.4731489791507959,nan
1740797228.9834297,-0.22412901791520315,-0.22736339886779589,-0.0537850701907414,-0.47327138525617823,nan
1740797228.9873354,0.19926064341940314,-0.16326805309820722,0.0030693962837569214,0.10342438001947388,nan
1740797228.9912415,0.5331698672145854,-0.2743499463281149,-0.13080876419255952,0.7871353694255194,nan
1740797228.9951475,0.4232665851093197,-0.6323406227478027,-0.028661443476567683,0.8956760627018424,nan
1740797228.9990532,-0.07424864399026115,-0.7864461062110719,0.3564946579664505,0.29181161844214837,nan
1740797229.0029593,-0.5357568769095133,-0.4244685520047035,0.6204758583094423,-0.4434221971547348,nan
1740797229.0068653,-0.5758490067689802,0.1591520431852197,0.42128972411912424,-0.6484305352727491,nan
1740797229.010771,-0.2035546607533765,0.44478122078640464,-0.07165873965602473,-0.2914001654775392,nan
1740797229.0146804,0.22307890589754478,0.38782383205070964,-0.3568462079860947,0.06890339209036811,nan
1740797229.0185864,0.3673684945704361,0.4440990458413611,-0.19043965351517628,-0.008953510284098883,nan
1740797229.0224924,0.20712325512743163,0.8356673547667025,0.1399484583845349,-0.338811665395119,nan
1740797229.0263982,-0.02640440705653476,1.0585177918770816,0.18768859229505214,-0.3845473495887655,nan
1740797229.0303042,-0.1337833841242979,0.4129108844230808,-0.10602525710924626,0.05273748950477199,nan
1740797229.0342102,-0.1133514485001721,-0.9921280133657152,-0.36646914593742835,0.5832953616229716,nan
1740797229.038116,-0.06294367156458619,-2.0526536760071368,-0.27643039378804257,0.6891723920194046,nan
1740797229.042022,-0.006137834251488682,-1.713724593784128,0.029140222601700093,0.3104200688776992,nan
1740797229.045928,0.11191284922401207,-0.1468369047433295,0.1572575022625693,-0.1333160923887341,nan
1740797229.049834,0.2754858466617336,1.315474953698273,-0.023808615639026122,-0.2556321230057504,nan
1740797229.0537398,0.3328388204271297,1.4986752077106962,-0.20997245104119108,-0.1034524328279143,nan
1740797229.0576458,0.1418575547214615,0.5365366869170647,-0.05328409808252097,-0.006972295795400921,nan
1740797229.0615547,-0.2362955397390519,-0.38566752354289746,0.37769556439682717,-0.13953085547202002,nan
1740797229.0654607,-0.5462247259891911,-0.3542890557898542,0.6480826750965655,-0.343776763900001,nan
1740797229.0693667,-0.564195175153405,0.3647297141208496,0.4537144784248305,-0.37450800502598114,nan
1740797229.0732725,-0.29263170259756766,0.7580981351286178,-0.04252539986167971,-0.18962505582773162,nan
1740797229.0771785,0.0817266486313172,0.24174284290229145,-0.42029457320032537,0.062043753874651934,nan
1740797229.0810845,0.3833988612135833,-0.7448492149866942,-0.4675128030693351,0.2604627865425394,nan
1740797229.0849903,0.5528619786472474,-1.2790386210450793,-0.33897060894529246,0.4052884642432776,nan
1740797229.0888963,0.5749214055781462,-0.920789363304967,-0.27325685114774,0.49082036658052736,nan
1740797229.0928023,0.3964141025413382,-0.06126858113477239,-0.27607587720963095,0.41411375961560465,nan
1740797229.096708,-0.002515868909323571,0.584496551228267,-0.15914471998144897,0.10290486776546064,nan
1740797229.100614,-0.47051793363060684,0.6784640714601224,0.16800460584429144,-0.30596536049647605,nan
1740797229.10452,-0.7155696045137018,0.4418001243714333,0.5518397361878165,-0.5295915050982157,nan
1740797229.108429,-0.5524021051327275,0.27354057381602465,0.7497055036987833,-0.4251364137083937,nan
1740797229.1123347,-0.11211384435986167,0.30744459190950274,0.6469113898049832,-0.15309092497377724,nan
1740797229.1162407,0.25449558923481763,0.336641534182061,0.2839522365411472,0.007701108310956582,nan
1740797229.1201468,0.3117999776914303,0.09388676402514454,-0.2390848758782476,-0.01919759004055168,nan
1740797229.1240525,0.1525142727099688,-0.4280271079338539,-0.7684805387698977,-0.047239771255850806,nan
1740797229.1279585,0.05284645576747054,-0.9027836015488453,-1.0348880673377763,0.10212611810454403,nan
1740797229.1318645,0.14311091299461565,-0.9107177055393535,-0.7625114854010989,0.3466883686403126,nan
1740797229.1357703,0.2750472109960535,-0.3208222756485966,0.016723882823542563,0.4319814729666112,nan
1740797229.1396763,0.22361417620097265,0.505308752820031,0.8063990543219242,0.2448657587243817,nan
1740797229.1435823,-0.034748226621617716,0.9356376404164979,0.9832925851244353,-0.04747036403619742,nan
1740797229.1474884,-0.29650157892601914,0.6139091842750349,0.4039108506373683,-0.2007889719603664,nan
1740797229.1513941,-0.3651260241201204,-0.15488334238447118,-0.3814549805547152,-0.1705208197522926,nan
1740797229.155303,-0.2473227014863923,-0.629638903360284,-0.6365079978120609,-0.1166855855116822,nan
1740797229.1592088,-0.09233656188578321,-0.3455787848037134,-0.1826625951109332,-0.15815173446396405,nan
1740797229.1631148,0.009426717663926314,0.38610491000536756,0.4364853351062165,-0.21552548890351853,nan
1740797229.1670208,0.09664878806765012,0.768193901945394,0.5637400549839945,-0.14293495973941459,nan
1740797229.1709266,0.20945142023511193,0.3544085468614449,0.12174263826674996,0.045565157842128244,nan
1740797229.1748326,0.272461252738691,-0.4566821245547576,-0.3830675033529557,0.17109609886048383,nan
1740797229.1787386,0.1747806106321876,-0.8415433128024885,-0.4936650722200099,0.1190348518848249,nan
1740797229.1826444,-0.050888059325127986,-0.44809861340374135,-0.28170840317562157,-0.0027353793942184903,nan
1740797229.1865504,-0.20710765918032542,0.2303651594934639,-0.12590508447381418,0.00802702676693864,nan
1740797229.1904564,-0.13626520328585276,0.43129369303372456,-0.14401752033253282,0.1904887335874734,nan
1740797229.1943622,0.08311180011349142,-0.005942338453861864,-0.050998608465889564,0.3570988987690708,nan
1740797229.1982682,0.20082611956608876,-0.47020730392372767,0.3702351811037848,0.2990135307450421,nan
1740797229.2021768,0.06701789289403046,-0.29898653608477194,0.8295852362228202,0.0074536512295608265,nan
1740797229.2060826,-0.19788294696936007,0.4430343369406992,0.7636715003030276,-0.33493375639736234,nan
1740797229.2099886,-0.33188540331779626,1.011570915050428,0.026364453566653717,-0.5381303291271807,nan
1740797229.2138946,-0.2087289345046735,0.7860681905501543,-0.8141755573672024,-0.5272045489633193,nan
1740797229.2178004,0.04819565591270057,-0.07947124219090378,-1.0040665920453005,-0.31306387751843073,nan
1740797229.2217064,0.22153555259429772,-0.8460987402224348,-0.39998280207631964,0.054531686634515915,nan
1740797229.2256124,0.22290195490419534,-0.9474119541791293,0.37758186507757585,0.44702380550647586,nan
1740797229.2295184,0.13582218251243466,-0.4714034039909743,0.6150404144366884,0.6396190952767862,nan
1740797229.2334242,0.07210589821678004,0.07098035350966708,0.2376293114759995,0.4630474249356191,nan
1740797229.2373302,0.04384882164733406,0.3147567327753536,-0.20139081520533936,0.020900158346878393,nan
1740797229.2412362,-0.008489300712465645,0.2997679722407579,-0.1995665447694348,-0.3230389414249085,nan
1740797229.245142,-0.10552783650992612,0.24695032708047038,0.15771449026115308,-0.27741998104318666,nan
1740797229.2490501,-0.19163419258839462,0.23706909598862075,0.3723288646861451,0.04921567230692717,nan
1740797229.2529562,-0.2011386650681213,0.17888379877238306,0.13844781095987407,0.23302653560614803,nan
1740797229.2568622,-0.12318632889266184,0.01628401323462229,-0.3377580778244959,-0.001091872091299977,nan
1740797229.2607682,0.008463292500149827,-0.15169017129093992,-0.5993547458028907,-0.4429219485927727,nan
1740797229.264674,0.15255335543814666,-0.1864414747987501,-0.4049939180168167,-0.599412152277345,nan
1740797229.26858,0.2557134625746603,-0.08413488996632978,0.10358276232205313,-0.2386223462859434,nan
1740797229.272486,0.23868709928040147,0.018401876761836283,0.5944343022268951,0.3376899934036884,nan
1740797229.2763917,0.05327171805820741,-0.0003085328611761419,0.7887795148490819,0.6110037920509804,nan
1740797229.2802978,-0.218027948715846,-0.1199212493461872,0.5522501249867787,0.39440669670382505,nan
1740797229.2842038,-0.36467572812937393,-0.20694354092739958,-0.07456017930926843,-0.005382640037777211,nan
1740797229.2881095,-0.22219861126438548,-0.14433005518652922,-0.8099120768208072,-0.1693748204804872,nan
1740797229.2920156,0.13381815525632348,0.06451821597048112,-1.172886913426632,-0.024577061407699198,nan
1740797229.2959251,0.4089691352173409,0.28641601360882335,-0.7973134320044104,0.1381339467057148,nan
1740797229.2998312,0.35409134180090945,0.34430507284881773,0.1726902406353704,0.055279088822394955,nan
1740797229.303737,0.013703398195135738,0.1598111429255003,1.0639058824954688,-0.20442301036404503,nan
1740797229.307643,-0.3136263730305421,-0.1420361601515804,1.1998001457486407,-0.36007960248345827,nan
1740797229.311549,-0.3695266682666032,-0.2937158353143927,0.5202987068647261,-0.26621512872748593,nan
1740797229.3154547,-0.16981452292163593,-0.1276927420106398,-0.35544437388241135,-0.05046200571940453,nan
1740797229.3193607,0.06108772886089973,0.20817454233708485,-0.7274453690727628,0.08582619225314116,nan
1740797229.3232667,0.15088862230364933,0.3373742745254877,-0.4605357242595033,0.10815568834991099,nan
1740797229.3271728,0.12701276052441474,0.039389172480448265,-0.011762488359570738,0.13012071038395814,nan
1740797229.3310785,0.10956824271781702,-0.45347418051912874,0.1329794819115515,0.20621809189819407,nan
1740797229.3349845,0.1237111107882656,-0.6303784646791182,-0.04913683693597141,0.243129529292034,nan
1740797229.3388906,0.08007141742739932,-0.23559676950417552,-0.21111407578889047,0.14460850735696423,nan
1740797229.3428,-0.06770722187526153,0.4112132902028367,-0.1143668381211684,-0.02791560034493408,nan
1740797229.346706,-0.2142398697176642,0.7108698381059312,0.11701488654747082,-0.1163784699753142,nan
1740797229.3506117,-0.20143250903383977,0.4113293743020871,0.22615157399031574,-0.07538042047182777,nan
1740797229.3545177,-0.010814787415836696,-0.13511510438857957,0.1771894237770818,-0.042356065497843765,nan
1740797229.3584237,0.19170229880952788,-0.38524243379666845,0.15976831763811508,-0.1563500877418495,nan
1740797229.3623295,0.22146037778779012,-0.20634615756473995,0.26620530939710174,-0.3491295913517529,nan
1740797229.3662355,0.060508247943127515,0.041719305294169354,0.30368132602504033,-0.38594680479595345,nan
1740797229.3701415,-0.1425195486318072,0.016483594208311095,0.025390663316101056,-0.12793477046354135,nan
1740797229.3740473,-0.23558938947613525,-0.16387703290364414,-0.4930541466926662,0.28980665338815165,nan
1740797229.3779533,-0.18936129515039876,-0.11373383554864575,-0.8258282429720382,0.5731370921371031,nan
1740797229.3818593,-0.06588343215342153,0.2408296888633085,-0.608477470618075,0.5420822135795441,nan
1740797229.3857653,0.0822522790912071,0.471669878644485,0.05546490047089781,0.26304615337077214,nan
1740797229.389676,0.2333475228097963,0.15664451916170596,0.6557364357621337,-0.06615599113033205,nan
1740797229.393582,0.3348674522025177,-0.5123688181640237,0.7506206803992599,-0.3020940246302789,nan
1740797229.3974879,0.28926252908610084,-0.8223735316563878,0.3573816228791145,-0.4080987342143965,nan
1740797229.401394,0.0520441666580815,-0.3185191725188614,-0.1226873084458464,-0.38332197218976255,nan
1740797229.4053,-0.2683522304612169,0.6137188291754777,-0.3183883082456656,-0.22470117853052557,nan
1740797229.4092057,-0.4584749668452359,1.0841698678852523,-0.1996313192653972,0.02046634265332044,nan
1740797229.4131117,-0.37961803710257075,0.6235355395428557,-0.01608721579038017,0.22358720115349423,nan
1740797229.4170177,-0.09651048492803371,-0.3268698801602149,0.0030468256740424837,0.26269634894799376,nan
1740797229.4209235,0.18368221597306364,-0.8968154607224249,-0.13625832143506658,0.147308173045178,nan
1740797229.4248295,0.2948854753667956,-0.677148652397341,-0.2373466969184195,0.016009842490867676,nan
1740797229.4287355,0.22944137146366317,-0.0388258849211554,-0.1274220328507101,-0.011157947780521673,nan
1740797229.4326413,0.09496011162988438,0.38411255666852506,0.16548011013122074,0.04472663158039695,nan
1740797229.4365504,-0.005931491820125983,0.3656338756072378,0.41512769365697366,0.06966006783852191,nan
1740797229.4404564,-0.04000428520724516,0.16266856309573477,0.378088464103252,0.008145957673302303,nan
1740797229.4443622,-0.023883034447124887,0.045839163652036954,0.020954625071273093,-0.07546044470913219,nan
1740797229.4482682,0.010061789991529865,-0.03155368518227938,-0.39962778843830743,-0.09474061599308997,nan
1740797229.4521742,0.019065093745329255,-0.2281483206604253,-0.5185463227323273,-0.058801658607303076,nan
1740797229.45608,-0.03908838854435311,-0.4334439090899102,-0.19456203875859143,-0.05131094009329646,nan
1740797229.459986,-0.15919388531748865,-0.30326395057270195,0.31320816688219527,-0.10305053836153655,nan
1740797229.463892,-0.25544812717114634,0.27198386898568194,0.5482084201179482,-0.13445874319680154,nan
1740797229.4677978,-0.21380466931260175,0.8701633383581263,0.29441105272427975,-0.0524672730004308,nan
1740797229.4717038,-0.006321261078469774,0.8678224154932476,-0.18923270307727783,0.11927786572415819,nan
1740797229.4756098,0.2532234175700799,0.10142901294063862,-0.4210601798636614,0.24600793918543468,nan
1740797229.4795156,0.3904617205321711,-0.8762861348401084,-0.20486685299846735,0.22242528190786592,nan
1740797229.4834244,0.31700166046155354,-1.2666833899411456,0.15655368891800026,0.08065198475221821,nan
1740797229.4873304,0.0949254648130373,-0.7567097937134447,0.20676996319092247,-0.05601149464324845,nan
1740797229.4912364,-0.135276188596969,0.22041073855347917,-0.12390965680850384,-0.10534874055915922,nan
1740797229.4951422,-0.27047275034011026,0.9126050690655618,-0.40625475638695924,-0.08716437492562935,nan
1740797229.4990482,-0.28726993407219253,0.8976162214382558,-0.19661416311657395,-0.06428911463236199,nan
1740797229.5029542,-0.20526740483329903,0.3497828481135057,0.4063387591792908,-0.06214897722687559,nan
1740797229.50686,-0.054638847678408174,-0.22364333358498278,0.7883739328871626,-0.06367160181358714,nan
1740797229.510766,0.11126927118948164,-0.4365976272743072,0.4589878957002776,-0.055030150773607935,nan
1740797229.514672,0.21119533749754738,-0.26513738767369166,-0.3737020891960546,-0.03865123529242191,nan
1740797229.5185778,0.18908444400371469,0.037976292936870056,-0.9458975251175704,-0.004416829053210879,nan
1740797229.5224838,0.07661148437590153,0.1931719293430409,-0.691559469463553,0.07065750887700105,nan
1740797229.5263898,-0.026823982678195166,0.09530405350098595,0.17208199654453918,0.16939687449484,nan
1740797229.5302985,-0.05449127088849285,-0.14600480124419915,0.8444214157076156,0.20773121241001097,nan
1740797229.5342042,-0.03681529702036777,-0.3215095901142746,0.7228916464451238,0.10792111805196582,nan
1740797229.5381103,-0.045424830727776214,-0.2973117458634353,-0.03226442138263843,-0.09072422235136587,nan
1740797229.5420163,-0.0863740243173506,-0.11005239362027157,-0.6963341475024253,-0.23048658627396995,nan
1740797229.5459223,-0.0864959976119061,0.09846531914517527,-0.6947698913605787,-0.18181578758154562,nan
1740797229.549828,0.0013779590638728883,0.2337875596808034,-0.10339160739692965,0.01161666895519734,nan
1740797229.553734,0.11370642710764382,0.3161011322742046,0.5090697186749198,0.1637213020296512,nan
1740797229.55764,0.13725723159071884,0.3878614853806595,0.6532541802715626,0.13385867503048968,nan
1740797229.5615458,0.04941699732951056,0.3926259327821722,0.31178462083301767,-0.03307924487076,nan
1740797229.5654519,-0.047937657660905124,0.20842245180630425,-0.16304611783700124,-0.167189732577396,nan
1740797229.5693579,-0.05882730693152516,-0.17753327231893049,-0.4337570772964375,-0.1561120145872274,nan
1740797229.5732636,-0.021889685022639896,-0.5745610613340364,-0.4219186802050923,-0.04043462949270088,nan
1740797229.5771723,-0.05403212969806026,-0.7274828556013839,-0.24071333421335273,0.06624993811025412,nan
1740797229.581078,-0.16493677937984805,-0.5525703764792047,-0.0014971221844361162,0.11056803649684696,nan
1740797229.584984,-0.19415774172728054,-0.1946992811130795,0.25094805220101407,0.12421233378210876,nan
1740797229.58889,0.005012439792156017,0.15598059923195426,0.4505047923478574,0.13856714113084437,nan
1740797229.5927958,0.3352170994229235,0.44367454803503414,0.4567311109624292,0.12493769778199244,nan
1740797229.5967019,0.487254444276585,0.6912041229720008,0.16669740714932885,0.040538994132738794,nan
