timestamps,TP9,AF7,AF8,TP10,Right AUX
1740572813.8267078,0.0549119695730326,-0.7132271456651404,-1.1293186009111036,0.36368270147343246,nan
1740572813.8306134,-0.2889208210123904,0.07651704622597265,-1.7929519770613984,-0.04306042473869433,nan
1740572813.8345191,-0.42295206205090174,0.8043301190064337,-1.0063626802290115,-0.522740758425307,nan
1740572813.8384247,-0.2392413956712037,0.8146372278737672,0.4209224479776905,-0.6331790353678225,nan
1740572813.8423302,0.09255267079287227,0.27469760774801066,1.1641505280865405,-0.29937350175924865,nan
1740572813.846236,0.27975777322616696,-0.13973130766466008,0.7234725881194342,0.13345080506438153,nan
1740572813.8501415,0.18297409866310646,-0.1553322392247644,-0.2047524888576008,0.3099378596887772,nan
1740572813.854047,-0.06662264107357366,-0.18734499121754586,-0.64196745407055,0.21797952245899127,nan
1740572813.8579526,-0.21859574940472354,-0.6168970950454832,-0.36346448694954797,0.09622427752426982,nan
1740572813.8618584,-0.14655933787691866,-1.0568333002249204,0.1078657622624257,0.08722067049244976,nan
1740572813.865764,0.06705538483144759,-0.6968001067330764,0.32515890698708294,0.1010235910857227,nan
1740572813.8696694,0.25097064794728036,0.583291245984034,0.3792378132329632,0.01681525951538766,nan
1740572813.8735878,0.2979143682912008,1.7643858109860664,0.4765101575795855,-0.10528794415384139,nan
1740572813.8774934,0.19816316119909244,1.650116464598281,0.403770192451895,-0.10579424551643174,nan
1740572813.881399,-0.01127618840458924,0.23031683199792574,-0.2113486155594014,0.026958659875207205,nan
1740572813.8853045,-0.26245898107908405,-1.195455136138397,-1.141445039417533,0.10642878268437672,nan
1740572813.8892102,-0.43147698479830465,-1.3859747891796796,-1.4655781740941787,-0.016290646052009347,nan
1740572813.8931158,-0.38071023410642574,-0.4740032959596137,-0.5388639410232675,-0.24045775280702586,nan
1740572813.8970213,-0.09432800690705867,0.3028192405720575,1.0635163285453795,-0.31862797951796407,nan
1740572813.900927,0.24385385106776594,0.1165851498516161,1.9195749493541456,-0.152028570628429,nan
1740572813.9048326,0.37858972851707046,-0.5148218855112922,1.2189140693626297,0.0994989383523903,nan
1740572813.9087381,0.23012995251482543,-0.47434885346333344,-0.3362382543107181,0.2274121507082512,nan
1740572813.9126437,-0.012042935800405198,0.4794486958166569,-1.283838938959404,0.22054265651408014,nan
1740572813.9165494,-0.08422505562601103,1.3459141713798584,-0.9668588257235464,0.2257177751685837,nan
1740572813.920467,0.06480145942230138,1.0856845688002739,-0.10101189430633334,0.2916683199786578,nan
1740572813.9243724,0.21938011738225638,-0.08574886867718381,0.24499074775648122,0.26152014819518654,nan
1740572813.928278,0.14241895001192137,-0.9156788484049087,-0.06293521414556011,-0.017599903429226404,nan
1740572813.9321835,-0.15796395430335458,-0.5968437834526373,-0.23412410012235269,-0.4341826362790136,nan
1740572813.9360893,-0.43795543437496665,0.28188793438117027,0.2580203797646181,-0.6622732737068993,nan
1740572813.9399948,-0.47278266286226583,0.47224711786690066,0.8980949204251049,-0.49781524753538015,nan
1740572813.9439003,-0.25502409872001613,-0.3986289654302752,0.774688035469143,-0.08318772498909494,nan
1740572813.9478061,0.05906163466362525,-1.343941567092906,-0.18888113331380518,0.25428818460800745,nan
1740572813.9517117,0.3301588052217275,-1.1605204260872033,-1.0193945494884071,0.35170337607862695,nan
1740572813.9556172,0.5014732989700189,0.16443240469574522,-0.8125162617620989,0.3269373265586381,nan
1740572813.9595227,0.5195287047650383,1.4275605309422907,0.18204756297559163,0.3468458394252158,nan
1740572813.9634285,0.3036916632311638,1.5459485107677455,0.8437225033301364,0.3709662409820934,nan
1740572813.9673452,-0.12830450702326468,0.6674403894070262,0.4818718342143651,0.20938786957840996,nan
1740572813.9712508,-0.546990805635492,-0.17192528395145612,-0.41412565531789747,-0.1839947549952665,nan
1740572813.9751563,-0.6373963760854221,-0.3098915846003605,-0.818299487868828,-0.5714516665029303,nan
1740572813.9790618,-0.3044075352474812,-0.09920328439581562,-0.3521605229812754,-0.6439658729740539,nan
1740572813.9829676,0.1825901025677915,-0.26088939530775007,0.40012802552100957,-0.3450132084059448,nan
1740572813.9868731,0.4199483829702477,-0.8647689103011078,0.6879821658153614,0.07256051765433039,nan
1740572813.9907787,0.26170488542386555,-1.217161786688968,0.41624227369145184,0.3105206108549705,nan
1740572813.9946842,-0.05373228951606037,-0.7416197129029657,0.04374927454755823,0.29614770462682966,nan
1740572813.99859,-0.18291300024224222,0.27503119785843555,-0.12095684298865343,0.1765593723181211,nan
1740572814.0024955,-0.041852443357368735,0.9788733137661368,-0.2178229072373938,0.10363189764756138,nan
1740572814.006401,0.14974461252624385,0.9000056432910187,-0.41944838917459576,0.09184196147677126,nan
1740572814.0103068,0.1606005829662535,0.41461097162382393,-0.5216463406058321,0.07731951026533279,nan
1740572814.0142226,0.007449968521505284,0.21456338559371493,-0.20176207347398942,0.035443326219224226,nan
1740572814.0181282,-0.11017506774812405,0.46627531938597017,0.4078148329491182,-0.013812902935317294,nan
1740572814.0220337,-0.07777518670231541,0.6478491337099428,0.7076967066857184,-0.07799144144748628,nan
1740572814.0259395,0.012032816172808655,0.20306424672294845,0.3271085278010857,-0.18994742374469842,nan
1740572814.029845,0.011531636971942684,-0.7793352306934086,-0.34373720549241593,-0.3151689327707168,nan
1740572814.0337505,-0.08131682764914128,-1.6075809394070157,-0.5469700818928949,-0.32467459900359036,nan
1740572814.0376563,-0.13325565634054767,-1.6438723606954357,-0.06606636873389692,-0.12475892788904482,nan
1740572814.0415618,-0.060241623093286505,-0.8499307937964337,0.4840339567086889,0.19594536406580382,nan
1740572814.0454674,0.06924959560428182,0.2702033986387074,0.39920611989781446,0.40930770398704974,nan
1740572814.049373,0.1337111898248364,1.141781035633522,-0.229544664632392,0.3668865999812051,nan
1740572814.0532787,0.10540068757265199,1.489905796117509,-0.6039599284090637,0.14753525812471083,nan
1740572814.0571842,0.04911042786756953,1.3538557594464746,-0.20610941323748294,-0.04361771586241303,nan
1740572814.061099,0.006288652073251406,0.8969331962127028,0.521767816117007,-0.1000631889248491,nan
1740572814.0650046,-0.045168770127517195,0.2654469946754738,0.6661768091343903,-0.09137585121411834,nan
1740572814.0689104,-0.10172037361728821,-0.4250092173968594,-0.060165285851064385,-0.12092120417994784,nan
1740572814.072816,-0.08113738071893817,-1.0477251522220463,-0.9249176264609991,-0.1729235873690179,nan
1740572814.0767214,0.06681973659622105,-1.437998422025766,-0.9664801909209046,-0.1520219668024058,nan
1740572814.080627,0.2224797890664907,-1.4136423957505317,-0.05333421151054449,-0.04232796535049333,nan
1740572814.0845327,0.1703038726645269,-0.8712103772589045,0.9861114947976388,0.052262163190389045,nan
1740572814.0884383,-0.134788921346774,0.06679238272026508,1.2510680218365455,0.051523792124943714,nan
1740572814.0923438,-0.4341325626960727,0.9991107091580573,0.631517039352507,0.020023101863866223,nan
1740572814.0962493,-0.39633914871949777,1.44189218216,-0.24644869744395737,0.07636173322068267,nan
1740572814.100155,0.0015185471945806757,1.195900448826412,-0.7647658783554031,0.2002522163775958,nan
1740572814.1040606,0.4006980760328265,0.5423381830914968,-0.8232315542769235,0.21835774403502078,nan
1740572814.1079745,0.43196326929924606,0.002871702697326174,-0.6535677609999325,0.029259076101531625,nan
1740572814.1118803,0.1253414629442769,-0.15464390976967196,-0.3737940786635491,-0.2152516689061105,nan
1740572814.1157858,-0.13285065150769376,-0.14965215041559587,0.08252724082247369,-0.24674876489834258,nan
1740572814.1196914,-0.0634450906760013,-0.3793085186943992,0.6545907200114278,-0.010973183381163125,nan
1740572814.123597,0.1709439169865804,-0.8926156141911946,0.996335227013212,0.22026292419782267,nan
1740572814.1275027,0.17137642265173672,-1.2587917233068322,0.7739839367177195,0.1416001092420269,nan
1740572814.1314082,-0.1913331034785211,-1.0136927034395573,0.0766738658124041,-0.2072563222285636,nan
1740572814.1353137,-0.5833008310752267,-0.1897645897765785,-0.590587355289241,-0.44421598924733713,nan
1740572814.1392193,-0.5697846278813986,0.686049019087622,-0.7659561015377542,-0.26416559460884714,nan
1740572814.143125,-0.10678273699137693,1.1282351377429451,-0.4405866779706162,0.20041614752501166,nan
1740572814.1470306,0.4140777338326614,1.1322724902770274,0.005961006949815933,0.5086385644737696,nan
1740572814.1509361,0.5986893185375023,1.0098552004229735,0.21987391168218504,0.39108476565133704,nan
1740572814.1548493,0.4325224087054767,0.8614951290281457,0.16639209287545717,0.026493402146769526,nan
1740572814.158755,0.1868655623237722,0.39461701130548077,0.04575428318644458,-0.19441385415578663,nan
1740572814.1626606,0.032709179391103065,-0.621762119975569,0.01649319429880582,-0.12031816755550831,nan
1740572814.1665661,-0.1198876325334817,-1.8034747844801593,0.057090621648087904,0.02867193215118652,nan
1740572814.1704717,-0.38008036134915846,-2.2607040770594855,0.06232282574461263,-0.022565810789373524,nan
1740572814.1743774,-0.6036567954918515,-1.4134713547038154,0.0024123799645636395,-0.24844555821103914,nan
1740572814.178283,-0.499582987974101,0.31287314664811905,-0.04143858220204562,-0.3580607399617432,nan
1740572814.1821885,-0.011635156116238431,1.724032912710535,0.021629920695278713,-0.15846554442885766,nan
1740572814.186094,0.5199291478819386,1.8834277866474363,0.17282456108440314,0.20536591852885253,nan
1740572814.1899998,0.6639185242694116,0.9241686748961955,0.26217965095610846,0.41109814573432163,nan
1740572814.1939054,0.33892072367623977,-0.16521325348136648,0.12055731627869314,0.3088313535755924,nan
1740572814.197811,-0.12065457589939478,-0.5340535622686763,-0.26011815810233535,0.049928374666529926,nan
1740572814.20173,-0.3364391962075771,-0.21241508524336972,-0.6346185720296736,-0.11816251684978728,nan
1740572814.2056355,-0.24962653804971535,0.10580088412544757,-0.6463098422156942,-0.11375603834222935,nan
1740572814.209541,-0.0805160268352559,-0.08946986108023537,-0.15588246890499782,-0.046334836228084784,nan
1740572814.2134466,-0.003608817406065086,-0.5950752553055451,0.5396873284558197,-0.0349631388762915,nan
1740572814.2173524,0.025757259649967335,-0.805054839340496,0.889366485768133,-0.07595653633443913,nan
1740572814.221258,0.11173853956327875,-0.4361401742411511,0.5869169132874422,-0.09524338428770159,nan
1740572814.2251635,0.19893723724733817,0.16827139223215556,-0.09563149463780828,-0.06541908786400907,nan
1740572814.229069,0.12295066546311903,0.46085756173154524,-0.5388355877274874,-0.020646607183942574,nan
1740572814.2329748,-0.13358662518601114,0.31228348926272476,-0.39054555624171544,0.01764288611793337,nan
1740572814.2368803,-0.3438260465849042,0.10864206884090422,0.07732227583723096,0.06779999161963399,nan
1740572814.2407858,-0.26637308801339243,0.23258280137123116,0.27786474705006675,0.12863554113634001,nan
1740572814.2446916,0.06381088137293794,0.5572373587352509,-0.03755218122632461,0.14434389808688333,nan
1740572814.2486095,0.34850920300556515,0.5690439117803915,-0.5048794424183932,0.07199932441970494,nan
1740572814.2525153,0.3405716675468742,0.002563326119088517,-0.5575808729459756,-0.03797235474765947,nan
1740572814.2564209,0.09104306942940071,-0.7492736225699775,-0.05506110190237021,-0.08306644107565883,nan
1740572814.2603264,-0.1448585610989452,-0.9718413911554312,0.5694391372024539,-0.04039041565371638,nan
1740572814.264232,-0.19874263041634893,-0.396973356189221,0.7748833593374044,-0.00813560995254766,nan
1740572814.2681377,-0.12373557305305116,0.4424111047412439,0.4447297997956309,-0.07542060124101424,nan
1740572814.2720432,-0.055914209798144765,0.7128834456284754,-0.07520876763676179,-0.17857652546794808,nan
1740572814.2759488,-0.029678362298071942,0.14608809016525687,-0.3873235858794879,-0.15230218769463907,nan
1740572814.2798545,0.014695922757004456,-0.6572628880284996,-0.3911684617168977,0.0563241417368758,nan
1740572814.28376,0.08791263956854775,-0.8372742037202187,-0.24334230531284476,0.27750887514450584,nan
1740572814.2876656,0.10852869400661315,-0.1646482682675007,-0.10320522440108267,0.28184789764866713,nan
1740572814.2915711,0.027406159174634438,0.7376301398141595,-0.010652939606242636,0.04826051942804927,nan
1740572814.2954886,-0.0711679124065284,1.0654541887287419,0.042601031070771844,-0.18892883973851887,nan
1740572814.2993944,-0.05978391481635055,0.6510038582807255,0.052645004202074575,-0.19329897591687645,nan
1740572814.3033,0.05670051551831146,0.041542216032227026,0.05096899802490174,0.005956046194293631,nan
1740572814.3072054,0.12625133858560414,-0.19710023231811422,0.11595819375141393,0.15004471107822384,nan
1740572814.3111112,0.0377915139034691,-0.11809691105361747,0.24979064942269213,0.05387407078862106,nan
1740572814.3150167,-0.1249373323629874,-0.236220053057379,0.29437979060125546,-0.17689461877735388,nan
1740572814.3189223,-0.17375139768634837,-0.7871194465210564,0.09298907126986619,-0.26588332406664955,nan
1740572814.3228278,-0.047203616585166815,-1.3100715354411216,-0.2459526304465465,-0.07928461139500523,nan
1740572814.3267336,0.1104808925169016,-1.0908069197675816,-0.37688949752530565,0.22550339241113843,nan
1740572814.3306391,0.1258614874558546,0.009402918535774638,-0.12258157549389752,0.3688414635232967,nan
1740572814.3345447,0.005018832335347658,1.2875645065896286,0.21608073528867477,0.2296099057217474,nan
1740572814.3384502,-0.08654211168544713,1.826819504141659,0.1387491673204775,-0.06194001455026355,nan
1740572814.342367,-0.03734309496063559,1.348339273545021,-0.40010754973673823,-0.2783304439578409,nan
1740572814.3462725,0.07985215456668121,0.38245935553539767,-0.7716694667672496,-0.2968113617816803,nan
1740572814.350178,0.11498296872524234,-0.36254687700602256,-0.31248402264579067,-0.15562417077242968,nan
1740572814.3540835,0.027931531203463415,-0.6771814123886274,0.8090896167928358,0.02989318251372927,nan
1740572814.3579893,-0.08590831699726251,-0.8440671124706923,1.5680763532156687,0.16208343731590272,nan
1740572814.3618948,-0.13687270352837058,-1.0712060595391935,1.0946097852943486,0.1950791301227257,nan
1740572814.3658004,-0.13375344405648562,-1.1308920684819315,-0.3397353726741996,0.13561994745358982,nan
1740572814.3697062,-0.10908164261222579,-0.6599743721805045,-1.517863946819134,0.038019148570099706,nan
1740572814.3736117,-0.021037034182981234,0.27386770322370213,-1.50451852672366,-0.02845608391445441,nan
1740572814.3775172,0.18211424468308068,1.0837515193188287,-0.5435315991590424,-0.04075355795384613,nan
1740572814.3814228,0.4039330459156019,1.2237676948025025,0.364935449591835,-0.044921031655412336,nan
1740572814.3853285,0.4066129354710873,0.7667547661000519,0.638865966133048,-0.09133540449909115,nan
1740572814.389244,0.0604338585107546,0.30718270664076386,0.6074458154216086,-0.15040513069972558,nan
1740572814.3931496,-0.4359747720201253,0.267546067008062,0.7910380341965271,-0.1308400853506731,nan
1740572814.3970551,-0.6764204711980853,0.39757731095760046,0.9942626690002303,-0.0017412125913107695,nan
1740572814.400961,-0.43852994966061354,0.07029313633239068,0.4866032950296187,0.1374027422268842,nan
1740572814.4048665,0.07780347481802902,-0.9158470847965905,-0.8763489010497971,0.1569147373863292,nan
1740572814.408772,0.4482764640554268,-1.9244492905445787,-2.0615311191061383,0.06296387290652446,nan
1740572814.4126775,0.444819767215511,-1.9809832334378306,-1.7583536703590672,0.005563529780754125,nan
1740572814.4165833,0.21093646827439147,-0.7389700378532443,0.10031720584320108,0.08375080782083429,nan
1740572814.4204888,0.0265314768226665,1.06608224466357,1.9920994244439263,0.18343657437146238,nan
1740572814.4243944,-0.017935508103405967,2.1784380707517443,2.213168242131802,0.08704591200997996,nan
1740572814.4283001,-0.048464536637073494,1.8985973537605019,0.6020074453459477,-0.23513259334050662,nan
1740572814.4322057,-0.1567861520386852,0.6563866471663715,-1.2999959691032903,-0.5098788770318301,nan
1740572814.4361205,-0.24273225934794135,-0.4520277929976417,-1.826946482483106,-0.4151459632185347,nan
1740572814.440026,-0.1651376349289107,-0.6946413999080907,-0.7846205456732623,0.047983312329987114,nan
1740572814.4439316,0.02102741937769626,-0.301766998171498,0.587226308772611,0.5013169204061168,nan
1740572814.4478374,0.09355083385626686,-0.08341925171924015,1.060545518246407,0.552438104931314,nan
1740572814.451743,-0.04722832525992259,-0.49818149751985,0.576277842807073,0.1897776834173528,nan
1740572814.4556484,-0.20636182557857927,-1.142813810218257,-0.03798747397089906,-0.22469840170834895,nan
1740572814.459554,-0.10064255351319414,-1.1873059568740951,-0.19642565707473084,-0.3442779955553517,nan
1740572814.4634597,0.2775019633019,-0.29604007969119805,-0.10334621964925231,-0.16449417130362307,nan
1740572814.4673653,0.590255536266984,0.9428949676566567,-0.2165342802426296,0.05043053406851967,nan
1740572814.4712708,0.49674848368577745,1.555925451735693,-0.49848126815342203,0.09944800003938908,nan
1740572814.4751766,0.026523211205666433,1.1418664221139176,-0.46554167567616805,0.02618581324255024,nan
1740572814.479082,-0.44434270078441496,0.23815220889310576,0.08883982999161402,-0.01812883855279889,nan
1740572814.4830034,-0.5792263085223701,-0.2934088923400981,0.7022203516392738,0.004733994621540979,nan
1740572814.4869092,-0.38560471965249593,-0.18525975555037363,0.7299991920522471,0.007213921537672456,nan
1740572814.4908147,-0.12357548740438738,0.0279988274556168,0.11463745369062125,-0.05510228365599544,nan
1740572814.4947202,0.018676199733726175,-0.2670092214844831,-0.5197462830415426,-0.09922325133102858,nan
1740572814.498626,0.08384049917244217,-0.9518333541333585,-0.5639853001467324,-0.03541230298965541,nan
1740572814.5025315,0.19714021928602268,-1.2425536301163707,-0.07339499164046534,0.09064925866544632,nan
1740572814.506437,0.35287957496476385,-0.5960914021857422,0.36939831287123337,0.14807074253542102,nan
1740572814.5103426,0.41244189275674537,0.5793752742552357,0.34825411754637525,0.09742570503154603,nan
1740572814.5142484,0.28328502246023807,1.2691754275150862,0.014755367065734227,0.03832302661862905,nan
1740572814.518154,0.02831093452462702,0.9158479883376464,-0.21347833973121016,0.05003234581208258,nan
1740572814.5220594,-0.2156966676632045,0.01377468154722331,-0.19225686473049938,0.05239135105300928,nan
1740572814.5259652,-0.370370770500922,-0.45068969977582596,-0.1419993901609223,-0.0899331806408036,nan
1740572814.5298784,-0.4256027962949442,-0.0894699685385855,-0.2412756062140393,-0.33343420390182,nan
1740572814.5337842,-0.3614245648800893,0.49927716178885484,-0.3116630941864607,-0.42341736325588486,nan
1740572814.5376897,-0.14483141764875465,0.4698419530083736,-0.03385854941338631,-0.16667066764867006,nan
1740572814.5415952,0.1707738244075504,-0.27485467305012484,0.5694475941704,0.2970986907110543,nan
1740572814.5455008,0.40714857164725154,-0.9758520726517261,1.0105480200418904,0.5815409559832003,nan
1740572814.5494065,0.39822237773148284,-0.8964243141975677,0.7843134569981952,0.4403434481434932,nan
1740572814.553312,0.17179405192498376,-0.1474258301699294,-0.08046472786771193,0.02086660104292001,nan
1740572814.5572176,-0.05678305256489611,0.4807508665416883,-0.9739000012819486,-0.3058217718998141,nan
1740572814.5611234,-0.10306530691499154,0.4386231190020396,-1.2327169312283048,-0.3317005045889373,nan
1740572814.565029,-0.0011668593044533496,-0.004023035556788044,-0.7175881289350862,-0.17021056181442742,nan
1740572814.5689344,0.057944450380565275,-0.16180107255596393,0.10953463160867555,-0.045737968717976814,nan
1740572814.57284,-0.041376774749668374,0.2150387062041099,0.6380233955781994,-0.019707352023891782,nan
1740572814.5767596,-0.21384546073505964,0.6642642886873805,0.6267969111438868,0.012614331708304172,nan
1740572814.580665,-0.28653288315850556,0.5987018446301718,0.32074404016160885,0.10905408315957017,nan
1740572814.584571,-0.19190469586395723,0.01521969508120584,0.12095958870629345,0.17792381774676383,nan
1740572814.5884764,-0.01210184052112644,-0.5164952866079231,0.17229648282750376,0.12187304278200534,nan
1740572814.592382,0.14011720317250942,-0.5335405885396882,0.2636602748862072,5.08214368623935e-05,nan
1740572814.5962875,0.22383284541568296,-0.19433308493518164,0.10534136788151102,-0.043675441780070365,nan
1740572814.6001933,0.24454134406708655,-0.034573469139839504,-0.32061076613225326,0.007307340453509232,nan
1740572814.6040988,0.19005998661051882,-0.2900924863398201,-0.704098842444319,0.006109140060951111,nan
1740572814.6080043,0.05283497563825432,-0.5994209907976263,-0.7081685209842408,-0.13613721972148002,nan
1740572814.61191,-0.10142442932700464,-0.42177208846981357,-0.3133538783563658,-0.2715600631927765,nan
1740572814.6158156,-0.16022901003215506,0.3223870863463395,0.166292723422929,-0.1657446779121119,nan
1740572814.6197212,-0.09386421549170995,1.10323232514046,0.4150566711175657,0.1740896788717641,nan
1740572814.623639,-0.014330636164806652,1.2691686945403624,0.4199706142548596,0.429282179609291,nan
1740572814.6275449,-0.04754978421622615,0.6478153686466297,0.3964439819134419,0.30696039179730816,nan
1740572814.6314504,-0.1583270406371308,-0.3176808384744021,0.4373233830291245,-0.09795043528239658,nan
1740572814.635356,-0.17002123671936953,-0.9651477223811886,0.34738520331797046,-0.3780587450760607,nan
1740572814.6392615,0.010706897965965247,-0.935342589450021,-0.08086241529156538,-0.2689956821254166,nan
1740572814.6431673,0.24087562442754995,-0.3919373032941764,-0.6697403198293846,0.055161596510545266,nan
1740572814.6470728,0.28115448405418836,0.16784000891234607,-0.8920684926069494,0.20705647973492877,nan
1740572814.6509783,0.08288634667953747,0.3160599878756608,-0.41995392910817464,0.05354763132680649,nan
1740572814.654884,-0.13663324639378419,0.01412003926145821,0.40843032820790703,-0.14970270579398862,nan
1740572814.6587896,-0.14471661344001868,-0.3711056402353578,0.8215681205496372,-0.10766749176338924,nan
1740572814.6626952,0.030576051445942557,-0.3812140918760882,0.3985832156617397,0.13661270360039957,nan
1740572814.6666007,0.14597369300994548,0.11710478395576461,-0.4412307579606474,0.27140211615606935,nan
1740572814.6705182,0.05459287839376527,0.7764208460253693,-0.8391448605544359,0.12418490965222216,nan
1740572814.674424,-0.11528406019437352,1.0556654133425991,-0.39327200940574164,-0.12682431438795275,nan
1740572814.6783295,-0.1433314280709685,0.7103339240558504,0.4364086183221187,-0.19869339634023253,nan
1740572814.682235,-0.017077725366346136,0.0040000119765691,0.86049703078898,-0.0664797683331262,nan
1740572814.6861408,0.05470538212679587,-0.5778205281791821,0.6041632079278179,0.036058863434863045,nan
1740572814.6900463,-0.060183600309255694,-0.7936290611964854,0.09909686018669119,-0.03977587201156165,nan
1740572814.6939518,-0.20899478026408141,-0.7760027561772063,-0.13704892500286145,-0.148099701692687,nan
1740572814.6978574,-0.13504298621327632,-0.718585799183505,-0.12332418171179076,-0.06222194652761097,nan
1740572814.7017632,0.1680977694442468,-0.5575164408144989,-0.273261684544099,0.1821521472556081,nan
1740572814.7056687,0.4005049948660504,-0.08359900558006335,-0.7134833041082145,0.2961911250286485,nan
1740572814.7095742,0.30286855330284485,0.6527111403552627,-0.9856304739480947,0.11126105333090651,nan
1740572814.71348,-0.02036120824838596,1.2080478914877895,-0.5708232897176329,-0.17628057389987056,nan
1740572814.7173967,-0.2233681341620257,1.145138609594469,0.3934453114004864,-0.23292903320675828,nan
1740572814.7213023,-0.14454065959574872,0.5287242351397184,1.1363727037456057,-0.009445418554493877,nan
1740572814.7252078,0.008972926200121,-0.1116287416944775,1.0652195588995164,0.19526112768382317,nan
1740572814.7291133,-0.038567925725465656,-0.36254410222059597,0.41588070489621526,0.12093525922125677,nan
1740572814.733019,-0.23820775626192042,-0.363968874395677,-0.05889988030773871,-0.11967731464830574,nan
1740572814.7369246,-0.262347981582237,-0.5455426743269557,-0.007077888869518035,-0.20127550493425908,nan
1740572814.7408302,0.04322493691186632,-0.9702062066261065,0.11848695316053176,-0.029198662970444787,nan
1740572814.744736,0.39090111478110856,-1.131419031901289,-0.3100234795178418,0.13167395909240123,nan
1740572814.7486415,0.35951401496561664,-0.5351779602712251,-1.1810633214280177,0.027746129832146773,nan
1740572814.752547,-0.06604217050812108,0.5966638628042474,-1.5954801781661068,-0.20656107481966848,nan
1740572814.7564526,-0.4117332112838695,1.4022703389190891,-0.8382826059127593,-0.1959723615652865,nan
1740572814.7603583,-0.24622908971482366,1.2474687179820643,0.7133833400711282,0.16259928036720386,nan
1740572814.764274,0.2873095216924983,0.41493119173919624,1.829598419663006,0.49710451051084337,nan
1740572814.7681797,0.5975419702521045,-0.2137233272972071,1.6223286122322695,0.38048205700740967,nan
1740572814.7720852,0.31091315496306454,-0.1501490501883167,0.4150621561413054,-0.12400990513478143,nan
1740572814.7759907,-0.29928146696951646,0.18175308254655906,-0.6427256678273856,-0.49494547515743453,nan
1740572814.7798963,-0.6245788402142401,0.014693479132461362,-0.7659380070925955,-0.35936209385898193,nan
1740572814.783802,-0.39962719628963933,-0.7720629339763486,-0.23510940961786764,0.06634365795559576,nan
1740572814.7877076,0.04588488170557449,-1.42158900561287,0.08040697422366559,0.25495538468133727,nan
1740572814.791613,0.22233496816402115,-1.1278050846528882,-0.24524989955286244,0.021908372457209172,nan
1740572814.7955189,0.04852743205061159,0.02095962572848686,-0.7680821331786696,-0.2647251878463725,nan
1740572814.7994244,-0.11529474168611874,1.0760241875203234,-0.7535542476090389,-0.17471008838256324,nan
1740572814.80333,0.041319264703722096,1.2130154624662117,-0.03622210398306871,0.22397042534176392,nan
1740572814.8072355,0.3887649748240392,0.5614325731803818,0.8005578907112119,0.4481386126782338,nan
1740572814.81115,0.5203515679020152,-0.02770866326239983,1.0600562070573085,0.2141895899467693,nan
1740572814.8150556,0.2335458046894704,0.03068301479218505,0.630546277670945,-0.20219224299819466,nan
1740572814.8189614,-0.2491171872212071,0.44097360205027314,0.007886175340087365,-0.3143818754144109,nan
1740572814.822867,-0.5353482021459721,0.43978695992875166,-0.2943661744803738,-0.029916361401333098,nan
1740572814.8267725,-0.45288894513070854,-0.2786625189366067,-0.243700894997319,0.25313245666845774,nan
1740572814.8306782,-0.1493157851232942,-1.1749057527752202,-0.18393746935128946,0.1612195621587999,nan
1740572814.8345838,0.12135280183292775,-1.419830936629524,-0.33519954153313786,-0.19695022586430921,nan
1740572814.8384893,0.2216645910125777,-0.7579947901466154,-0.5157090275531864,-0.39536186699436154,nan
1740572814.8423948,0.16103062872328222,0.24863421445676165,-0.3868893801245516,-0.23043595706010928,nan
1740572814.8463006,0.017387566313079705,0.8163340685372251,0.09940394262557793,0.06713161411144998,nan
1740572814.8502061,-0.10319331930149994,0.7093673129142225,0.5869195955409602,0.1823287735634691,nan
1740572814.8541117,-0.08775751112646069,0.3836430226433369,0.6669208400571757,0.12110141681120554,nan
1740572814.8580253,0.09627119203300334,0.3972345658813738,0.2961542444478188,0.13143563407969508,nan
1740572814.861931,0.3143910984950665,0.743210314941048,-0.17906663278749232,0.286657146478647,nan
1740572814.8658366,0.3439745602960854,0.8256768209415589,-0.3954554210091922,0.3386389767033132,nan
1740572814.8697422,0.10399372405970383,0.12896793797156114,-0.307833490084848,0.06473735161014503,nan
1740572814.873648,-0.2245930189966408,-1.1036689751825666,-0.131082169298319,-0.366111670959219,nan
1740572814.8775535,-0.37457387806985026,-1.9309677266726397,-0.016458786996801825,-0.5367471064490302,nan
1740572814.881459,-0.285007040414166,-1.5556214043681,0.10545026456903468,-0.2841964714875826,nan
1740572814.8853645,-0.14747045763302788,-0.16068213605578188,0.3238140583664,0.09087233340483372,nan
1740572814.8892703,-0.1343126960137586,1.1486940260949712,0.48676551269182,0.19498438033020832,nan
1740572814.8931758,-0.159752234422698,1.354326414932643,0.2929951023852081,0.019049462944875098,nan
1740572814.8970814,-0.0054757466952533,0.5278338871730345,-0.298524120192747,-0.09492378765650236,nan
1740572814.9009871,0.33760704687430093,-0.24354472034553576,-0.851393714816928,0.06173004131809968,nan
1740572814.9049003,0.5789707962213335,-0.027208052575825876,-0.8038608037639485,0.28561031680881155,nan
1740572814.908806,0.4556027587090124,0.8823432998982622,-0.0920421825941143,0.2601432505659998,nan
1740572814.9127116,0.07768478097545604,1.2061021093923106,0.6773530198093581,0.013371317640370549,nan
1740572814.9166172,-0.17888776268544687,0.09981312011098603,0.8038321535812376,-0.11041263678525363,nan
1740572814.920523,-0.13583294873335058,-1.745522561777697,0.24674760801200993,0.052865889926258944,nan
1740572814.9244285,-0.04063814326933366,-2.615835943218867,-0.3109375222561807,0.20868016345127013,nan
1740572814.928334,-0.22988836636167223,-1.495353656707008,-0.2276533219505196,-0.02494522319769821,nan
1740572814.9322395,-0.629936029846085,0.7980374938246749,0.34212829582016313,-0.5464341033229729,nan
1740572814.9361453,-0.7567551757661982,2.332284347393012,0.601768573455048,-0.7823681019186745,nan
1740572814.9400508,-0.2786161059459365,1.933798291412888,0.05251581202410504,-0.35069291802103636,nan
1740572814.9439564,0.5263025977889122,0.25329019709178974,-0.8565004882417001,0.42616710619347525,nan
1740572814.9478621,1.0036505020908464,-1.0497516332188028,-1.1699981853714454,0.8326110939663892,nan
1740572814.9517815,0.8022318433529377,-1.0281680702140936,-0.5031110312741892,0.5549380826136868,nan
1740572814.955687,0.205252297485568,-0.1951535649743595,0.49020388526139064,-2.2910222918615878e-05,nan
1740572814.9595926,-0.24747918279763903,0.3556984973908182,0.8382356981258505,-0.23673402158995102,nan
1740572814.9634984,-0.3429851762272892,0.2499138555946442,0.3535322490193222,-0.06937376886600304,nan
1740572814.967404,-0.28278420259571635,0.01809011010587404,-0.17638495065434182,0.07583625781587655,nan
1740572814.9713094,-0.2668961017683706,0.13259279668727367,0.03896264168568746,-0.10161824796183634,nan
1740572814.975215,-0.21346448765781406,0.2775319788822734,0.786635573244583,-0.3697766102679528,nan
1740572814.9791207,0.0031770712505069347,-0.16092348843297585,1.023480468978776,-0.3161307283193344,nan
1740572814.9830263,0.2008600520678328,-1.053384433884035,0.09065212064268371,0.04458456311177024,nan
1740572814.9869318,0.035761733433522534,-1.394712194339383,-1.4047923810535818,0.25365969124305227,nan
1740572814.9908376,-0.4535957479102769,-0.4257435288162683,-2.088010468124629,0.027755203239727855,nan
1740572814.994743,-0.678206555309956,1.2934431195087885,-1.20590306079187,-0.3186302299284539,nan
1740572814.998668,-0.11233680307698339,2.251798123151027,0.5778167630214209,-0.24841968682160648,nan
1740572815.0025737,0.9542111884731893,1.5230328676821518,1.8160752227843293,0.28289853638893636,nan
1740572815.0064793,1.5253848109756574,-0.23826154583226178,1.642489845139532,0.7139169584119803,nan
1740572815.0103848,0.9230533338899977,-1.4839062839897965,0.46329227531283707,0.5484863447463197,nan
1740572815.0142906,-0.39627345188839225,-1.3649140884393653,-0.6121470271051137,-0.03294245963546109,nan
1740572815.018196,-1.2484767264546894,-0.4506920435426774,-0.8671891913036013,-0.40693857413706114,nan
1740572815.0221016,-0.975563228583755,0.12565923880569793,-0.4720931267333301,-0.2831903321878673,nan
1740572815.0260074,-0.12628520844488622,-0.024724864527545392,-0.051663324622898237,-0.02200990758935901,nan
1740572815.029913,0.23475588965440072,-0.3028275476327922,0.031091655538111707,-0.1012263186531539,nan
1740572815.0338185,-0.21574595750907036,-0.06208678009287557,-0.08162162639963294,-0.4564607907305655,nan
1740572815.037724,-0.7131468966983958,0.5507156791971202,-0.06730338552239623,-0.5696160469090568,nan
1740572815.0416298,-0.3629673887290254,0.8657293823626709,0.16508100898785158,-0.17227095952514287,nan
1740572815.045547,0.745193448807786,0.601651218462279,0.39956648623784824,0.3882138285760508,nan
1740572815.0494525,1.5791372279569895,0.1803954883712245,0.3576805181265169,0.6056834501441687,nan
1740572815.053358,1.292704152593032,0.07300762490375635,-0.024985492064688357,0.4597435210060661,nan
1740572815.0572639,0.12728782590718138,0.1152549093236997,-0.5122779558716479,0.35959078803241756,nan
1740572815.0611694,-0.8957094489698469,-0.2360540558371694,-0.7114267139987397,0.47421584794089494,nan
1740572815.065075,-1.0520417459398095,-1.016140101881594,-0.36563380446386107,0.41617266325066615,nan
1740572815.0689807,-0.5319578326370543,-1.4574879454020184,0.3828978262133649,-0.20764872136438461,nan
1740572815.0728862,-0.037769913709268764,-0.8205263357033028,1.0014250101879083,-1.0897989889634678,nan
1740572815.0767918,0.01712145771860647,0.5888680013685793,0.9521530446647039,-1.392820771855633,nan
1740572815.0806973,-0.19946361870816529,1.5328543782135466,0.19525095233262088,-0.7152914639606923,nan
1740572815.084603,-0.2996214528330102,1.1197792768524621,-0.6910151855667493,0.35025976831630296,nan
1740572815.0885086,-0.11035830892530216,-0.16396772656574965,-0.9957928356070004,0.8516801358129169,nan
1740572815.092425,0.2685024996484658,-0.9087061130230712,-0.5527231860817178,0.5699148096458647,nan
1740572815.096331,0.6457688710803519,-0.2997746038075995,0.10080403482788595,0.1906699488376867,nan
1740572815.1002364,0.8353885470339237,0.9659374298706243,0.30104959555486577,0.3266258750249111,nan
1740572815.104142,0.6703656099955075,1.3998923939439736,-0.025690839648707813,0.6714463869236715,nan
1740572815.1080475,0.12875368353389066,0.3146162594877693,-0.3075487058953184,0.4318500267850348,nan
1740572815.1119533,-0.5076118553883386,-1.4190700873264457,-0.014850842460005094,-0.49957272689891324,nan
1740572815.1158588,-0.7854085323756123,-2.2338883637118108,0.6827649508246798,-1.21560161308193,nan
1740572815.1197643,-0.5192586822208347,-1.4103991414837749,1.0552184938676574,-0.8545043338850778,nan
1740572815.12367,-0.04417050558667385,0.2824707795793241,0.612927939587602,0.2568958308402049,nan
1740572815.1275756,0.12027925742968688,1.4194863371798303,-0.32765867637458745,0.9002051415456339,nan
1740572815.1314812,-0.13722758285899433,1.2914840254476725,-0.9533683338272163,0.4151807485357507,nan
1740572815.135387,-0.4141244964972432,0.449138094446033,-0.7957171233968882,-0.5188076203277601,nan
1740572815.1393025,-0.338382777007791,-0.01647696254645306,-0.18064482538430426,-0.7844056995176709,nan
1740572815.143208,-0.0350439099114774,0.3551827065826085,0.17909732037282233,-0.2403762953509751,nan
1740572815.1471138,0.1546999333827287,0.9391561817860743,-0.029540160388985045,0.22312615307308356,nan
1740572815.1510193,0.30758688343516677,0.6990663631977487,-0.4084937691658697,0.05669176871521731,nan
1740572815.1549249,0.8795663933617801,-0.6762812074221509,-0.3159051043235226,-0.06791827135521951,nan
1740572815.1588304,1.826974568569358,-2.278538564953076,0.40575139451228315,0.7698542615101719,nan
1740572815.1627362,2.090874266418815,-2.6711387367542256,1.1940096180058297,2.1032575288285464,nan
1740572815.1666417,0.5433854111187599,-1.220143012839011,1.2620629476858807,2.147120759434649,nan
1740572815.1705472,-2.360347784408327,1.162247514770742,0.3652799708352372,-0.08140590089598,nan
1740572815.174453,-4.345135493071091,2.6749124756829086,-0.8727372680397621,-3.0977854591877425,nan
1740572815.1783586,-3.366633684167116,2.2180772428120408,-1.4216205683730379,-4.123074867896462,nan
1740572815.182264,0.005154577362805606,0.43885985766291175,-0.767478455058952,-2.1082322870065706,nan
1740572815.186179,2.776260221933761,-0.8812543155643372,0.5018803559001824,0.9407831377611761,nan
1740572815.1900845,2.580419372770805,-0.6131559448893483,1.0961180292433614,2.1700946177210017,nan
1740572815.1939902,0.36813791979021937,0.5446444984228928,0.2328202690177508,1.180758628679429,nan
1740572815.1978958,-0.5676027434798777,0.8134835893321248,-1.4072155506106234,0.39048734332823265,nan
1740572815.2018013,1.4861269508075445,-0.6600954390987831,-2.0761932483032624,1.7950213646308217,nan
1740572815.2057068,4.212212138131999,-2.6633249770832292,-0.6227775717747043,3.9955197611821878,nan
1740572815.2096126,3.4863397601624326,-3.0009416659129027,2.099545969783883,3.4042371882422158,nan
1740572815.2135181,-1.7838339951397386,-0.8088247356119714,3.695759715429744,-1.352395324976309,nan
1740572815.2174237,-7.639570226545295,2.342360718635809,2.4449971452565706,-6.962201503032919,nan
1740572815.2213295,-8.582354888015225,3.8356011301087327,-0.8360781302271497,-8.223404085093318,nan
1740572815.225235,-3.1945904305303885,2.5337354867516764,-3.356971363927912,-3.4420994973877495,nan
1740572815.2291405,4.174999391256947,-0.17298626619878246,-3.025696792476479,3.506781026145469,nan
1740572815.2330544,7.615945414434497,-1.8657437421144014,-0.5407113474426527,6.916897103919105,nan
1740572815.23696,5.324225767066554,-1.5069687430186678,1.39416083846687,4.8376285171600655,nan
1740572815.2408655,0.7860809744718729,-0.2249666789090523,0.9986381801302855,0.5376397694328796,nan
1740572815.2447712,-1.4505874103317296,0.20827892874713055,-0.6844131454446796,-1.473242488647973,nan
1740572815.2486768,-0.5052272957857651,-0.6134482224183908,-1.0784371954406409,-0.22503871076553075,nan
1740572815.2525823,0.6694925414692511,-1.4388591025552777,0.8345976342624168,1.3074660783471337,nan
1740572815.2564878,-0.6613333301747002,-0.9482525134049773,3.138125503757052,0.15868426397116372,nan
1740572815.2603936,-3.692238600380443,0.6880839320680971,3.007263055485412,-3.1016276194910883,nan
1740572815.2642992,-5.138317069125922,2.0075254897447934,-0.04297901309468268,-5.125381002210209,nan
1740572815.2682047,-3.076379277159566,1.8586766595710298,-3.3731475708109318,-3.5861107829458274,nan
1740572815.2721105,0.9936922440481868,0.5480921806215444,-3.8989230210519636,0.41128662863939247,nan
1740572815.276016,3.953379072706153,-0.6514460180267155,-1.3301103889542638,3.7087650706937287,nan
1740572815.2799292,4.271927218544338,-0.9014596949940734,1.6061668435104282,4.286982954258847,nan
1740572815.2838347,2.938102252298014,-0.48940219204113683,2.1661497693191896,2.7193122375875687,nan
1740572815.2877405,1.5692049033843718,-0.20437348638984643,0.44029882270254844,0.8425993259319257,nan
1740572815.291646,0.4603556773015535,-0.33478178444337314,-1.0549356702959287,-0.282890782611141,nan
1740572815.2955515,-1.088281467908631,-0.48661694580424647,-0.4126585718232797,-0.8716539977477468,nan
1740572815.2994573,-3.027630297353058,-0.26697621687743595,1.5312221457824844,-1.4253850635518537,nan
1740572815.3033628,-4.007567890815831,0.16080346977502244,2.306828740454621,-1.911485758457251,nan
1740572815.3072684,-2.8677459016746045,0.3447856254563121,0.7332650138098614,-1.9816685064251822,nan
1740572815.3111742,-0.2367652831434638,0.20114536149853116,-1.740215772450944,-1.5248390225212622,nan
1740572815.3150797,1.8962327315775411,0.14128635213283527,-2.7029056693030946,-0.6741620444248683,nan
1740572815.3189852,2.2195689838868113,0.4791079119744585,-1.4243748955686133,0.501135105402021,nan
1740572815.3228908,1.3245127350395947,0.8975161085594432,0.5263978982325082,1.8831370644790262,nan
1740572815.3268104,0.7298536364825715,0.7233117464878922,1.2083962167568425,2.8851520782413704,nan
1740572815.330716,1.0025902681148913,-0.2401732184701035,0.42436337539897717,2.6181068909455205,nan
1740572815.3346214,1.2515467521126373,-1.3123420304734097,-0.34519636607361126,0.8519959975758207,nan
1740572815.338527,0.4552401533679217,-1.5193467255049748,0.09717381268956586,-1.3479992504041591,nan
1740572815.3424327,-1.1425388510166767,-0.5946345266948246,1.2191405295621978,-2.3927168572196864,nan
1740572815.3463383,-2.2590797363688826,0.6825570065910891,1.4640309571901058,-1.7392743584213661,nan
1740572815.3502438,-2.0185505236711383,1.2051394449847348,0.17241532517637112,-0.43617506556404056,nan
1740572815.3541496,-0.8151282237821073,0.5928474827406514,-1.5563241140548632,0.12418890436763264,nan
1740572815.358055,0.3033280422619941,-0.47309855803592893,-2.025849635088431,-0.19635946056251308,nan
1740572815.3619606,0.7761548393119655,-0.9351211696532529,-0.7781773413829013,-0.306566792445785,nan
1740572815.3658662,0.8094205047215316,-0.35465224680267265,0.9308640435109229,0.4963991233571334,nan
1740572815.369772,0.7301937193751903,0.730245603928882,1.4732715096432847,1.4303202436556761,nan
1740572815.37369,0.5148058527084847,1.349688306364747,0.5041596412927518,1.1795457821055069,nan
1740572815.3775957,0.10745309101215751,0.9676200977292981,-0.7986578346132702,-0.24449310073259733,nan
1740572815.3815012,-0.14060327986402218,-0.11887417003119527,-1.0464579003905843,-1.221371543601517,nan
1740572815.3854067,0.2126737784732862,-1.1139915537106944,-0.046850007975367994,-0.4304971729067761,nan
1740572815.3893125,0.9270639088072905,-1.3963597228171836,1.1110888315974512,1.3226393822511948,nan
1740572815.393218,1.0207222582790316,-0.9293079722813792,1.250892443409233,1.8060940954199367,nan
1740572815.3971236,-0.18297074975679362,-0.14290463426957029,0.2717258125868016,0.010697525846475485,nan
1740572815.401029,-2.0361748652509326,0.49056806440281875,-0.8631426065790777,-2.403995450759232,nan
1740572815.404935,-2.9355877350059765,0.769504723168267,-1.1724508044129551,-2.809024277521316,nan
1740572815.4088404,-1.886155382117135,0.7504641302949933,-0.5859786947922588,-0.6351157897850446,nan
1740572815.412746,0.42716935467628386,0.5449146102367662,0.15226031923413996,1.8523013211727055,nan
1740572815.4166517,2.283472981083405,0.20369284555309775,0.37552983051387057,2.0824263644508503,nan
1740572815.420569,2.5721924706440196,-0.20567105403976615,0.1521050226176473,0.12662647107825067,nan
1740572815.4244745,1.6338836115750577,-0.4949597979954439,0.03572303078854481,-1.4200560477694906,nan
1740572815.4283803,0.5247537282936323,-0.44077394525501773,0.29578772968529904,-0.537883851807475,nan
1740572815.4322858,-0.21891148502217522,-0.03278444716037968,0.5796138966408225,1.7685018559288932,nan
1740572815.4361913,-0.8318884557522283,0.40005854131406193,0.39805814581846594,2.5846918055504426,nan
1740572815.440097,-1.5118144914365028,0.4103202748413213,-0.19530323349305945,0.5092464368580191,nan
1740572815.4440026,-1.826682512088522,-0.14167602076208305,-0.6140961724724892,-2.586291260589934,nan
1740572815.4479082,-1.2091759973620777,-0.8776582243231023,-0.4629781101001681,-3.5189298852574247,nan
1740572815.451814,0.13471502613883501,-1.1703870790283306,-0.0582359183732899,-1.268462526729256,nan
1740572815.4557195,1.199197663962151,-0.6787204549900359,-0.018205437172402313,1.9177840743470007,nan
1740572815.459625,1.2094124617350297,0.3535754226331579,-0.38258291999865285,2.9349804210825043,nan
1740572815.4635305,0.47545295732367765,1.308476121688897,-0.43683747724026945,1.013426557727429,nan
1740572815.4674473,-0.015677334756603118,1.6783873026523142,0.36692790381193774,-1.6954115402228422,nan
1740572815.471353,0.2020657559552468,1.3566150821534737,1.4608742054947734,-2.499697682847296,nan
1740572815.4752586,0.5590365594612663,0.5431430910061378,1.5255220970562642,-0.7845482237124405,nan
1740572815.4791641,0.25129676232239745,-0.49261253558789325,0.015903185773501333,1.7231000054902847,nan
1740572815.4830697,-0.6538481208085958,-1.4783196821103093,-1.8902195315863488,2.8719598332766028,nan
1740572815.4869754,-1.2106717671301608,-2.0563798695945734,-2.275390056816179,1.9493231349349234,nan
1740572815.490881,-0.7272796369376276,-1.8464797476630783,-0.5559262281061875,-0.1412167293730635,nan
1740572815.4947865,0.3472694525149125,-0.7646349326357701,1.6820497193345842,-1.99051911043631,nan
1740572815.4986923,0.8876259546122651,0.7169096841693531,2.22872066201764,-2.690835734519287,nan
1740572815.5025978,0.37525508835104776,1.7769505804773127,0.6107169859639381,-2.0674947940269885,nan
1740572815.5065033,-0.5240382326343735,1.8678600010592399,-1.3870126060258525,-0.503157431757101,nan
1740572815.5104089,-0.7576698575164393,1.1737929918362633,-1.6974523363625689,1.2158074874164477,nan
1740572815.5143251,-0.09039595021587479,0.39205832643499167,-0.22864792563590744,2.160227649611979,nan
1740572815.5182307,0.6948492017454978,0.013497295062889407,1.1766995025923683,1.8157251915469943,nan
1740572815.5221364,0.7695368362353092,-0.14260237272955165,0.9797774392524186,0.5530204504213976,nan
1740572815.526042,0.19627581000103478,-0.608541430355697,-0.30168849160819317,-0.6060373925733815,nan
1740572815.5299475,-0.25792384091701026,-1.4908911814832722,-0.8915204288021904,-0.8731324799593257,nan
1740572815.533853,-0.12044172994694283,-2.1276806703997533,-0.05728667459712996,-0.3659210333989191,nan
1740572815.5377588,0.23275929676584467,-1.66373346140699,0.9655464122952037,0.14266464828200634,nan
1740572815.5416644,0.11597018130879075,-0.019073852595102563,0.5980588868010747,0.08699582722612056,nan
1740572815.54557,-0.540487429852382,1.7974269015935211,-0.9359768393383207,-0.385853820302246,nan
1740572815.5494757,-1.0315532518251664,2.4803259121441386,-1.7025030195606776,-0.7382256223604597,nan
1740572815.5533812,-0.6878265472218936,1.6211779740654921,-0.4262188856599507,-0.6724159055759102,nan
1740572815.5572867,0.30814531142814877,0.10291795788689946,1.724098087333255,-0.3059718950368138,nan
1740572815.5612016,1.061965276207806,-0.7549247971963378,2.258388275332672,0.16068175104994073,nan
1740572815.565107,0.907933433495355,-0.4751835756889721,0.26212888711620547,0.6865439167854656,nan
1740572815.5690129,0.09317360165118374,0.17187821055373484,-2.3217858575317987,1.1994490035313647,nan
1740572815.5729184,-0.5275524095549136,0.06541505391364366,-2.6741218103300883,1.3571197168481808,nan
1740572815.576824,-0.40685495134296,-0.9922631404284517,-0.21435349464755615,0.7776503240226808,nan
1740572815.5807295,0.17419437560217946,-1.9753616994616152,2.662080803978935,-0.4225515268637455,nan
1740572815.5846353,0.48586025409918837,-1.6689139200367247,3.0825875998263155,-1.498720778121518,nan
1740572815.5885408,0.15408395235363695,0.010272139999499837,0.6751382346907321,-1.6755063305043265,nan
1740572815.5924463,-0.4759400247703108,1.803185761370776,-2.1783480249183773,-0.8870083963411926,nan
1740572815.596352,-0.7441705982910699,2.283560874784928,-2.9117386952781152,0.17557840666365523,nan
1740572815.6002576,-0.3695482865642714,1.2389486018261446,-1.2584393602710835,0.7685072784240676,nan
1740572815.6041632,0.2824025963543027,-0.1710517835283867,0.8728273774479547,0.7523657755820435,nan
1740572815.6080778,0.5871462353722763,-0.648962192910841,1.6185120488993807,0.5130245419164071,nan
1740572815.6119833,0.28346166315522625,-0.08766323443835507,0.8790069428833825,0.3702772087134677,nan
1740572815.615889,-0.2776076016214297,0.41533407410676126,-0.08074267185393307,0.2538332141055991,nan
1740572815.6197946,-0.4789272738524137,-0.135045363817457,-0.2554339533550168,-0.023890914423322345,nan
1740572815.6237001,-0.04293752148653202,-1.4303332719010904,0.20613120746681596,-0.37305362012003745,nan
1740572815.6276057,0.6702658289514319,-2.1021030720023215,0.5395517850667556,-0.48828561868640014,nan
1740572815.6315114,0.962507664569326,-1.1927760921875663,0.3400081818521323,-0.2689288159470949,nan
1740572815.635417,0.44381416116063627,0.7265476182810463,-0.18735606921304498,0.00932649362077267,nan
1740572815.6393225,-0.5621049704279268,2.040560718308701,-0.6903889915014101,0.035324156552019495,nan
1740572815.6432283,-1.2546803554227646,1.713089197493717,-1.0279634492036716,-0.13275838734352652,nan
1740572815.6471338,-1.056379040755379,0.3291598145983091,-1.1346242399963196,-0.15257696129045026,nan
1740572815.6510394,-0.1396757305476796,-0.5744980788686225,-0.8157116229309981,0.12612384929524267,nan
1740572815.6549523,0.72669721323796,-0.1824000758283912,0.07261577922903266,0.4276679537663566,nan
1740572815.6588578,0.8820250687213598,0.7352215814854222,1.2674231128618338,0.3836406698760503,nan
1740572815.6627634,0.35674696179644394,0.7224386565241225,2.1090238985350456,0.0073435206055891674,nan
1740572815.6666691,-0.22396464893896267,-0.6621069737551122,2.0096951147001474,-0.3099975919439626,nan
1740572815.6705747,-0.2962891306189762,-2.21353360164277,0.906563569173172,-0.27559476746249917,nan
1740572815.6744802,0.10189779781194444,-2.2649391715253673,-0.7122712188924412,-0.022950145310716853,nan
1740572815.6783857,0.43759587649907505,-0.46999877043196603,-2.111910394290529,0.11815056718194666,nan
1740572815.6822915,0.28177717404030284,1.7208341708384736,-2.628416586917983,0.06832185311155436,nan
1740572815.686197,-0.24853899566173357,2.4406700856419903,-1.9215000116638397,0.04460336266172079,nan
1740572815.6901026,-0.6468233549995588,1.2312730797772038,-0.2305881169200678,0.16275677186161833,nan
1740572815.6940084,-0.5585684418376282,-0.5710909037756734,1.5507957686454876,0.1937695296311748,nan
1740572815.697914,-0.11345752530278189,-1.2539127633030658,2.327312663334678,-0.12011250073311888,nan
1740572815.7018335,0.2684970899941305,-0.43447544495643425,1.6593226948965742,-0.5887223997166142,nan
1740572815.705739,0.328978483334114,0.7076585313262805,0.2354448632575859,-0.652233669640757,nan
1740572815.7096446,0.1772773396166325,0.8192628681141103,-0.698059446815906,-0.04864291245685829,nan
1740572815.7135503,0.07688120762108662,-0.17728520322289462,-0.5307997135828403,0.7388827185111008,nan
1740572815.7174559,0.11646391280024589,-1.1143567495289,0.14233080140876894,0.9153563374931083,nan
1740572815.7213614,0.1509377068912445,-0.9612136085369247,0.25052423027056103,0.27778330711135063,nan
1740572815.725267,0.037808442610947936,0.03073728156015938,-0.5158178704711257,-0.49369844462803364,nan
1740572815.7291727,-0.1538184077316975,0.6801674865969465,-1.372040878873385,-0.5854487739567875,nan
1740572815.7330782,-0.22121160876282886,0.27796117454022734,-1.367754914441314,-0.001669150046245287,nan
1740572815.7369838,-0.08644356205999469,-0.5792681148577271,-0.4410243574138074,0.4362583490175067,nan
1740572815.7408895,0.0895055859477193,-0.6818529570547216,0.6296174343831207,0.09133840219251592,nan
1740572815.744795,0.08268177558263493,0.35545462862077215,1.1890135180932893,-0.6694065763745358,nan
1740572815.748713,-0.13037000978815907,1.5547937411494879,1.2932778850080526,-0.8571771684593643,nan
1740572815.7526186,-0.3276206060471846,1.5882336153051724,1.2469910656028569,-0.044403320815423815,nan
1740572815.756524,-0.26895720971148723,0.24894513456858552,0.9030635139022823,1.0435209372666847,nan
1740572815.7604299,0.0546717853125943,-1.2594341040271253,-0.13338849232756847,1.2665577073810157,nan
1740572815.7643354,0.4117975299716647,-1.5696371113586929,-1.5894136630065276,0.32739207797137726,nan
1740572815.768241,0.5481237839725357,-0.5852629236931876,-2.289822163386152,-0.8798991504132471,nan
1740572815.7721467,0.38892977655881456,0.46767613721441154,-1.2963012806435787,-1.2182566914512503,nan
1740572815.7760522,0.04529788846417422,0.4223852295474666,0.7714232393511451,-0.47744844917025775,nan
1740572815.7799578,-0.3151774917214265,-0.5443020358056981,2.014902591774558,0.5053915838511864,nan
1740572815.7838633,-0.5566947465331893,-1.138633328042938,1.1762015455995063,0.811082984685258,nan
1740572815.787769,-0.5706602280231141,-0.4202043183752945,-0.873060764586348,0.34979811551900536,nan
1740572815.7916746,-0.28849549074177416,1.1220999614265663,-1.9188797751056847,-0.2259870853112367,nan
1740572815.7955918,0.21765976135845547,2.0669675942097165,-0.7693848951697093,-0.34470647368357366,nan
1740572815.7994974,0.6671538436726229,1.5553436653583632,1.4209094404280924,-0.0656541889413417,nan
1740572815.8034031,0.712521579087049,0.1317745084508775,2.397735371499587,0.1670443578378947,nan
1740572815.8073087,0.24775113748634478,-0.9383566269986973,1.234559623636788,0.10802811483727111,nan
1740572815.8112142,-0.4192898663541564,-1.032981458690451,-0.7820768044309974,-0.09790893604200503,nan
1740572815.81512,-0.776131361534714,-0.6754646300548122,-1.7100189162090451,-0.21853025801985632,nan
1740572815.8190255,-0.5555232407374915,-0.6931329323480852,-1.0558978130437686,-0.21941308031744516,nan
1740572815.822931,0.017806221427625557,-1.1082836841982324,-0.04454052816998182,-0.17473602191565651,nan
1740572815.8268366,0.4581860670968811,-1.0976232012404206,0.05230785885720468,-0.0432593088961201,nan
1740572815.8307424,0.4967059179810367,-0.05825839915310036,-0.5915678903149888,0.2766128629367138,nan
1740572815.834648,0.2928823241274662,1.5006146525342532,-0.7505065990791524,0.662907845581865,nan
1740572815.8385534,0.1611516799273161,2.33113839353505,0.2242081368162743,0.7231681918534127,nan
1740572815.8424697,0.1532505990862605,1.7136810300551952,1.5693080074822479,0.1916239728977251,nan
1740572815.8463752,0.011740579405621251,0.20988273332166746,1.9765210230044894,-0.6528977489599395,nan
1740572815.8502808,-0.4338519705358341,-0.9307907634483499,1.0180325859903312,-1.1213972893627713,nan
1740572815.8541865,-0.9156956597320902,-1.0368840035496443,-0.5019557132965835,-0.769129889491368,nan
1740572815.858092,-0.9037975218404981,-0.5640891693169224,-1.4696293062729044,0.11753935491501044,nan
1740572815.8619976,-0.18452352270920233,-0.39530414299559047,-1.4499343631667085,0.7693617652442183,nan
1740572815.8659034,0.8012134695173,-0.766729574568146,-0.763630998372917,0.6842333597806823,nan
1740572815.869809,1.2953456387519895,-1.050486325292636,0.06669898269732752,0.08761178767526799,nan
1740572815.8737144,0.9311711641619017,-0.5789728895815329,0.6676546678201861,-0.3601112677795517,nan
1740572815.8776202,0.07251370031936664,0.5009900411538263,0.7728962443137268,-0.25254999580264187,nan
1740572815.8815258,-0.5729252255952711,1.3417201353518506,0.2638289461558324,0.21199812983898264,nan
1740572815.8854313,-0.6391957179416751,1.3193548402741264,-0.5416422930868625,0.5165373727845057,nan
1740572815.8893468,-0.36133207753944047,0.683765256341007,-0.8816273239602394,0.3600533065496074,nan
1740572815.8932524,-0.19160408320587766,0.19739691706467885,-0.205090089989235,-0.11855953108198342,nan
1740572815.897158,-0.267151362348562,0.21340474045948238,1.0918014841723624,-0.5560916436553817,nan
1740572815.9010637,-0.32664707902990303,0.28442114970893095,1.8347252296466539,-0.6957147102353188,nan
1740572815.9049692,-0.09971717269047688,-0.23581665806216626,1.1942670221968028,-0.5113198442343325,nan
1740572815.9088748,0.3439601703387314,-1.2978866632794628,-0.41596264320984216,-0.12524021655350462,nan
1740572815.9127805,0.6829057876097583,-2.031827131843384,-1.7267407985731171,0.2949077110533463,nan
1740572815.916686,0.7014482299511922,-1.6016610350252718,-1.87859079796415,0.5811176955954029,nan
1740572815.9205916,0.4570295987056545,-0.13436789288640938,-1.1250271388449264,0.6173368471009265,nan
1740572815.9244974,0.10616570134415858,1.3091022616292098,-0.25814080532307104,0.4183590367724499,nan
1740572815.928403,-0.30067602249689845,1.7356034874936732,0.38035721411269513,0.1325857552562055,nan
1740572815.9323084,-0.7459081803938914,1.1510323322314593,1.0215306397052077,-0.08849081301485139,nan
1740572815.936223,-1.028574059058818,0.43785313054687897,1.6999765306477932,-0.2263391717496701,nan
1740572815.9401286,-0.8069803627934965,0.3251096082854194,1.8147638200370744,-0.36264663027229177,nan
1740572815.9440343,0.012344392607642063,0.5828111809436718,0.7962016215459672,-0.5085914503626575,nan
1740572815.9479399,0.9761572590858911,0.33808005721327167,-0.9236033615545827,-0.5281764092771922,nan
1740572815.9518454,1.341464654591413,-0.8165890775809213,-2.027013343994306,-0.2889493067820099,nan
1740572815.9557512,0.7540863660021835,-2.1574777582216296,-1.6139663983731316,0.13172171849591047,nan
1740572815.9596567,-0.33822120655899746,-2.416588445734118,-0.21363941716135984,0.46664633128600075,nan
1740572815.9635623,-1.0360633875682936,-1.0847527220837663,0.7635563747991848,0.5213154597005044,nan
1740572815.967468,-0.8105371053714109,0.9414235735032878,0.557665413968879,0.37190161331177835,nan
1740572815.9713736,0.020113772970798353,2.121491036220195,-0.20553082784217627,0.24351582258148569,nan
1740572815.975279,0.6369508722988115,1.7208127886586544,-0.3932135522815831,0.21002043245160276,nan
1740572815.9791846,0.5214710151365411,0.46267919080612874,0.26799193436267343,0.10188669940652537,nan
1740572815.9830987,-0.09692152832682807,-0.296753494197068,0.9772903687623548,-0.23719366047203472,nan
1740572815.9870045,-0.546699305380181,0.005599307206111624,0.9329944499854687,-0.6597558285638637,nan
1740572815.99091,-0.3988778988619114,0.6269291895706025,0.2594786893719532,-0.7888413815260421,nan
1740572815.9948156,0.16259917989513925,0.4410665723854655,-0.323728737486823,-0.4245677554314642,nan
1740572815.9987214,0.5826322133988742,-0.7401914379260366,-0.5037250665438271,0.18400450116476694,nan
1740572816.002627,0.4743200039592593,-1.90392742157763,-0.6422772822511077,0.5525498917694471,nan
1740572816.0065324,-0.06490320249201938,-1.9057764195626892,-0.999958675913023,0.4511933453392441,nan
1740572816.010438,-0.5813028207207587,-0.6770105383178591,-1.0985583786346158,0.1222117476999694,nan
1740572816.0143437,-0.6509898834377095,0.7470229888963862,-0.25923610120866486,-0.019602399862930456,nan
1740572816.0182493,-0.1965547604918024,1.3492917802284037,1.279749089081486,0.14505867301663072,nan
1740572816.0221548,0.46313146681702594,1.1070948637965892,2.214094830174823,0.33533024146707974,nan
1740572816.0260606,0.8328306964242428,0.7641727095459897,1.4543772046061871,0.22432728682150674,nan
1740572816.0299737,0.5947986261595419,0.7758885473954106,-0.5457425999927729,-0.17764095176587227,nan
1740572816.0338795,-0.12580254178098424,0.7461740152900149,-2.0471293567362876,-0.5413823159916265,nan
1740572816.037785,-0.803094204112803,0.0339517437664824,-1.73290521893279,-0.5800886444966116,nan
1740572816.0416906,-0.8955705482149504,-1.2377830072756542,-0.03034116831378594,-0.3204874449628014,nan
1740572816.0455964,-0.304734379506118,-2.0592898499999457,1.3819385654379805,-0.009765558876424421,nan
1740572816.049502,0.5034340917454557,-1.5523202209618205,1.2913337830838816,0.17071309304487603,nan
1740572816.0534074,0.8758321556090931,-0.0034662890298683847,0.03914541444304579,0.2365349262472341,nan
1740572816.0573132,0.5388834438951797,1.3043913573408332,-1.0300717887711908,0.2819555147555227,nan
1740572816.0612187,-0.17266233912256665,1.3468880976825368,-0.9646375910254481,0.3263239763870677,nan
1740572816.0651243,-0.6442092250236511,0.35414744378092844,0.03199596784619146,0.3179992321397472,nan
1740572816.0690298,-0.5398029652143169,-0.514833604666913,1.0077991272684474,0.23056100307263835,nan
1740572816.0729356,-0.04979946685626193,-0.4224799069851702,1.1573615873580823,0.07927885698835109,nan
1740572816.076855,0.36876348387755203,0.34492964509599827,0.35481272510342515,-0.14276780010686912,nan
1740572816.0807607,0.4371293385912598,0.8254658500447963,-0.867059673160425,-0.45096597285227186,nan
1740572816.0846663,0.22959028102435913,0.48059409782659934,-1.645785147374632,-0.7420475520157381,nan
1740572816.0885718,-0.022034553068985913,-0.29438945948347434,-1.2859683475935701,-0.7548982794047225,nan
1740572816.0924773,-0.1922465368545095,-0.7241693406953547,0.17461088320499824,-0.28770080946622567,nan
1740572816.096383,-0.29342652156386695,-0.5401355459218871,1.7511365085843007,0.5005802978735191,nan
1740572816.1002886,-0.3204047491112908,-0.18510073314571987,2.129712544521799,1.0897171123421792,nan
1740572816.1041942,-0.18648934972554596,-0.1836225747368059,0.8487598188888811,1.0153396776495598,nan
1740572816.1081,0.13064441413771363,-0.473448319415285,-1.0899506362031568,0.3203709618077455,nan
1740572816.1120055,0.43982967134390133,-0.47612162291942894,-2.027256788127673,-0.4575739628448253,nan
1740572816.115911,0.4448825890775569,0.19130096831957355,-1.2394372125660738,-0.78428358431913,nan
1740572816.1198168,0.060880935788655124,1.1729300816128037,0.34600298119457884,-0.590252135492796,nan
1740572816.1237345,-0.4140048662142585,1.6119542538344311,1.1548334566107612,-0.2175541889108708,nan
1740572816.1276402,-0.5251227259404195,0.9567490844125903,0.618403303224019,0.026844111114688003,nan
1740572816.1315458,-0.11118995551323249,-0.4509933477790168,-0.363505935445741,0.155061089784335,nan
1740572816.1354513,0.4835095022155491,-1.581368707297922,-0.6020943936990489,0.316513003258906,nan
1740572816.139357,0.6934191689805229,-1.5576086765229165,0.023056347834133045,0.4597962704900725,nan
1740572816.1432626,0.26729450847394165,-0.4108338646623922,0.6153722010415836,0.3376708490836018,nan
1740572816.1471682,-0.46822312026158314,0.9088334726860644,0.5079612409167102,-0.12245270433669488,nan
1740572816.1510737,-0.8890692329657719,1.305287634326595,0.043033083202980736,-0.5861373530554836,nan
1740572816.1549795,-0.6371170672771567,0.4667317693835523,-0.06450671659463454,-0.593962493731028,nan
1740572816.158885,0.06985239543505309,-0.8463870038185958,0.17964355296655246,-0.08065985506707693,nan
1740572816.1627905,0.6619632518779943,-1.443890923403862,0.049967638061539664,0.49822194654248825,nan
1740572816.1666963,0.7350610385741202,-0.7483725399071287,-0.763614649996897,0.628481524627964,nan
1740572816.1706135,0.36095357800941513,0.6939363088844163,-1.4614814938620544,0.27109800317504823,nan
1740572816.174519,-0.07037568163729956,1.7110015030759524,-0.9785320564177646,-0.15234587603343897,nan
1740572816.1784248,-0.2618455835442701,1.5423471748761204,0.5803856947753638,-0.2831698630588751,nan
1740572816.1823304,-0.23961428098802026,0.4321260818540096,1.8027450304780992,-0.20457140496265191,nan
1740572816.186236,-0.2080670538637105,-0.7353123347568546,1.49609266203843,-0.2242140778475075,nan
1740572816.1901414,-0.2509852437974846,-1.2901291262432757,0.09685818866466321,-0.37777026213688514,nan
1740572816.1940472,-0.23993807744935405,-1.2181985797247186,-0.8214387590904482,-0.33283840394142455,nan
1740572816.1979527,-0.03891877724707342,-0.8511195108248351,-0.4240395161494259,0.1466149833901175,nan
1740572816.2018583,0.265568741414564,-0.34629494311616876,0.40928467942299296,0.7684275324238259,nan
1740572816.205764,0.41070513190312496,0.35348235130279454,0.24671497722153632,0.9211861392825221,nan
1740572816.2096696,0.24732700249495185,1.1140854488430199,-1.00463351407021,0.34901724268227974,nan
1740572816.2135751,-0.06651523535731825,1.437268691924244,-1.850448486489467,-0.5006047016723708,nan
1740572816.2174916,-0.21743844234207224,0.9131068668606405,-0.9897685993109171,-0.9058592867501447,nan
1740572816.2213974,-0.08209150762660768,-0.19077332584851156,1.0127434719410764,-0.6092287520875723,nan
1740572816.225303,0.13077129595719827,-1.0110539152828257,2.2324478673015653,-0.024956899156951432,nan
1740572816.2292085,0.12213092215832645,-0.9068805252494847,1.5240640098401443,0.2903369611426066,nan
1740572816.233114,-0.1371306259170669,-0.13662304357414295,-0.22358402282647086,0.24086873822044413,nan
1740572816.2370198,-0.34970986739267523,0.42050099094599835,-1.1695978617622247,0.16417460593932676,nan
1740572816.2409253,-0.2250365371132015,0.22699081967972093,-0.6092185790282612,0.2827699193614236,nan
1740572816.2448308,0.16748228180981434,-0.3599405972231401,0.3860088624713568,0.3831798937956685,nan
1740572816.2487366,0.43858300709118037,-0.5706211260334695,0.41229405829135046,0.13895654584893308,nan
1740572816.2526422,0.2901601277809498,-0.1407697728623577,-0.5709176246086292,-0.3665978985976787,nan
1740572816.2565477,-0.15073683214040068,0.43197085036565985,-1.2890185699869587,-0.6412363149101727,nan
1740572816.2604535,-0.44879056072081674,0.5523230774201131,-0.7505475890722952,-0.360693808907065,nan
1740572816.2643695,-0.3076152392799089,0.24308777483079355,0.5883020032701485,0.19422706234705076,nan
1740572816.268275,0.13148875573743765,0.02465771096790993,1.4004097598816552,0.426044553995005,nan
1740572816.2721806,0.4461651937635678,0.16485229541923943,0.9869123027786311,0.12325844860905559,nan
1740572816.2760863,0.3591921138994358,0.30939727089102925,-0.07226505464186658,-0.27867180410884657,nan
1740572816.2799919,-0.014600403046150547,-0.010020111164463181,-0.7040397161240174,-0.2210603200838209,nan
1740572816.2838974,-0.3224504129025069,-0.6596717270735365,-0.48185614104670943,0.28723550978136386,nan
1740572816.2878032,-0.3248112291101136,-0.9541394190043915,0.1356108847299094,0.6524554506186878,nan
1740572816.2917087,-0.08204804709664809,-0.47236416826912847,0.47427853336868175,0.387755589977706,nan
1740572816.2956142,0.15852991442346767,0.3766658586623659,0.2809795550041549,-0.30635699353177914,nan
1740572816.29952,0.20464136413552134,0.7850669534010037,-0.2542806154616294,-0.7591212025056615,nan
1740572816.3034256,0.05393529186661437,0.47319575496600913,-0.7897185902260314,-0.5757635227591098,nan
1740572816.307331,-0.14696985352974526,-0.031057781661860698,-0.9753364646834285,-0.03267221975260369,nan
1740572816.3112457,-0.22873193502573377,-0.10127211763968895,-0.5221214986980965,0.3056205719102693,nan
1740572816.3151512,-0.11025112503385309,0.19749235508325494,0.5255708581954135,0.24031375016513784,nan
1740572816.3190567,0.14592778023025937,0.24455067740100297,1.5351391673915185,0.07936244862648248,nan
1740572816.3229625,0.35616035268134477,-0.2585435846238443,1.6068387551272298,0.15708990013473653,nan
1740572816.326868,0.33460504126454726,-0.8163883451296124,0.44455384307529155,0.38001063495091253,nan
