timestamps,TP9,AF7,AF8,TP10,Right AUX
1740797266.9359598,0.4158639718519179,0.2555484905022674,1.12453110661737,0.5875143599694994,nan
1740797266.9398656,0.34838081346180366,-0.14172666979308263,0.8251273771658877,0.6235293579713307,nan
1740797266.9437716,-0.03671404755728762,-0.07476171934870816,-0.11072895879268783,0.034227374060310595,nan
1740797266.9476776,-0.3384403613480537,0.29120704475761805,-0.971836476985695,-0.7521734618321532,nan
1740797266.9515836,-0.22051054753753138,0.39175582130266823,-1.128605133966219,-0.9933222613865454,nan
1740797266.9554894,0.1703633159153712,0.004428286537841364,-0.6411813751880258,-0.40332321931663007,nan
1740797266.9593954,0.35165593064160006,-0.47589166036420727,-0.10034284221625617,0.5039083291331017,nan
1740797266.9633014,0.06579353723441911,-0.5463397217560825,0.07959632469516648,0.9094664189397087,nan
1740797266.9672072,-0.4096641205998242,-0.20916059283685495,0.07493902442213728,0.5056063716813263,nan
1740797266.9711132,-0.5729117035839855,0.09015198216911074,0.30941106742608226,-0.2366594172445838,nan
1740797266.9750192,-0.257960080672344,0.07869770459627876,0.8074804818799833,-0.6001386371506675,nan
1740797266.9789252,0.2105196621562954,-0.0069919632337530815,1.0605759951263103,-0.34084668801052154,nan
1740797266.9828339,0.41539427956437336,0.19586214553048611,0.6000611698544912,0.15953823699268266,nan
1740797266.9867399,0.2930944839932079,0.5983144985294195,-0.3901837386239649,0.3819052499158828,nan
1740797266.990646,0.11505330363919276,0.6832289793965352,-1.1609905745395652,0.1968785077706043,nan
1740797266.9945517,0.09411430096279237,0.14649318648792492,-1.1215866887638664,-0.10952031352113482,nan
1740797266.9984577,0.1402258807988176,-0.6478366854852704,-0.40552235727546654,-0.22720804594552496,nan
1740797267.0023637,0.04256432596835529,-0.9992703442220535,0.32528700370909924,-0.1285247350854368,nan
1740797267.0062697,-0.20737251504688892,-0.6183083204024118,0.5751011523930925,0.003922028984501015,nan
1740797267.0101755,-0.38603907932344617,0.09131437439403153,0.4208261994190908,0.041577120042053495,nan
1740797267.0140815,-0.3200797159136645,0.5162927150573906,0.24393597214994284,0.02095817750598958,nan
1740797267.0179875,-0.09496207901379675,0.46783454004939684,0.20353485505814267,0.026859513817176713,nan
1740797267.0218933,0.07090632396460107,0.23814177203238562,0.11011450296691853,0.06086904551966484,nan
1740797267.0257993,0.09583980666798443,0.12225912463823271,-0.20059957480289187,0.06581915049384979,nan
1740797267.029708,0.09054517031478351,0.07943963784819653,-0.5323619916283913,0.03035004165348174,nan
1740797267.033614,0.15702184669443928,-0.07219457319549162,-0.502017596505755,0.004176006199460304,nan
1740797267.03752,0.23316065572258285,-0.28401908772064055,-0.025819128340786285,0.010506829738586137,nan
1740797267.0414257,0.19569684324681166,-0.29182788568396484,0.49977602120750186,-0.0010078687405346936,nan
1740797267.0453317,0.05596225810775253,-0.005946418554791691,0.588083171507183,-0.07952655508212732,nan
1740797267.0492377,-0.046883890872045385,0.2828697694330151,0.18960059153751418,-0.17675715460543487,nan
1740797267.0531435,-0.05203589711540782,0.21373570643848674,-0.26280061445539554,-0.17271675313029225,nan
1740797267.0570495,-0.07722805715072407,-0.18417777931704835,-0.3482664431002546,-0.011996443525163611,nan
1740797267.0609555,-0.240410237136802,-0.4807908666233392,-0.11210527799688634,0.20867376605901705,nan
1740797267.0648615,-0.4332633115649456,-0.32924097450009177,0.04567218340387886,0.3122870399976187,nan
1740797267.0687673,-0.3874727963607823,0.1366263018934522,-0.10635351339878553,0.2037199885016884,nan
1740797267.0726733,-0.004072227659759633,0.46730223597969467,-0.3368645928104428,-0.04211600604360951,nan
1740797267.0765834,0.4618960252368156,0.4062890277184845,-0.24228887064091362,-0.24597866878622396,nan
1740797267.0804894,0.6304219729365438,0.1263826987609917,0.23157639175805428,-0.2729316761375664,nan
1740797267.0843954,0.3947195806003584,-0.04592486092503868,0.670731674737677,-0.13188776221768042,nan
1740797267.0883012,0.013303831033262508,-0.02458711316043926,0.631834959199009,0.04707221761210558,nan
1740797267.0922072,-0.20872186153875918,0.005336376496029487,0.13282127313055667,0.12967792014498822,nan
1740797267.0961132,-0.24314525861189634,-0.10806017128319709,-0.3688015413063404,0.09208129822863635,nan
1740797267.100019,-0.2703543166290926,-0.28097523047813067,-0.4729987167896899,0.03298377248717151,nan
1740797267.103925,-0.34590878116985146,-0.3328828462501267,-0.23331188192329327,0.059332693361673426,nan
1740797267.107831,-0.2816901773713311,-0.22905214270815988,-0.02312057370286953,0.14731924697721688,nan
1740797267.111737,0.07030637798512247,-0.08615427203095395,-0.0731668375127078,0.14071743546992782,nan
1740797267.1156428,0.5083714022026194,0.029443097851851667,-0.23555738745873286,-0.06824734474342264,nan
1740797267.1195488,0.6069243491314383,0.18711281666511984,-0.21500458901663277,-0.3536601443895666,nan
1740797267.1234586,0.19478338819191782,0.4274428288854587,0.05711555692415501,-0.41566119829631587,nan
1740797267.1273644,-0.38733126034019394,0.6003296342805489,0.36051652131367773,-0.09556951493920167,nan
1740797267.1312704,-0.6060441043406598,0.4803510611227589,0.46758491939253527,0.3781964396364567,nan
1740797267.1351764,-0.295671013725498,0.048539992523246325,0.38274634524891793,0.5485803006648375,nan
1740797267.1390824,0.18651034455207563,-0.4279344635883655,0.25295425457122234,0.20424954176058663,nan
1740797267.1429882,0.3829345919676658,-0.6462353811963564,0.11687713704893425,-0.33669213824309324,nan
1740797267.1468942,0.22500652388170783,-0.5514498308552561,-0.13449237701769617,-0.5121127523844439,nan
1740797267.1508002,0.02272549989655067,-0.3192007362450141,-0.5202956725315798,-0.12394816403783443,nan
1740797267.1547062,0.018732743887108008,-0.1015867956203486,-0.7976975331784577,0.4051327404445995,nan
1740797267.158612,0.09288050659749045,0.10839742462159274,-0.6528058020303632,0.46879170747152726,nan
1740797267.162518,-0.0232975643236816,0.34274360917212576,-0.08198623593116122,-0.03735800982261719,nan
1740797267.166424,-0.32892564347198777,0.5014548346816069,0.5088767474128372,-0.5632258802944111,nan
1740797267.1703336,-0.49455076706397194,0.4436457858921361,0.6721939561326759,-0.49969351130730266,nan
1740797267.1742394,-0.25508852246674246,0.21101758921517952,0.3765200945205601,0.12687217736006637,nan
1740797267.1781454,0.23565322144096615,0.030557377437343144,0.028098362937233865,0.6587331662362144,nan
1740797267.1820514,0.5401788679728448,0.029129189515737997,0.009988341069122395,0.5262383731008278,nan
1740797267.1859572,0.40928352280257974,0.032635192088480494,0.25469666558473425,-0.12494425150064264,nan
1740797267.1898632,0.03145448163951841,-0.2229779592219565,0.33910263438537075,-0.606629656262308,nan
1740797267.1937692,-0.21430742658942986,-0.6825423252303822,-0.008622777091604533,-0.45191695419056577,nan
1740797267.1976752,-0.17756236963529254,-0.9099974228581207,-0.5733659363744102,0.10298343348377247,nan
1740797267.201581,-0.034229539560264324,-0.5406754776090021,-0.8673480539923919,0.4376041359958314,nan
1740797267.205487,-0.0031730028063837175,0.2524165801024946,-0.6393108029703081,0.2546772423024138,nan
1740797267.209393,-0.0793644067659187,0.8671290399139843,-0.1048535161095392,-0.14303406561688123,nan
1740797267.2132988,-0.10255283457311615,0.87854601893258,0.32658323887663243,-0.270017312410235,nan
1740797267.2172084,-0.01644950443929675,0.44869610341150656,0.4738259525461863,-0.023251781609047728,nan
1740797267.2211142,0.054232710544121265,0.06780191684856311,0.4742049318584554,0.2578087077511092,nan
1740797267.2250202,0.0016866462874726615,-0.033569637586872536,0.4983707320552956,0.23597335643517137,nan
1740797267.2289262,-0.0847984380268965,-0.0747566097378818,0.49059698190311696,-0.04968887417138088,nan
1740797267.2328322,-0.022989209506713393,-0.31816393703102835,0.26066443018221613,-0.29007445584612657,nan
1740797267.236738,0.19900575816071317,-0.6347036988399324,-0.21157665244436086,-0.2845642638695054,nan
1740797267.240644,0.355188217452953,-0.6341850094861784,-0.6633924055377262,-0.10919608713981444,nan
1740797267.24455,0.22535091075643413,-0.2000714227267659,-0.785473067819424,0.06196962616308639,nan
1740797267.248456,-0.1340542040233706,0.2853112018159229,-0.5312885047834417,0.17250263890070125,nan
1740797267.2523618,-0.42248965146919676,0.3619666126429304,-0.13955573244204866,0.25571536043696586,nan
1740797267.2562678,-0.39924717317250663,0.05723903902319303,0.13859562976864204,0.27689002776180527,nan
1740797267.2601738,-0.11175210399890204,-0.1288867798298901,0.27339038502725743,0.13667488303038483,nan
1740797267.2640831,0.18825945377783507,0.16333258984412596,0.3919238183302647,-0.1458119258888669,nan
1740797267.267989,0.30590067088466255,0.6801735950606179,0.5333825089235917,-0.35883027207086277,nan
1740797267.271895,0.23886337743316557,0.8103910705812003,0.5507359690385548,-0.3014816899912834,nan
1740797267.275801,0.08926850226554268,0.2806048965106856,0.2868746814337622,-0.03460487029740837,nan
1740797267.2797067,-0.07232191458867591,-0.5253096900668999,-0.19142329648105955,0.164979442380233,nan
1740797267.2836127,-0.21477899779760753,-0.9763561061701989,-0.5912462162668016,0.12474458982353802,nan
1740797267.2875187,-0.27471032704228954,-0.8285937675803853,-0.6434911875670166,-0.025872996770873534,nan
1740797267.2914248,-0.1688680064267615,-0.3685016070780044,-0.3441024648554365,-0.04152698993090573,nan
1740797267.2953305,0.08959744644402047,0.008789816901445162,0.05413924621575548,0.10590995411931163,nan
1740797267.2992365,0.33460140315620857,0.2098618164993919,0.2717003345273019,0.18965852400129904,nan
1740797267.3031425,0.3676017131654337,0.38231729605916365,0.22176117759196537,0.04710095123251929,nan
1740797267.3070483,0.14800573797981498,0.5740189666582102,0.03688612486975707,-0.16771682823111914,nan
1740797267.3109574,-0.15919661292191212,0.6199879570886522,-0.07822404222619102,-0.1590101529567108,nan
1740797267.3148634,-0.33562504668997806,0.38874077272960966,-0.017885715334008446,0.10680228289145273,nan
1740797267.3187695,-0.2961539650082768,0.010626919067942445,0.1563073261340479,0.3007738312781952,nan
1740797267.3226752,-0.12466020011515222,-0.24817403064100732,0.27826469376497953,0.11134266057792616,nan
1740797267.3265812,0.04140253172493291,-0.30104251703115636,0.21684834694503421,-0.34091399383389664,nan
1740797267.3304873,0.12853486900081323,-0.3165442405990613,-0.007209175203401399,-0.5864549574413759,nan
1740797267.334393,0.1434274711931021,-0.4492981280993323,-0.22504282922792843,-0.3267867444083538,nan
1740797267.338299,0.12300421072298585,-0.5872043876432878,-0.26355617719015506,0.2183758308093046,nan
1740797267.342205,0.09802355912694358,-0.4598948108835456,-0.11531765851274522,0.5540163590788608,nan
1740797267.346111,0.08365224265954212,0.017172303873606246,0.0400906475284893,0.4507931847679507,nan
1740797267.3500168,0.06778036005702182,0.5914251388654314,0.014903066283152492,0.14248441138478657,nan
1740797267.3539228,0.008969625433368562,0.8967880191085428,-0.17491278783897624,-0.022977082828518777,nan
1740797267.3578317,-0.11726093292806698,0.7793350966638866,-0.3011510416262118,-0.011598043608697683,nan
1740797267.3617377,-0.25274021857838275,0.36967156796799605,-0.15502932663084748,-0.07712635790222344,nan
1740797267.3656435,-0.2707771583734838,-0.10485499440534425,0.21744734329464396,-0.3476242911501333,nan
1740797267.3695495,-0.1021470238726969,-0.4881356940785877,0.5387315001322996,-0.5853453032487054,nan
1740797267.3734555,0.15294533199746388,-0.686839643250203,0.5652786935360028,-0.4477826276116963,nan
1740797267.3773613,0.28525830513458644,-0.6223150127584813,0.30679757776174976,0.0702612210095276,nan
1740797267.3812673,0.18303082621368139,-0.3008779615438015,-0.03052177124419412,0.5706885026426085,nan
1740797267.3851733,-0.03904793019516462,0.09528429069424378,-0.28095807869761885,0.6558459344148995,nan
1740797267.3890793,-0.1541472256427548,0.30631766244038117,-0.4414952140967848,0.32621710788687164,nan
1740797267.392985,-0.06691436093399825,0.24606735220810233,-0.5544888551563952,-0.07483209557625317,nan
1740797267.396891,0.09334524684155623,0.10215748948137503,-0.5469482259611484,-0.25651215364187135,nan
1740797267.4007971,0.1380834328428582,0.11335561133986408,-0.28058660999361246,-0.22890982553692207,nan
1740797267.4047058,0.039124425049006095,0.2688834331156732,0.22228521439544197,-0.163432295686743,nan
1740797267.4086118,-0.06457645700411478,0.31696645457202344,0.6797254144652969,-0.12567003576177913,nan
1740797267.4125178,-0.06680914756252007,0.09730229127263013,0.763954134596647,-0.04603043711541555,nan
1740797267.4164236,-0.030734074022082808,-0.22179524138037895,0.4286638990717512,0.08561405830645324,nan
1740797267.4203296,-0.08056072657680328,-0.3284575027194478,-0.027368737640965514,0.13259376676144946,nan
1740797267.4242356,-0.19676101423751266,-0.16044383846352508,-0.260450995634589,-0.008229798944589953,nan
1740797267.4281414,-0.20326051996471353,0.004037567956071919,-0.22309341977609762,-0.20547239336010661,nan
1740797267.4320474,0.009966168566602313,-0.09645488839581984,-0.16309094846419886,-0.18896200304768307,nan
1740797267.4359534,0.30636899990222755,-0.34212914028407226,-0.28782011107420913,0.12354648721683258,nan
1740797267.4398594,0.41471245532242357,-0.3457204370585659,-0.4889591936016515,0.4697859157603077,nan
1740797267.4437652,0.2241486771765015,0.060802563840881965,-0.45223255660261946,0.4870818777447604,nan
1740797267.4476712,-0.0874710112277006,0.5639929941494238,-0.031226786720671033,0.10381355879597656,nan
1740797267.4515812,-0.2499443520762758,0.6814971665675092,0.5378308857050136,-0.3687802077622256,nan
1740797267.4554873,-0.18759292504816583,0.2991419252281005,0.8240908055566073,-0.5496415039254116,nan
1740797267.459393,-0.06040763324573538,-0.2019183418639783,0.597648051318476,-0.3516650695744576,nan
1740797267.463299,-0.03474668701322604,-0.3727415347102886,0.03301297178775504,-0.012024975873958578,nan
1740797267.467205,-0.08593448023235636,-0.16744376220966176,-0.4562670105166333,0.19239142474473733,nan
1740797267.471111,-0.06988548108970842,0.07478525916686132,-0.5625047620681716,0.19600592083577117,nan
1740797267.4750168,0.05616059807923446,0.06006835305067206,-0.29443926549212496,0.12020753598412316,nan
1740797267.4789228,0.16571061139236554,-0.15734412986453583,0.08109452473784157,0.0806974072638312,nan
1740797267.4828289,0.13225778953396874,-0.31510653502344604,0.2647080353730476,0.08077691270435741,nan
1740797267.4867346,0.002019973235503295,-0.27366903106955354,0.136258450117692,0.06792640702402788,nan
1740797267.4906406,-0.06276365022386056,-0.11051492704918969,-0.16838458618623425,0.020520688487963464,nan
1740797267.4945467,0.006347205201737315,0.06803258441015535,-0.354339688085781,-0.047937609465048596,nan
1740797267.4984565,0.09964716722263327,0.2676133575675508,-0.1966400355655272,-0.1223053461053904,nan
1740797267.5023623,0.07875334395254915,0.49668416938976967,0.24482658739842925,-0.1758308090839574,nan
1740797267.5062683,-0.04242510081714966,0.6114055469513816,0.6220390508640533,-0.15026251861499443,nan
1740797267.5101743,-0.12407293381681257,0.4076787542649156,0.5725836903505627,-0.009672083416542077,nan
1740797267.51408,-0.091282656662924,-0.10622308906872198,0.063947589250605,0.17034269222933543,nan
1740797267.517986,-0.027161409325000073,-0.6214077386651078,-0.5305184164517698,0.22493096014806713,nan
1740797267.521892,-0.04336471727019866,-0.7892303721341123,-0.7429781743319938,0.06943068854933719,nan
1740797267.525798,-0.11009950592769661,-0.5468906941514641,-0.43101537719434374,-0.1679803535366178,nan
1740797267.5297039,-0.08732523829063796,-0.13010933328258578,0.1119409398327419,-0.2463706045735426,nan
1740797267.5336099,0.07453135470215368,0.20973461591750986,0.4608252859413942,-0.07148624032847907,nan
1740797267.5375159,0.23668963246013147,0.4106993300701254,0.4453041826248854,0.18487152278620628,nan
1740797267.541422,0.2259144716807522,0.5079726251966815,0.22172911401662668,0.2676433715555358,nan
1740797267.5453312,0.05400161812626702,0.45707092166318525,0.01497646833892164,0.12063264686469387,nan
1740797267.5492373,-0.08580474157450188,0.18388520076898995,-0.11895734497433694,-0.0691491601764991,nan
1740797267.5531433,-0.055152369197367386,-0.20197322306561769,-0.24185234747430304,-0.11395484728610583,nan
1740797267.5570493,0.05612067708016863,-0.3972938150542353,-0.3295587780529732,-0.04552699281731204,nan
1740797267.560955,0.045558011354768245,-0.22227054392355727,-0.24550382454489938,-0.03726989431624607,nan
1740797267.564861,-0.137224859775744,0.10857019874746623,0.04602005388537978,-0.14251387462747442,nan
1740797267.568767,-0.310632866537306,0.1744991985075747,0.33229616817141705,-0.20516281725765087,nan
1740797267.5726728,-0.27049132392129255,-0.15105459289350132,0.3335091882351589,-0.07077212032515252,nan
1740797267.5765789,-0.03096026897093486,-0.49618789006183484,0.042290561287112984,0.1796891922263862,nan
1740797267.5804849,0.1964220927693517,-0.39464143888011605,-0.21381301848811893,0.2966523719195122,nan
1740797267.5843909,0.24865900896233611,0.14376869490978722,-0.12820168587808248,0.16363583183796682,nan
1740797267.5882967,0.17355759960405726,0.5993955991619568,0.20055486976077652,-0.05169644599947493,nan
1740797267.5922062,0.12376349722149067,0.5265529581952513,0.34071423404161716,-0.10320416927404237,nan
1740797267.596112,0.14253585170540148,0.06687364078980719,0.023733617886249357,0.02556761769062712,nan
1740797267.600018,0.12129313087187003,-0.23581844413787484,-0.4987759624625075,0.1076563653181456,nan
1740797267.603924,-0.032188817617670167,-0.09689493748131937,-0.6828354962016712,-0.023256212869129822,nan
1740797267.60783,-0.24839965072569498,0.18483092227682008,-0.28012683154036844,-0.24199421249672717,nan
1740797267.6117358,-0.36156298476009213,0.13467197547193244,0.37479838186215614,-0.27870662928904466,nan
1740797267.6156418,-0.29196482325123924,-0.27787239466185903,0.7090826786842461,-0.06214845269965016,nan
1740797267.6195478,-0.11271827312360311,-0.5872912958157848,0.49874027241252494,0.18094901820715398,nan
1740797267.6234536,0.06003139242483956,-0.4088432783276984,0.045721547333191975,0.20247188819650347,nan
1740797267.6273596,0.1844616838613969,0.08577775214551309,-0.2145060976401774,0.03472344124366039,nan
1740797267.6312656,0.26997353471083885,0.38677608661238777,-0.18378246281262195,-0.06664002810036648,nan
1740797267.6351717,0.2865011471772458,0.27081930539990035,-0.11659966570998577,0.03899362344552977,nan
1740797267.6390808,0.17543954102387593,0.04117660310653044,-0.2239280103650226,0.1957182216357553,nan
1740797267.6429868,-0.034616895698576386,0.09547631626816805,-0.38619353147565005,0.1588301402117571,nan
1740797267.6468925,-0.18971817667509985,0.38737420890512764,-0.31554286639279316,-0.0801932644906698,nan
1740797267.6507986,-0.1545836405134033,0.4696318373801517,0.06341388228140207,-0.2724661777457056,nan
1740797267.6547046,0.014267910852702955,0.06030495138554324,0.4909262240965549,-0.21956281031224004,nan
1740797267.6586106,0.10157234945921294,-0.5781561630903046,0.6371992588995544,-0.012545696298860582,nan
1740797267.6625164,-0.029097887813416337,-0.9051195013030644,0.41829486879557964,0.09934548635142709,nan
1740797267.6664224,-0.2640957296358361,-0.6702471159296075,0.01457314870708709,0.028772518631249258,nan
1740797267.6703284,-0.3498425871895127,-0.11163819075528097,-0.3537367608935869,-0.05932702837605871,nan
1740797267.6742344,-0.16704035274972695,0.37778642016531205,-0.574507241521794,0.006681576809527288,nan
1740797267.6781402,0.14673549701842253,0.6329717693200008,-0.5856021117138852,0.16100516712690183,nan
1740797267.6820462,0.35634321009161013,0.7037502710362765,-0.3116171443219064,0.18649500638959735,nan
1740797267.6859553,0.3654539344661538,0.5942734430226183,0.21771892984422295,0.015405975334585043,nan
1740797267.689861,0.25750221386862004,0.21319459306518623,0.7191342839106935,-0.1604148591957147,nan
1740797267.693767,0.13518803375351965,-0.3774684181634553,0.7849520139280903,-0.1265506657860511,nan
1740797267.697673,-0.0031562768755181232,-0.8234042324538239,0.27978750287576404,0.07319549730474116,nan
1740797267.7015789,-0.19607407377091746,-0.7580013424741546,-0.42434674342249107,0.18104742909646798,nan
1740797267.7054849,-0.38366201127143174,-0.22433921932824888,-0.7323467638806286,0.04533704594835808,nan
1740797267.7093909,-0.41960827504472875,0.30636254347117975,-0.41142950722745264,-0.1897826086172229,nan
1740797267.713297,-0.23660429825624243,0.40872313897127077,0.15379722172546625,-0.2634856213761254,nan
1740797267.7172027,0.04867563893651467,0.13776222753878234,0.36282860740120537,-0.11316362192220066,nan
1740797267.7211087,0.23793856670504412,-0.08385739581437655,0.04862478440116672,0.07211562805940008,nan
1740797267.7250147,0.2451731269687044,0.024129538723250316,-0.34672733843126663,0.1097995923691745,nan
1740797267.7289207,0.15495899855796552,0.3065531366073457,-0.27890194830694315,0.046401120690416936,nan
1740797267.7328296,0.0952489297353409,0.4089229545144797,0.273575988625679,0.06193502465433221,nan
1740797267.7367353,0.09728371899167886,0.19905263660880873,0.768339238150041,0.20003229163166522,nan
1740797267.7406414,0.09981398273517618,-0.14147440547034448,0.6805147527465781,0.2892112804593667,nan
1740797267.7445474,0.05094465574779709,-0.3903498260446183,0.04824672382669493,0.15754110616557396,nan
1740797267.7484534,-0.042699618266562905,-0.5012983171924198,-0.6046884353797146,-0.14340370000965383,nan
1740797267.7523592,-0.15466311722545015,-0.5045465305357787,-0.8276327386183077,-0.38985003680292285,nan
1740797267.7562652,-0.2645645652235122,-0.32895159610505054,-0.6253639073815698,-0.42900505909978603,nan
1740797267.7601712,-0.32072115457142575,0.10946315026650615,-0.28532361885909735,-0.2965099993524242,nan
1740797267.7640772,-0.2322857413285841,0.6457227864707554,0.037554503869210776,-0.092230910628114,nan
1740797267.767983,0.029326805850520093,0.865670896122039,0.4176132288439784,0.1616728392548227,nan
1740797267.771889,0.32457337775098766,0.5073766292643377,0.8499303766291408,0.4570566138440556,nan
1740797267.775795,0.41931347840968863,-0.17818154671267256,1.0214738797084946,0.6442730429480434,nan
1740797267.7797036,0.22147940035282945,-0.6084813767633395,0.5733342494512264,0.48376111557770785,nan
1740797267.7836096,-0.08503039014917245,-0.4638956709227493,-0.38697686194916814,-0.06208095196857524,nan
1740797267.7875156,-0.2098263051287927,-0.01892888693197624,-1.1805653495955957,-0.6490073727703687,nan
1740797267.7914214,-0.06902505515901085,0.19455265366725485,-1.125966192847722,-0.7921479322897258,nan
1740797267.7953274,0.1269929973496427,-0.0018581413904887256,-0.24987941090811727,-0.3465209783653809,nan
1740797267.7992334,0.12992257702537888,-0.27434694486690475,0.655669627293456,0.30115004883764407,nan
1740797267.8031392,-0.05505064563325234,-0.23258719419192944,0.7780183810794904,0.5876121770478677,nan
1740797267.8070452,-0.20478558209182415,0.09126496341265834,0.0955975028961267,0.3230092670126649,nan
1740797267.8109512,-0.18381573647213104,0.3263644358753351,-0.6026125327849554,-0.15010888880001247,nan
1740797267.8148572,-0.10546737166653128,0.2578699666866242,-0.5335664229171876,-0.34417761970122257,nan
1740797267.818763,-0.12620347568057486,0.07096561579642406,0.2724661323211726,-0.12127127394163553,nan
1740797267.822669,-0.16430000173501802,0.047571074297645344,1.0118945295610302,0.22403063276563362,nan
1740797267.826579,0.025140649460404632,0.15660803189986167,0.9350303071710658,0.3241258516339321,nan
1740797267.830485,0.4585686509236811,0.10845861882653449,0.08380811618276779,0.10775612788359511,nan
1740797267.8343909,0.7452854693391914,-0.19925306970847692,-0.8022606260375812,-0.1900331533409308,nan
1740797267.838297,0.46212271712645236,-0.4682595814345413,-1.04867782679013,-0.30928984778410834,nan
1740797267.842203,-0.2910460134629211,-0.3505345267057617,-0.6407858564022235,-0.19701315839162173,nan
1740797267.846109,-0.8627421155184098,0.06995785571000288,-0.0777689206376492,0.00892924905856241,nan
1740797267.8500147,-0.6976472506927275,0.3188035262495987,0.23988061591585993,0.14559853660545133,nan
1740797267.8539207,0.03199714941309812,0.09992944592477204,0.3541519331611799,0.1477573704124879,nan
1740797267.8578267,0.5734244737950628,-0.3056620328158455,0.49431227201165484,0.060543778776856745,nan
1740797267.8617325,0.40703389548811864,-0.34025838562131033,0.6361193463956635,-0.012738867646487734,nan
1740797267.8656385,-0.18954844618599342,0.16062300333782614,0.48181865364577275,0.00929931980045475,nan
1740797267.8695445,-0.48257866773931757,0.7341539759797295,-0.09820954776378372,0.10197312874917752,nan
1740797267.8734543,-0.13079008539668233,0.7843572126235479,-0.7408232859544438,0.12386306219198424,nan
1740797267.87736,0.4469032992224531,0.22650689612620994,-0.8637521702721095,-0.048650726305103975,nan
1740797267.881266,0.5887468565869017,-0.45500665539637786,-0.29555610176787606,-0.3339483269143304,nan
1740797267.8851721,0.15032781820820848,-0.7519263936322077,0.4646786534215251,-0.44206144987818063,nan
1740797267.8890781,-0.3803536771140483,-0.6093291002521833,0.7153469059600444,-0.15275798266715254,nan
1740797267.892984,-0.4858265310458922,-0.32673188221251565,0.2734012845696355,0.38141021184435686,nan
1740797267.89689,-0.171843821753001,-0.11489360403295056,-0.34971257577975234,0.6926340697896719,nan
1740797267.900796,0.15284191664413865,0.09556992591280183,-0.5203053481729965,0.4472061953095111,nan
1740797267.9047017,0.2165381866581186,0.40983532608836104,-0.15792975678247467,-0.17097813178638144,nan
1740797267.9086077,0.12584311548949245,0.692683773973651,0.24372331484527318,-0.6065961343334703,nan
1740797267.9125137,0.07622175026018431,0.6661929093644038,0.24235042678398808,-0.4987286092016748,nan
1740797267.9164197,0.027377473299428492,0.2563676977469925,-0.03990158405040121,-0.046088207602633775,nan
1740797267.9203293,-0.17259943101969377,-0.26971296535604666,-0.12145060333808204,0.24943978699667688,nan
1740797267.924235,-0.424525124392474,-0.5556072202326422,0.18672153612446252,0.1610484562953132,nan
1740797267.928141,-0.3739108814533309,-0.4878637675008392,0.500756378274278,-0.04660990472451863,nan
1740797267.9320471,0.1255718189481171,-0.23702523207569434,0.3229517593392031,-0.005692240723439727,nan
1740797267.935953,0.6849664538059546,-0.024796767109976418,-0.3074116854579863,0.2611521316534548,nan
1740797267.939859,0.7186859163122783,0.06723942664516637,-0.783739823626509,0.36613031568298154,nan
1740797267.943765,0.1288206319170091,0.07409619456350205,-0.6023658550656507,0.0685629016552007,nan
1740797267.947671,-0.5136290518317786,0.04421604423699687,0.04742226308122984,-0.37872970343183715,nan
1740797267.9515767,-0.5865643102591059,0.025073928282286388,0.48966538512303226,-0.5012686696986689,nan
1740797267.9554827,-0.12813239194198567,0.08521970249660907,0.33811287474347024,-0.16848963019398744,nan
1740797267.9593887,0.23280424880862569,0.24173921288256067,-0.07813997877470716,0.2468600879554285,nan
1740797267.9632947,0.06138077773388614,0.36267964069411224,-0.1518193073058705,0.31299760910425817,nan
1740797267.967204,-0.34837191417072944,0.250686391154775,0.2323620952243902,0.0368515107728904,nan
1740797267.9711099,-0.36022479349287295,-0.10342286064972762,0.5412333478226752,-0.18790261399745678,nan
1740797267.9750159,0.17504181862998597,-0.41663385970751315,0.2617219887298382,-0.08905848321489736,nan
1740797267.978922,0.6937529084491889,-0.3814756485985864,-0.4123532960509085,0.16887955469051977,nan
1740797267.9828277,0.5939624664723101,-0.047142009771287734,-0.7412899037812785,0.23466071315039785,nan
1740797267.9867337,-0.026077405982975237,0.18237672900353963,-0.307654387720732,0.029149268054843972,nan
1740797267.9906397,-0.48814532691235063,0.013715398546750017,0.43099214983948814,-0.18162609980637864,nan
1740797267.9945457,-0.3579146085517908,-0.3426110811878185,0.6061220347423365,-0.16080569057724994,nan
1740797267.9984515,0.0620534353205926,-0.3810397205723803,-0.06326467099869262,-0.0011770221497534596,nan
1740797268.0023575,0.17260598285608528,0.07883678493674776,-0.8816945973156034,0.04088488158939922,nan
1740797268.0062635,-0.13522836135921984,0.6154176927406427,-0.8844782300467031,-0.07420324045961613,nan
1740797268.0101695,-0.36264858676313283,0.6630104969269472,0.10950404581985441,-0.11341380791938982,nan
1740797268.0140786,-0.09558820929647097,0.18589356904536333,1.2513364377567588,0.07613794096029262,nan
1740797268.0179846,0.4041534802824135,-0.2669498608172108,1.4904167913245223,0.299467400494333,nan
1740797268.0218904,0.49663801237565125,-0.22704667616039842,0.5919224167312885,0.23235077299755627,nan
1740797268.0257964,-0.008820991269915358,0.11662278757007306,-0.6915769264947604,-0.13149904559019635,nan
1740797268.0297024,-0.5564202168930359,0.16144082348351152,-1.3810751282287128,-0.4076976547068671,nan
1740797268.0336084,-0.48516496127719483,-0.32414624460836317,-1.1164807328930766,-0.26654548010113827,nan
1740797268.0375142,0.16814778620476514,-0.8514566805248419,-0.29639251594087107,0.14735401998084974,nan
1740797268.0414202,0.697451474237034,-0.7584452407631425,0.4399899459319933,0.37005548528974846,nan
1740797268.0453262,0.5524651929843091,-0.0040364480186667485,0.7381882835720811,0.1776424207130021,nan
1740797268.0492322,-0.050884705113757256,0.7563336947295332,0.6161230298883473,-0.14841895486891968,nan
1740797268.053138,-0.4526451197401874,0.9018228683499654,0.2558928409942653,-0.18943074877881083,nan
1740797268.057044,-0.3539497095654908,0.4940058466336945,-0.14224085513260037,0.07410039822275356,nan
1740797268.0609531,-0.09352092363624094,0.08878390152553202,-0.37029046102770174,0.2429465686721271,nan
1740797268.064859,-0.10527958317153402,0.0126392818184558,-0.2767020447715761,0.024904804685675273,nan
1740797268.068765,-0.31362053882257795,0.03183798940907563,0.06862643653764318,-0.36502261910578154,nan
1740797268.072671,-0.25980930656086076,-0.2176235872978254,0.34337268439340296,-0.44693672610271146,nan
1740797268.0765767,0.22946291538461072,-0.659456685395728,0.24409344188993037,-0.06508357913574651,nan
1740797268.0804827,0.7309457930260508,-0.828527527191849,-0.1708869060279045,0.40925117197515687,nan
1740797268.0843887,0.7002723332266625,-0.4619098057191811,-0.48783291131022816,0.5069414977288833,nan
1740797268.0882947,0.138748542767949,0.15438557395553493,-0.3619770678205365,0.186398271309853,nan
1740797268.0922005,-0.39525297359065936,0.5233774370213113,0.08822979147571737,-0.17221291045897458,nan
1740797268.0961065,-0.4432824535312246,0.4998439223864208,0.38915020486451746,-0.24774094789483217,nan
1740797268.1000125,-0.14769188269674743,0.35679285636216473,0.23412552928081548,-0.11085441116531189,nan
1740797268.1039186,0.005641126485879194,0.3276772305281433,-0.16762159247879374,-0.03391878736609281,nan
1740797268.1078272,-0.16628194220097395,0.2884835986422612,-0.3255116959272861,-0.09395612567676527,nan
1740797268.1117332,-0.34286092822485914,0.01024189422954221,-0.02556041114825409,-0.10833699965951621,nan
1740797268.1156392,-0.16895567503470166,-0.40520723910654943,0.42519690930125176,0.05107897063739392,nan
1740797268.119545,0.24970908980447806,-0.5635748240042034,0.5412062407980897,0.2341841545321061,nan
1740797268.123451,0.47342616604560445,-0.28878694382702963,0.18773350126613578,0.1997791462140165,nan
1740797268.127357,0.2942618980520511,0.08775063343833453,-0.2978094234367014,-0.04607588893821789,nan
1740797268.131263,-0.009847262955476832,0.10697227032402189,-0.49667962720084313,-0.2315541311665594,nan
1740797268.1351688,-0.05770548596948804,-0.21813986534506002,-0.33830804451930213,-0.15480362207949305,nan
1740797268.1390748,0.1312819880765142,-0.3805666088126465,-0.09731096907950253,0.07170803410163049,nan
1740797268.1429808,0.17883787096670503,-0.018363328070935835,-0.02142448287920212,0.18518153056439357,nan
1740797268.1468866,-0.1228788149482876,0.5796001673293203,-0.06131688122495085,0.10902905493163234,nan
1740797268.1507926,-0.49639774352805854,0.7728681880255173,0.0029455826483608645,0.007672387424050816,nan
1740797268.1547012,-0.5029261460929071,0.33511137912688577,0.24085981931171463,0.011578392665110963,nan
1740797268.1586072,-0.09657204589766365,-0.26363202595681584,0.46362085966112293,0.02442103434438514,nan
1740797268.1625133,0.30367577079868724,-0.4182790025399038,0.4417340986255377,-0.10425724205957088,nan
1740797268.166419,0.31985771829338716,-0.09909918661429383,0.16461290274511733,-0.2951735783364755,nan
1740797268.170325,0.05707376360475876,0.16207858229038288,-0.16062527460614653,-0.28372583118229366,nan
1740797268.174231,-0.07071091698386914,-0.03421760406327999,-0.3371870043375504,0.020400300206004186,nan
1740797268.1781368,0.10846399984277487,-0.46312611938738735,-0.3467957056232584,0.3477646449171657,nan
1740797268.1820428,0.3095908726380253,-0.5769585264947754,-0.28969850600753033,0.35908598020832233,nan
1740797268.1859488,0.18051515471989718,-0.18255579865543886,-0.22353545531465116,0.06935237110313615,nan
1740797268.1898549,-0.21400311553552867,0.35265031790743756,-0.11811654598361739,-0.1602690439043794,nan
1740797268.1937606,-0.4419090075087826,0.564627831479335,0.050410449099211774,-0.08384627813794743,nan
1740797268.1976666,-0.23174087924228606,0.39338661176176576,0.23055563212269897,0.11205242171330382,nan
1740797268.2015767,0.18331004857950406,0.13051049469920664,0.3512744007552801,0.07287531266366591,nan
1740797268.2054827,0.33513678826850835,-0.004857505487254738,0.4008083658538376,-0.21370679712864332,nan
1740797268.2093885,0.07075135219227684,-0.05481115077642319,0.39072028003491815,-0.36090721405203924,nan
1740797268.2132945,-0.28527008743611204,-0.105405235580793,0.25763512516832965,-0.09904973364936678,nan
1740797268.2172005,-0.33238932678889066,-0.0952952719381093,-0.10447999349196056,0.3077995456856133,nan
1740797268.2211063,-0.05327555637675489,0.021916587003385772,-0.6396368143689477,0.3455599147870818,nan
1740797268.2250123,0.2127083609180208,0.05571754548664992,-0.9990632575197913,-0.0755192523819574,nan
1740797268.2289183,0.20882141833910448,-0.23742246774257053,-0.7555491676007686,-0.43802976135235105,nan
1740797268.2328243,0.053680854948442665,-0.7068135295515625,0.13477781390132446,-0.23179477193818576,nan
1740797268.23673,0.045087072750464904,-0.7712991611666954,1.1018456657063997,0.37189112083391307,nan
1740797268.240636,0.24448254569151914,-0.05107565933151616,1.3323548945941144,0.6699210806992482,nan
1740797268.2445421,0.3642358796119264,1.0186506683130294,0.5135454610137219,0.2716662834456519,nan
1740797268.2484517,0.10155214295533505,1.4586160071768914,-0.7628046362916705,-0.4030195400875057,nan
1740797268.2523577,-0.4650172963948048,0.7661792452341845,-1.429053144859309,-0.6199399805910932,nan
1740797268.2562637,-0.8715408613823981,-0.45912508283318226,-0.8929831522471999,-0.21829470839795403,nan
1740797268.2601697,-0.6858385585508912,-1.0949536856482223,0.38426214343594883,0.22830460887801962,nan
1740797268.2640755,0.059034819488154505,-0.6871560561972859,1.2854408500174739,0.179430412420685,nan
1740797268.2679815,0.8320549666904834,0.11381356977223603,1.0647417072542051,-0.1736072585523959,nan
1740797268.2718875,1.019155706453827,0.3692054597195769,0.013436187731563663,-0.19842186804067613,nan
1740797268.2757936,0.4436784779621431,-0.07017868091700055,-0.8802591540355489,0.2712270211623001,nan
1740797268.2796993,-0.4476352364647516,-0.49636372972877263,-0.9079893753816952,0.6284147930222169,nan
1740797268.2836053,-0.921853684880041,-0.29153192850380616,-0.2572585663912483,0.2591231675106488,nan
1740797268.2875113,-0.5818277737187489,0.32665425957312144,0.3151706811279253,-0.5690092885269904,nan
1740797268.2914171,0.25471456516378554,0.6474045713190103,0.32871129227179335,-0.896583878064211,nan
1740797268.2953267,0.8082875274627056,0.37801793280721857,0.011414487650044252,-0.21547852294528902,nan
1740797268.2992327,0.560345181832631,-0.05944751410777412,-0.09227522647303994,0.8235221334940047,nan
1740797268.3031387,-0.22361074567458614,-0.15537266134849054,0.1864080888419663,1.0799971794813057,nan
1740797268.3070447,-0.7350811345538,0.034449886745493444,0.4664634204065045,0.23485746702924276,nan
1740797268.3109505,-0.44984818231287765,0.06695192988422465,0.32430325137079313,-0.8239065374759593,nan
1740797268.3148565,0.30015911526513106,-0.19370644123233866,-0.16503726017102477,-1.0196406654784826,nan
1740797268.3187625,0.6585636324161935,-0.3700340583545929,-0.5119293641102434,-0.29407957753186914,nan
1740797268.3226683,0.17521033328057511,-0.14409037644634,-0.40144682357646266,0.4242278778003466,nan
1740797268.3265743,-0.6667569313277535,0.21811094139880005,-0.05232146907830004,0.39151695166843686,nan
1740797268.3304803,-0.9364174715654062,0.1826533002142325,0.09233809070164288,-0.1040931241137575,nan
1740797268.3343863,-0.24968466572102838,-0.2768252304785746,-0.059613009545353465,-0.21927042949232925,nan
1740797268.3382921,0.8127946205741503,-0.532829188036892,-0.1463233590345452,0.31270844187966107,nan
1740797268.3422017,1.3108497482217267,-0.08925861509690279,0.138957777947508,0.8364463439083791,nan
1740797268.3461075,0.8802690601500184,0.6862469014777752,0.5800117951627158,0.6145802069345303,nan
1740797268.3500135,-0.01609749616317804,0.9060295058389846,0.6413206418231517,-0.23827704326640517,nan
1740797268.3539195,-0.6947019415331687,0.24537925784090361,0.1294209703897116,-0.8898632464119193,nan
1740797268.3578255,-0.9202904567132769,-0.5909442116489336,-0.5158604601390073,-0.7812773529360182,nan
1740797268.3617313,-0.8945037850522964,-0.6687111326886347,-0.7031723315322455,-0.22194003031821247,nan
1740797268.3656373,-0.7499111388930942,0.05230337347063682,-0.3734890881448169,0.09790942332980755,nan
1740797268.3695433,-0.3278722914107014,0.6588844361831858,-0.024010440095097226,-0.013830946473056679,nan
1740797268.373449,0.45485201184829754,0.3721862797701133,-0.024772185040871746,-0.09775619312807032,nan
1740797268.377355,1.215522364031352,-0.5443096520806427,-0.11081821289348635,0.2593484482257398,nan
1740797268.381261,1.3418529443141434,-1.1238325977344419,0.23782623489748086,0.8231390839281144,nan
1740797268.3851671,0.669129513254081,-0.7941583197875675,0.958730910218648,0.9643055582756398,nan
1740797268.3890762,-0.24826496489660313,0.10408822639151956,1.2363211223419115,0.40780078107425927,nan
1740797268.3929822,-0.6871560228024096,0.8569762213670206,0.39254406217799226,-0.45325632877779665,nan
1740797268.3968883,-0.5192915897317221,1.1222578841898703,-1.1328956370251242,-0.9916040165596666,nan
1740797268.4007943,-0.2699682794348816,0.9727508289995902,-1.9834560480603176,-0.9324076358179182,nan
1740797268.4047,-0.3986850690293611,0.46663191702480417,-1.247069387970483,-0.45300613738638834,nan
1740797268.408606,-0.6959763159577991,-0.4009231951277882,0.48207145363954107,0.12471350490527273,nan
1740797268.412512,-0.5549383746024787,-1.2730864100410366,1.6152565259216842,0.5501900571586797,nan
1740797268.416418,0.2137606089758876,-1.3949493427651507,1.1956664277632998,0.6284991522598954,nan
1740797268.4203238,1.0415769059130846,-0.4127450674921821,-0.13000369889652408,0.27705119932418854,nan
1740797268.4242299,1.1786287011009104,0.9002683385324203,-0.8758812548049555,-0.2545443118927236,nan
1740797268.4281359,0.5100769331937972,1.2002301710983188,-0.3496179943849184,-0.41357567510995297,nan
1740797268.4320416,-0.3407981931792707,0.09821672183479163,0.6750620960139369,0.10853115543391499,nan
1740797268.4359522,-0.698149887949289,-1.163651682366128,0.935222487169147,0.8383335135214214,nan
1740797268.4398582,-0.47136307887598156,-0.9885077666972454,0.10714955477226047,0.8264363804020026,nan
1740797268.4437642,-0.06546642602860468,0.6368364299638085,-0.9402611834464994,-0.26817415762654623,nan
1740797268.4476702,0.17603381354559708,1.922658675561486,-1.2298730789276449,-1.5285428071281677,nan
1740797268.451576,0.24537715638858482,1.2766831928858173,-0.7155579454273551,-1.5602740740574563,nan
1740797268.455482,0.22675898593788305,-0.7451904760402157,-0.09317651439847845,-0.05866810664956836,nan
1740797268.459388,0.036953884716150194,-1.9624906846796444,0.2068003727500457,1.6312272405790347,nan
1740797268.4632938,-0.4013894331488859,-1.085347509519278,0.472213002733208,1.8056267024078545,nan
1740797268.4671998,-0.8266394690236996,0.7633472690970632,1.060731763894051,0.2398656198693687,nan
1740797268.4711058,-0.7458060291364123,1.402325215416247,1.603450339981452,-1.511249484581317,nan
1740797268.4750118,-0.0013619088948367533,0.20945380151432347,1.24478041372656,-1.7530729761063828,nan
1740797268.4789176,0.9032130886618356,-1.196566505249059,-0.24876026572869267,-0.39499919876367123,nan
1740797268.4828265,1.2371273797493638,-1.0335137561663552,-1.8967294754653885,1.1346132022438775,nan
1740797268.4867325,0.8081870144614529,0.4187570091718116,-2.3137349081685348,1.5532230734246124,nan
1740797268.4906383,0.14239144772666598,1.2361607988093293,-1.1296925944744693,0.9258863625887378,nan
1740797268.4945443,-0.16963306370195197,0.36395152627856786,0.5774368236841392,0.12964421804220705,nan
1740797268.4984503,-0.1649383553525659,-0.9847304748113798,1.3621407485929475,-0.429936488028252,nan
1740797268.5023563,-0.37008172160175873,-0.8555786403622229,0.8283016828185595,-1.0437142396700276,nan
1740797268.506262,-1.0007854607617528,0.8987763797908178,-0.12957407471761928,-1.7024958014071796,nan
1740797268.510168,-1.5269842723950469,2.2754905344588954,-0.403200612722137,-1.5542629462014281,nan
1740797268.514074,-1.2046455182141396,1.4579227556667107,0.20907953192276077,0.06224527266776699,nan
1740797268.5179799,0.02814925484094731,-1.0290603326667507,0.9818224457191373,2.223364455342808,nan
1740797268.5218859,1.3698569323705085,-2.9249019462229815,1.1359568007872742,2.8195872269400937,nan
1740797268.525792,1.9178968212815293,-2.724578413398654,0.5196450303988799,0.8420774216074687,nan
1740797268.5297005,1.4911487335145368,-0.9940206439996578,-0.4931677585281683,-2.0278667390813325,nan
1740797268.5336065,0.6208015619844919,0.7936592132119125,-1.4552079373716038,-2.8104782359093936,nan
1740797268.5375123,-0.13678764647578376,1.9938863845862562,-2.009082921513452,-0.4819414584083389,nan
1740797268.5414183,-0.664961462972253,2.7871397644577343,-1.8016872070489174,2.5756981977292632,nan
1740797268.5453243,-1.0686222244253853,2.8829102286027104,-0.6360229731265014,2.919265187786352,nan
1740797268.5492303,-1.2597656236138028,1.3332056026594252,1.117296948205976,-0.14644649616127167,nan
1740797268.553136,-1.0104034765498262,-1.8323648907784735,2.4753432495238354,-3.5713587121168215,nan
1740797268.5570421,-0.37328992402343003,-4.478724251406348,2.543542148655391,-3.6964846036100814,nan
1740797268.5609481,0.2158756810775888,-4.002092997362677,1.3575215296339516,-0.19196321035068345,nan
1740797268.564854,0.40631785790786085,-0.3826521831442712,-0.13382556719481617,3.5330696701670843,nan
1740797268.56876,0.36681914184709025,3.1728877584309942,-1.0397987155363138,3.896461669474374,nan
1740797268.572666,0.5404753610360948,3.409279825213687,-1.356091370453292,0.7772750672731774,nan
1740797268.576576,0.9818523290711738,0.6395316524292497,-1.6414510714497204,-2.6116113381309516,nan
1740797268.580482,1.1801015031497275,-1.6226596192983263,-1.9600714241364738,-3.190518253576847,nan
1740797268.5843878,0.6920120599419765,-0.8610347628196421,-1.534735242848752,-0.9174612994832346,nan
1740797268.5882938,-0.2055885028505797,1.4055760563452295,0.23695558173556427,1.7232204752638334,nan
1740797268.5921998,-0.7685544105951175,1.6026829508707818,2.5531394141227604,2.537887791632678,nan
1740797268.5961058,-0.7137265001629669,-1.184722346525882,3.4799176555159135,1.4550907294098603,nan
1740797268.6000116,-0.6076058639158852,-3.6818708851349737,1.8331850409926402,-0.18661116183094223,nan
1740797268.6039176,-1.079969071636604,-2.303250491798472,-1.2718831757066664,-1.3821036597072043,nan
1740797268.6078236,-1.7821080289095916,2.1305513477852345,-3.1301559020529743,-2.0289500074950015,nan
1740797268.6117294,-1.536812309587845,4.833690096723389,-2.0018128463573803,-2.1478655995472775,nan
1740797268.6156354,0.24487738462382355,2.545404261679008,1.049564214553394,-1.3572736330882345,nan
1740797268.6195414,2.5141831737315203,-2.405415664790175,3.0564505436529363,0.48976534061253935,nan
1740797268.6234512,3.367779636647413,-4.5705788057546,2.000577421856777,2.52039712144305,nan
1740797268.627357,2.0356023549231224,-1.7045918736814196,-1.2330431285158776,3.3047052500366503,nan
1740797268.631263,-0.15664581466194896,2.576394215994638,-3.7409732701850533,2.2714587635122685,nan
1740797268.635169,-1.1272770376345564,3.104128355874222,-3.3604883060283433,0.3478348172561352,nan
1740797268.6390748,-0.34752507988275794,-0.6252716976205269,-0.5362246610228159,-1.0692279103167726,nan
1740797268.6429808,0.48799819135994477,-3.7934796464615146,2.379777189796004,-1.6030260217256689,nan
1740797268.6468868,-0.6404351681499224,-2.0335273722486447,3.416966611572791,-2.0094319491603083,nan
1740797268.6507928,-3.555524344837163,3.208448372661389,2.4996159061066594,-2.7934405954826587,nan
1740797268.6546986,-5.540658526076088,6.117583163403052,0.9355259298917329,-3.1415645815370334,nan
1740797268.6586046,-3.788972925006464,3.0958841803091004,-0.1993975515448469,-1.6625454342220756,nan
1740797268.6625106,1.6728169723086923,-3.172691506727421,-0.9514439654294845,1.7922849677211905,nan
1740797268.6664166,7.480960037919511,-6.729332448467859,-1.891220915284026,5.364308957237545,nan
1740797268.670326,9.440292038499551,-4.706062458100437,-2.9413459673713622,6.501325039953882,nan
1740797268.674232,5.84401211361597,0.19913514065077062,-3.069172966906256,4.091696396951486,nan
1740797268.678138,-1.1926114826774719,3.375546793593047,-1.280345524202333,-0.6388930640742129,nan
1740797268.682044,-7.320477303649535,3.226810920025059,2.050984750435515,-5.108654093579007,nan
1740797268.6859498,-9.025146920805708,1.7748961337688864,4.918414986195029,-7.084077971716308,nan
1740797268.6898558,-5.8389640115478745,1.1620397741708925,5.001197146014256,-5.724761283447453,nan
1740797268.6937618,-0.29612131213274295,1.0276019170669384,1.6459281798747722,-1.700612327298707,nan
1740797268.6976676,4.0668391238532635,-0.16925405457875484,-3.176534214146457,3.1294697136027785,nan
1740797268.7015736,5.125610121988721,-2.283167862587816,-6.010018214071428,6.3293426482855315,nan
1740797268.7054796,3.3230724373212137,-3.262098147227018,-4.540022299814939,6.0433430152503895,nan
1740797268.7093856,0.8523141825160074,-1.8695698635379623,0.34645253415223287,2.369395390133431,nan
1740797268.7132914,-0.36015731185101274,0.4654469649097051,4.969779034992956,-2.287373195237825,nan
1740797268.717201,-0.14491681426393202,1.3293080570640299,5.698058319008949,-4.749209225194821,nan
1740797268.7211068,0.1962696664130549,0.40081809280875663,1.9649294692373172,-3.560990127519356,nan
1740797268.7250128,-0.46074160643150674,-0.19849730750974015,-3.192228081893433,-0.2015228027827393,nan
1740797268.7289188,-1.7915665043210944,1.1235504327356811,-5.6731451608724175,2.284873281701038,nan
1740797268.7328246,-2.44279559093687,3.000424767529695,-3.7469865397393494,2.027481171962054,nan
1740797268.7367306,-1.6128379212839328,2.575063928906736,0.6706341480103535,-0.17502657737352637,nan
1740797268.7406366,0.016084269652035507,-0.7629748444540285,3.942358516768903,-1.9345597439652287,nan
1740797268.7445426,1.050455397290791,-4.102035933683911,3.911851061826139,-1.6610083116772205,nan
1740797268.7484484,0.9409670083297614,-4.058853705607046,1.4181907947326886,0.1499173763554375,nan
1740797268.7523544,0.48844283527501153,-0.6557042050935615,-1.0131361365623248,1.7518751508019315,nan
1740797268.7562604,0.7225332263583637,2.62943496153501,-1.6903402184256926,1.9296552766855561,nan
1740797268.7601664,1.5310050895450737,2.7406348769422824,-0.9743153582784604,0.8888902750851712,nan
1740797268.7640755,1.728850762907189,0.28096094993324106,-0.3235398817688625,-0.3185180036503099,nan
1740797268.7679815,0.5219362729972491,-1.565449276195467,-0.5353216379342811,-0.8928925959603768,nan
1740797268.7718873,-1.387489459186195,-0.8761094351825766,-1.0786722669744129,-0.7837618331701599,nan
1740797268.7757933,-2.417909281274469,1.0561039176146225,-0.9560666645529744,-0.40626109441756403,nan
1740797268.7796993,-1.7782954569980571,1.69997324195083,0.09879711635421833,-0.15536494673172777,nan
1740797268.7836053,-0.27565084540312257,0.4186489906882389,1.380900905875664,-0.17479431005091436,nan
1740797268.787511,0.6340090573785663,-1.083507312467352,1.9809439185442475,-0.3569288931869009,nan
1740797268.7914171,0.4093369269663451,-1.1806774028081937,1.584116278605203,-0.4251116259661716,nan
1740797268.7953231,-0.169936074670287,-0.2788372622498815,0.5442679260884357,-0.119447437084279,nan
1740797268.799229,-0.08385791053958358,0.07971639520207434,-0.5842572496549894,0.527341436566789,nan
1740797268.803135,0.7344724145381671,-0.511357349189092,-1.4082568229377883,1.0939092162131343,nan
1740797268.807041,1.436351344230658,-0.8071933574902334,-1.6941568663217805,1.0938467548330648,nan
1740797268.8109498,1.3018396227371762,0.22522955606684816,-1.3001157416314042,0.4774468604250625,nan
1740797268.8148558,0.46057082210189465,1.7581091892777647,-0.3144706876975316,-0.26781473151458185,nan
1740797268.8187618,-0.44348050372472175,1.9583934931199973,0.7879935872137133,-0.6160514574113619,nan
1740797268.8226678,-1.013291595441691,0.30915235658650214,1.341556282850296,-0.5562531956759894,nan
1740797268.8265736,-1.2896559042932951,-1.6011095008042566,1.0102805948100928,-0.5157908900519622,nan
1740797268.8304796,-1.3182105409267757,-1.8821481217995997,0.13306929035081336,-0.7226496814400533,nan
1740797268.8343856,-0.9005109922833879,-0.5086566354524062,-0.5274794218395286,-0.8223347863648055,nan
1740797268.8382914,0.03530632740264267,0.8034158070281365,-0.4551632662235859,-0.303394545092687,nan
1740797268.8421974,1.0178453029249594,0.750842589857805,0.1626281988602776,0.743848031695945,nan
1740797268.8461034,1.3233940826210493,-0.11390219650267572,0.6312522380857366,1.5180301340796676,nan
1740797268.8500094,0.770642360305354,-0.34874891002820635,0.40871640798299075,1.2976097651610834,nan
1740797268.8539152,0.013866667151206562,0.40504434801378153,-0.387238181503326,0.2558120367102874,nan
1740797268.8578243,-0.1545444580274131,1.0121171350527804,-1.0767683653626472,-0.6825801033107403,nan
1740797268.86173,0.2762248896852464,0.42791800316716433,-1.0193396044461298,-0.8156435877552755,nan
1740797268.865636,0.5302571000631011,-0.8599350201284476,-0.18890411323347384,-0.34991463246305743,nan
1740797268.8695421,0.01159338792044446,-1.4014037177262657,0.7738504542907583,-0.026806580919287584,nan
1740797268.8734481,-0.9183645911177637,-0.5917923568697026,1.0912340601700539,-0.19181961010049325,nan
1740797268.877354,-1.3199980119305275,0.6069851378380634,0.5266077445576498,-0.4440324967739137,nan
1740797268.88126,-0.7702018243113531,0.8977204215851692,-0.38158747672002835,-0.2415081908039714,nan
1740797268.885166,0.15110934028475276,0.2099404208408188,-0.7794216443965803,0.3481058084526525,nan
1740797268.8890717,0.5610785706986156,-0.35751671428581194,-0.28456882789276455,0.7030623328576051,nan
1740797268.8929777,0.2908657774108822,-0.028894889579873902,0.6213519887722029,0.4202838313281108,nan
1740797268.8968837,-0.008436198310532949,0.6837511534907029,1.014353532599819,-0.17540538706596265,nan
1740797268.9007897,0.24989127717828027,0.7144607649880956,0.41532411522641566,-0.41335646974126883,nan
1740797268.9046984,0.837988133448077,-0.16008129594160908,-0.7092266441295149,-0.06524173406973947,nan
1740797268.9086044,1.0039293051622877,-1.0536094021473825,-1.358560276886757,0.41782275354303133,nan
1740797268.9125102,0.3980481882641437,-1.0810438808660787,-0.9470570327938006,0.4638251914185648,nan
1740797268.9164162,-0.5163664235202229,-0.36214542956978474,0.14485812842300996,0.021099029865057115,nan
1740797268.9203222,-1.019158704140706,0.29068306872412353,0.9618192220603309,-0.45784846494814374,nan
1740797268.9242282,-0.9094573835333256,0.44039347450726696,0.8910220281487593,-0.5766402867730135,nan
1740797268.928134,-0.565985859267331,0.40689043151769805,0.1783762688960026,-0.3717923301590796,nan
1740797268.93204,-0.3325319990900745,0.5804192722365754,-0.41922863438231645,-0.11890121969937847,nan
1740797268.935946,-0.10291956480113322,0.7456384424293568,-0.4038259304283323,0.062162190126940214,nan
1740797268.9398518,0.3730928018479011,0.3941481653164484,0.07270723992381121,0.2588347399194124,nan
1740797268.9437578,0.9488521438244818,-0.4355367097875581,0.49216145914960113,0.4842374529077333,nan
1740797268.9476638,1.1050098748302586,-1.0186264784481254,0.5015590312619742,0.5415510294197267,nan
1740797268.9515738,0.5673032550232276,-0.7849276941677908,0.13061796013250687,0.26914004069656833,nan
1740797268.9554799,-0.27466437341623934,-0.055247446137706525,-0.3835856129794351,-0.17654037424696017,nan
1740797268.9593856,-0.7258655086533947,0.33094403760744734,-0.8143372574037286,-0.43132944455318095,nan
1740797268.9632916,-0.5236462547301056,0.056673458160648414,-0.9679241809621765,-0.3282932758941946,nan
1740797268.9671977,-0.07407847142699013,-0.29991796441321716,-0.6607386320709501,-0.07990303186561493,nan
1740797268.9711037,0.07437875069050884,-0.050593775439389296,0.1290642796326555,0.004910595358740832,nan
1740797268.9750094,-0.14363138645365867,0.6683254145376357,1.0568677424055752,-0.09750493327967677,nan
1740797268.9789155,-0.3236371159200663,1.0184745050086996,1.5106741393655687,-0.1375356461339173,nan
1740797268.9828215,-0.15644482069650967,0.4927996853306118,1.0885961785322449,0.0365756401023064,nan
1740797268.9867272,0.19678360697488329,-0.442098627072977,0.02332638816497873,0.25776789613837336,nan
1740797268.9906332,0.3538081643577225,-0.8874163941406512,-0.9439608641043549,0.2661394841036653,nan
1740797268.9945393,0.2063810469584317,-0.542719163232453,-1.1913003750984485,0.06820384507300664,nan
1740797268.998449,0.0168609932802887,0.03438970279955107,-0.7339103746317976,-0.06765569892145114,nan
1740797269.0023549,0.038289331146651076,0.18250703644806393,-0.11425288570099991,0.01830570851262621,nan
1740797269.0062609,0.19106762506378352,-0.09564572370009997,0.1843534720019622,0.1462112490695462,nan
1740797269.010167,0.20469540923409288,-0.26647168231122015,0.159740113528173,0.03740632878739124,nan
1740797269.014073,-0.005330811375151012,-0.016323504447964845,0.14151146917422203,-0.27844322667887267,nan
1740797269.0179787,-0.23954135493352166,0.384364436301439,0.32026249274782775,-0.4451034218666024,nan
1740797269.0218847,-0.2959978657774244,0.498018181686912,0.5229837340411864,-0.2117419205378767,nan
1740797269.0257907,-0.21763577099909748,0.27934860228309555,0.45712692926291965,0.22653710240396627,nan
1740797269.0296965,-0.1721187171933565,0.04377504547084205,0.0901739000144214,0.431801507180419,nan
1740797269.0336025,-0.16630877034248914,-0.021913946926278332,-0.28938655265598706,0.2339942450129636,nan
1740797269.0375085,-0.03216509528580203,-0.07898352874753363,-0.38202132827992935,-0.08732465971535726,nan
1740797269.0414145,0.27420368648165494,-0.30616938982016206,-0.19187276594030578,-0.17195706261917354,nan
1740797269.045324,0.4956190522112824,-0.5420591349986806,-0.0055951739586241915,-0.019465878475452156,nan
1740797269.0492299,0.333552975158733,-0.451249402691732,-0.07869507147203864,0.0594367536214378,nan
1740797269.0531359,-0.13577057980409243,-0.003139024207769066,-0.36365188335475335,-0.10215880628883989,nan
1740797269.057042,-0.4465067240362389,0.41613612114887794,-0.5386388412768163,-0.27878218959790635,nan
1740797269.0609477,-0.23254945753318598,0.4502151101126743,-0.29706561866854925,-0.14903098379122268,nan
1740797269.0648537,0.3226453730492022,0.19556151111172565,0.3553101044403844,0.2463672082426301,nan
1740797269.0687597,0.6303424083372238,0.03370557624135334,1.0364266850508195,0.4958581210827587,nan
1740797269.0726657,0.31141278952256274,0.1027635230822284,1.2263200882413292,0.29811551365377725,nan
1740797269.0765715,-0.3970298860125521,0.1323710039048722,0.6651631439172158,-0.1629387717979807,nan
1740797269.0804775,-0.8846230192211177,-0.12878049454649568,-0.38087468570307925,-0.4242941897380516,nan
1740797269.0843835,-0.7670876689287494,-0.48580081140493236,-1.2432944641119856,-0.27914358185834964,nan
1740797269.0882895,-0.19216171628207288,-0.4886860438127457,-1.3415885538611767,0.016904603271541346,nan
1740797269.0921988,0.4006014211084457,-0.028385862814499514,-0.6609520684994179,0.10136232730399611,nan
1740797269.0961049,0.7052848852226439,0.45293715452478256,0.23306348179412878,-0.04843067332169053,nan
1740797269.1000109,0.6960021628201125,0.4562612656649845,0.7027999498847608,-0.13466452456203082,nan
1740797269.1039166,0.4650691060753046,0.022205233805265734,0.5988272759587436,0.035748744312230886,nan
1740797269.1078227,0.07981831181378549,-0.32678305970327093,0.30840498318991494,0.29144348403192344,nan
1740797269.1117287,-0.3588194375245134,-0.2247993249162268,0.24987221001247467,0.33038096435823583,nan
1740797269.1156347,-0.6363769382059523,0.12652436772212375,0.3814903806678343,0.11872425143491935,nan
1740797269.1195405,-0.550821941441036,0.2676146672658498,0.2901246620950097,-0.07904604311039809,nan
1740797269.1234465,-0.14775962983528512,0.06976004358020799,-0.23859615991224647,-0.07013659091675145,nan
1740797269.1273525,0.2525825455356033,-0.16190972369511608,-0.8507940021087423,0.002939687820239259,nan
1740797269.1312582,0.3370803226232538,-0.15117225272099033,-0.9376886492981752,-0.12738705300032385,nan
1740797269.1351643,0.10137102341068258,-0.009417352656773363,-0.31945283489521326,-0.43840459239945423,nan
1740797269.1390736,-0.16787531994775512,-0.008798736180651844,0.48519325605038766,-0.5626964662637358,nan
1740797269.1429796,-0.20319668723393458,-0.12982122594646617,0.7559899487435056,-0.21495638286920402,nan
1740797269.1468854,-0.00465514959028057,-0.06594585049712426,0.3171899158119248,0.4097747705305952,nan
1740797269.1507914,0.22236174138501602,0.28522627930376754,-0.2891316147212008,0.7806604224443872,nan
1740797269.1546974,0.31016179875788524,0.5466648306791183,-0.39611134953859234,0.585087753442819,nan
1740797269.1586034,0.2523210469713582,0.2738405141316036,0.08357965107300337,0.05589297782866581,nan
1740797269.1625092,0.11845359117300497,-0.4149999771876963,0.6014723422274686,-0.3023994070932901,nan
1740797269.1664152,-0.0574229434303474,-0.8451297224224896,0.5863066502692484,-0.25858036806538254,nan
1740797269.1703212,-0.2543811148103,-0.5260790008744649,0.027485604734566963,-0.0468957396003965,nan
1740797269.174227,-0.3869159367291714,0.2449879647350904,-0.574720837817533,-0.02679519132482061,nan
1740797269.178133,-0.3439215786803354,0.6902523634145784,-0.7568649241189248,-0.2493168543554317,nan
1740797269.182039,-0.1300922003918532,0.43519849883221534,-0.49798219342050415,-0.42930055888836677,nan
1740797269.1859481,0.09209378649355685,-0.09442049552000545,-0.1019890069767757,-0.3057819580777569,nan
1740797269.189854,0.16127006690827903,-0.2358348089780506,0.1924513690276253,0.06391562018039135,nan
1740797269.19376,0.10368677472360935,0.09875302166610053,0.3831435433766816,0.39400788552761884,nan
1740797269.197666,0.10146712653943181,0.36153831547254844,0.5293716404744737,0.48352774392184783,nan
1740797269.2015717,0.2540298008898047,0.10000458141611573,0.5515103580700658,0.37229581926624794,nan
1740797269.2054777,0.417736878634289,-0.4613591908394797,0.30617399802389395,0.20973359899279398,nan
1740797269.2093837,0.3394546479135928,-0.7029346626357975,-0.16781911694115362,0.05855058290815163,nan
1740797269.2132897,-0.047662601551556064,-0.36417307185219017,-0.5805674239824237,-0.12118361545277773,nan
1740797269.2171955,-0.5034485252318823,0.18243693814752082,-0.6297549107616179,-0.33503636457835007,nan
1740797269.2211015,-0.6838067601868846,0.43049946086637725,-0.2942233381181914,-0.4795110776167948,nan
1740797269.2250075,-0.4573173147991929,0.32447772854852414,0.14213668840604823,-0.43347371957246295,nan
1740797269.2289133,-0.011457330204012704,0.2016878819534542,0.3551102054641188,-0.1947648192418755,nan
1740797269.2328224,0.3354674470837776,0.2512106363699463,0.2513033258603858,0.10442757054670729,nan
1740797269.2367282,0.4034093517775344,0.260705525118183,-0.0025666702093928677,0.3110556083733009,nan
1740797269.2406342,0.25072250314957517,-0.02396076102268232,-0.16516763213635166,0.3620454663833325,nan
1740797269.2445402,0.06383610501720491,-0.45869210308527925,-0.11371133505356448,0.2951627271605137,nan
1740797269.2484462,-0.016076447210070198,-0.6166142972644363,0.09702579702785526,0.1858097781735778,nan
1740797269.252352,0.018063471313015545,-0.3240758166284578,0.2962608666975336,0.08715034482876373,nan
1740797269.256258,0.067619011576036,0.10379043677654264,0.30885459772526797,0.00814108090645914,nan
1740797269.260164,0.024815676533704353,0.25398050281240425,0.0732565936962986,-0.0779497264746799,nan
1740797269.2640698,-0.12853791124110292,0.1182416654984362,-0.28470820651912354,-0.19961249222937774,nan
1740797269.2679758,-0.2867571769412622,0.043454982124007994,-0.5040731179525646,-0.3375998621710972,nan
1740797269.2718818,-0.29581039601114606,0.2124187875344172,-0.3846721604990908,-0.4055935811563422,nan
1740797269.2757878,-0.09955011379961444,0.3733779931968788,0.016274325824741726,-0.307205295852667,nan
1740797269.2796965,0.17844543704757732,0.19763727121056135,0.3947978064366847,-0.0363967454714709,nan
1740797269.2836025,0.32500206080731525,-0.2203621002928475,0.45265630298383164,0.2851989484112572,nan
1740797269.2875082,0.23305202247713763,-0.4255490625435405,0.16467242846942148,0.49153725981694013,nan
1740797269.2914143,0.0008312749512016591,-0.18602283882111442,-0.20799978334786845,0.4967056173399444,nan
1740797269.2953203,-0.17684503768416132,0.17072811589415235,-0.36935272120804297,0.3303263645321288,nan
1740797269.2992263,-0.19952937656541744,0.15324949904320506,-0.23968720179721384,0.0674642244208872,nan
1740797269.303132,-0.11536833055837399,-0.24298482534495208,0.03341699538660866,-0.23077222650107743,nan
1740797269.307038,-0.0017206437930429616,-0.4821466341398142,0.259668831220202,-0.4863383630017865,nan
1740797269.310944,0.13688373986194766,-0.1478080798640264,0.3489514365806276,-0.5650251570074684,nan
1740797269.3148499,0.30032801987769486,0.49538536190031307,0.29072730203859365,-0.3568497587822793,nan
1740797269.3187559,0.3686729214506723,0.7630821478503599,0.08527279666807404,0.06655431750233239,nan
1740797269.3226619,0.16202562856709704,0.3436786700536403,-0.2268831257727361,0.4285118281092655,nan
1740797269.326572,-0.30955832631119,-0.33653129025995726,-0.4912283063123076,0.4650299957713983,nan
1740797269.3304777,-0.7164528776218209,-0.6082101927261812,-0.4985255008580833,0.18919527607076617,nan
1740797269.3343837,-0.6546001797248169,-0.29876326036194834,-0.19103659231561396,-0.10889330157985769,nan
1740797269.3382897,-0.07816500876032427,0.1561245721044791,0.21753231656547475,-0.16518120997092345,nan
1740797269.3421957,0.5700088522937087,0.2886167629926894,0.40814895842356347,-0.01748661147308878,nan
1740797269.3461015,0.7484193882622764,0.10221207911346691,0.27552087756597227,0.07197528302583733,nan
1740797269.3500075,0.3534311881643905,-0.07266714001705818,0.03981011733015374,-0.04165446317395305,nan
1740797269.3539135,-0.1836654124916297,-0.07395703750612082,-0.0048557614630550345,-0.20036097742827041,nan
1740797269.3578196,-0.35875014012538947,-0.06049893470861713,0.16815968123556108,-0.1518574257218233,nan
1740797269.3617253,-0.10771800017603723,-0.17287006663456161,0.28829094843087927,0.10484592939142837,nan
1740797269.3656313,0.18789452059482467,-0.2467049559626287,0.11272596810060702,0.28291171742883425,nan
1740797269.3695374,0.168940150057623,-0.023038956886751165,-0.2774849613929787,0.14931358938889783,nan
1740797269.373447,-0.12082332477084841,0.42524253786642485,-0.5609358825925024,-0.17174862667649438,nan
1740797269.377353,-0.35074277667192144,0.6689500380822281,-0.528677023528487,-0.32419672147396283,nan
1740797269.381259,-0.31262709304691794,0.3952142902106522,-0.2758985205941499,-0.13796576301275915,nan
1740797269.385165,-0.10941774135318236,-0.20634684901022848,-0.02217009162131854,0.1701177401489976,nan
1740797269.3890707,0.05331801714445,-0.6402366779027592,0.17282538854650525,0.2617012167775402,nan
1740797269.3929768,0.138432830731451,-0.635926518343615,0.4117611114663229,0.07969804998108128,nan
1740797269.3968828,0.24818610326896198,-0.3532290636801895,0.6904316474748388,-0.10851791791695292,nan
1740797269.4007888,0.38208137136324277,-0.06314473107817188,0.7604032258987986,-0.06740230515674843,nan
1740797269.4046946,0.3669160261936257,0.1992683864891795,0.38035655325674933,0.11326959367780401,nan
1740797269.4086006,0.09018937143481874,0.5276273303282668,-0.31688080149602765,0.15708097925986877,nan
1740797269.4125066,-0.28200107422286624,0.7902272105225907,-0.8390891080562103,-0.023513207288536966,nan
1740797269.4164124,-0.4380225230783389,0.6300704493183215,-0.8043038069073575,-0.21380925582875943,nan
1740797269.420322,-0.2767049615794727,-0.0654562294185392,-0.3520776084212248,-0.1915654414628778,nan
1740797269.424228,-0.031305923442572776,-0.8353261869007652,0.013717737107677281,-0.028270714151060812,nan
1740797269.428134,0.021422259127820656,-1.0028885852023952,0.006738868700997084,0.019961181244260683,nan
1740797269.43204,-0.09163836239857653,-0.406301521567938,-0.11553996879978007,-0.10426088081459887,nan
1740797269.4359457,-0.0911786993186574,0.37254248059106065,0.10497346047518541,-0.1348627572436787,nan
1740797269.4398518,0.15682184361113233,0.6193601699585345,0.6994332147584137,0.1625946012286966,nan
