timestamps,TP9,AF7,AF8,TP10,Right AUX
1740794941.5450294,0.5250511789582802,-0.5704961572731024,-0.13896828419972573,-0.12361536021336825,nan
1740794941.5489354,0.4887433103090429,0.09401443462188236,-0.13545531117993617,-0.14038325228894202,nan
1740794941.5528412,0.35557817007850057,0.5227431946746635,-0.2543390938184055,0.00019548522443992022,nan
1740794941.5567472,0.18703015855612895,0.3220449950702678,-0.24378388092562572,0.2042335516196904,nan
1740794941.560653,-0.08137053904098317,-0.1910431924944378,0.06166874501039989,0.27006903524708326,nan
1740794941.564559,-0.4319478493228212,-0.3977973684850521,0.49183324037910653,0.1109385329665167,nan
1740794941.568465,-0.6495341700342154,-0.07303734029927038,0.6818289373537086,-0.1317881455833998,nan
1740794941.5723708,-0.5098136342546502,0.41418794150684857,0.4611271062502121,-0.23673813009587222,nan
1740794941.5762768,-0.062437646702601886,0.5540521274403022,0.02690680286596685,-0.14446154336387937,nan
1740794941.5801826,0.3613416938343914,0.23410862510459202,-0.30071006871584377,-0.006123381220206052,nan
1740794941.5840886,0.46372047347210604,-0.21919138027637922,-0.4190057601316204,0.012555054858996455,nan
1740794941.5879943,0.2636530627499841,-0.44896205487891333,-0.45040212739402985,-0.07239368463063163,nan
1740794941.5919063,0.02740472634653039,-0.4027077987958077,-0.4500676722064537,-0.10036710847292173,nan
1740794941.5958123,-0.04791772977084446,-0.25678565462898373,-0.26340149064709373,0.023227601733020343,nan
1740794941.599718,-0.011567444716274494,-0.12528774160953352,0.21885633780640787,0.20720407512126748,nan
1740794941.603624,-0.017330381036653186,0.04519819178645903,0.7403499290496016,0.28124654023250045,nan
1740794941.6075299,-0.09062907594597136,0.30164902681000044,0.8009709388029642,0.18424057590276235,nan
1740794941.611436,-0.11578565122720606,0.5139472990322607,0.19970562723236326,0.010110362066775597,nan
1740794941.6153417,-0.0314391783560847,0.4652791364883477,-0.6213994059550592,-0.11671657114687913,nan
1740794941.6192477,0.05933218856686329,0.10882695776376382,-0.9222561482974062,-0.16289934810208204,nan
1740794941.6231534,0.02559651456508413,-0.3239175281859973,-0.4063278980296907,-0.1705638415749055,nan
1740794941.6270595,-0.0989721617730175,-0.5094300160203208,0.4465871340271119,-0.16465082666689929,nan
1740794941.6309655,-0.14449758396853488,-0.3264038762614115,0.8515276470417035,-0.12396224636652474,nan
1740794941.6348712,-0.030007835119958144,0.039759210717763074,0.4985760714169244,-0.03805555759428842,nan
1740794941.638783,0.11772666607857246,0.274053176879828,-0.19037978849393852,0.05572639116154457,nan
1740794941.6426888,0.12432052896610084,0.20914111009827782,-0.561014254500616,0.11732484411387767,nan
1740794941.6465948,0.003283820696280415,-0.04822119341860643,-0.3900292507454208,0.15670690827226413,nan
1740794941.6505008,-0.053071862506132744,-0.23393173873387205,-0.009468518984755392,0.20150847155943238,nan
1740794941.6544065,0.06809767155280128,-0.1682095533777921,0.1479105114088297,0.22044961042691757,nan
1740794941.6583126,0.2282783438687991,0.08754357617401304,0.005351075194217352,0.13114417450749832,nan
1740794941.6622183,0.1936738242057866,0.29154603726836525,-0.1708572032711431,-0.08384121051830117,nan
1740794941.6661243,-0.06324193991820243,0.24978925126300883,-0.1303233953612113,-0.29786536410643516,nan
1740794941.67003,-0.3038892006338739,0.0054582714677046335,0.11538485829817885,-0.3329240169613936,nan
1740794941.6739361,-0.29714661639252704,-0.20102709231525825,0.3729917871672654,-0.1502412801203201,nan
1740794941.677842,-0.09072320442548408,-0.17907743527489603,0.4755305918208172,0.08365921090014135,nan
1740794941.681748,0.06125207139170159,0.008118590739098203,0.3626416566200733,0.15636263066156164,nan
1740794941.6856592,0.022224406984294114,0.1163915762304491,0.04447543054927678,0.031172770401457817,nan
1740794941.689565,-0.0647587088895263,0.008740650101150563,-0.39054948098100734,-0.11747896163259713,nan
1740794941.693471,0.016586762101059464,-0.16943433593790164,-0.7252263560318193,-0.09590781096648852,nan
1740794941.6973767,0.24899262419287524,-0.1568268146157985,-0.6932772922516948,0.10431629068732462,nan
1740794941.7012827,0.3754159014262961,0.08786901405131751,-0.22600681225095465,0.30692394566188247,nan
1740794941.7051888,0.21193307404583464,0.2913360065118575,0.3874284345035825,0.33442139689770806,nan
1740794941.7090945,-0.11235353392082462,0.16913616172097312,0.6867866674279786,0.16355638187692728,nan
1740794941.7130005,-0.2941141876658192,-0.20498763604508952,0.46203650723016454,-0.0899320131922393,nan
1740794941.7169063,-0.20476224939512794,-0.42505004028059984,-0.024604956494862534,-0.293079753664214,nan
1740794941.7208123,-0.020928760996977675,-0.1948498418878623,-0.2869003899373366,-0.374970631693363,nan
1740794941.724718,0.0133366116287662,0.30800119971800394,-0.0994045003991762,-0.3194202669955963,nan
1740794941.728624,-0.11496261433815436,0.5903671162951896,0.28474108681374016,-0.14424580158741368,nan
1740794941.732535,-0.19535944774905994,0.369809516902399,0.4044144123897368,0.08518954116127075,nan
1740794941.736441,-0.07622419275550246,-0.12941287676713412,0.05780996770340039,0.25826691620459435,nan
1740794941.7403467,0.14718051022384968,-0.44612872601369497,-0.5034915068591852,0.2882717121460765,nan
1740794941.7442527,0.2648344818767361,-0.3856283812047525,-0.8123565309652345,0.19248841988773732,nan
1740794941.7481585,0.21227765067022503,-0.16287634824676717,-0.594156827383429,0.07716487649711418,nan
1740794941.7520645,0.11904725466545535,-0.05631611754406577,0.020953744642494377,0.024742825158633554,nan
1740794941.7559702,0.10196712122526719,-0.04950419913605467,0.6161694671106756,0.0118785630618297,nan
1740794941.7598763,0.09730658329987722,0.0775548589330922,0.8000762562352044,-0.0398040851061756,nan
1740794941.7637823,-0.037379080559199904,0.35620461755238586,0.48132941485783054,-0.14445906101303807,nan
1740794941.767688,-0.29007996276362386,0.49648408549914713,-0.0677462277831398,-0.21976301498885148,nan
1740794941.771594,-0.45116408531520974,0.2386665224007434,-0.4117252005617706,-0.1862367726333435,nan
1740794941.7754998,-0.33826828071740767,-0.24899487078327365,-0.3034180669399781,-0.0694592014153914,nan
1740794941.7794104,-0.01702752050546168,-0.4816354419950487,0.08615940192555883,0.029570262947139516,nan
1740794941.7833164,0.25745993973575376,-0.2095697840560822,0.30463906770409854,0.057471471209136794,nan
1740794941.7872221,0.308456038613269,0.25150721184797487,0.05872974656823593,0.06250044689945515,nan
1740794941.7911282,0.1948499051007889,0.35501418622705017,-0.45408325989729753,0.10967053167139676,nan
1740794941.795034,0.091512662607395,-0.03972253266347506,-0.7035620225019504,0.17512054232126867,nan
1740794941.79894,0.07044457118184455,-0.489498774114156,-0.3674226179452199,0.16847669150179653,nan
1740794941.802846,0.05555651973029759,-0.47745557256707477,0.30562627145928223,0.059137197312030126,nan
1740794941.8067517,-0.02691511910814002,-0.009152842638483528,0.7302453841659808,-0.06487627634381067,nan
1740794941.8106577,-0.12983089128730524,0.4148390352914815,0.5857240537134727,-0.09603223748328771,nan
1740794941.8145635,-0.15542463806619916,0.40066737193651086,0.1218936574994941,-0.04444779686010336,nan
1740794941.8184695,-0.10016042802931759,0.09672558699600264,-0.16802271722289802,-0.03090400594355077,nan
1740794941.8223753,-0.06220605220685291,-0.05127124639813721,-0.11178573517204823,-0.13111883956569245,nan
1740794941.8262856,-0.0983102611493035,0.11202753820141247,0.007278450740149645,-0.2615209508975519,nan
1740794941.8301916,-0.1314182678881418,0.27021909998406907,-0.12032682087900497,-0.2559062052761369,nan
1740794941.8340974,-0.04606765170086055,0.07604257314420197,-0.39742938884344237,-0.05123832419341822,nan
1740794941.8380034,0.14690229536255195,-0.36324865498045217,-0.4397683265333797,0.2323830609757072,nan
1740794941.8419092,0.2956682632848137,-0.5859347014714326,-0.09616958944534751,0.40497394681333765,nan
1740794941.8458152,0.27114104302492703,-0.3427881882581305,0.30754829283739593,0.3769424377272178,nan
1740794941.849721,0.1072323246334151,0.08568823415728846,0.34325562754658323,0.20433626154222828,nan
1740794941.853627,-0.051470861567067434,0.23005731152042735,0.023529682765916406,-0.0050978831825916286,nan
1740794941.857533,-0.11647107016421349,0.01258730759066651,-0.18510725587478075,-0.18550032577429487,nan
1740794941.8614388,-0.12391446654721781,-0.15734614418638682,0.06311633142162784,-0.309570773183764,nan
1740794941.8653448,-0.13860346036651436,0.09824358036961443,0.5227892558123046,-0.34278871226614177,nan
1740794941.8692505,-0.14690782107560532,0.6226600420055255,0.5960207960534276,-0.25343404451272844,nan
1740794941.8731654,-0.09011856790393646,0.8519399934947742,0.03512247285102875,-0.06929432093467355,nan
1740794941.8770714,0.020044289903052653,0.4322143065647674,-0.717112902375691,0.11555359290653242,nan
1740794941.8809774,0.08403921885588875,-0.384127797490808,-0.9673483141690427,0.2163199847601037,nan
1740794941.8848832,0.038647320762915584,-0.9912653598319923,-0.49672956401540863,0.2263974684593453,nan
1740794941.8887892,-0.041952066540206966,-1.007600277280012,0.24403467328881398,0.19243491860645678,nan
1740794941.892695,-0.020599780778333784,-0.5436371488175371,0.6466351717289817,0.1371376901718238,nan
1740794941.896601,0.1291774288545948,0.03662452533214182,0.5385479157696536,0.043069183628770095,nan
1740794941.9005067,0.2697623258420383,0.47873921505618705,0.21545163559658664,-0.08268126431158357,nan
1740794941.9044127,0.24501050278447736,0.7184325365452088,-0.0075984090443433645,-0.1707903110429465,nan
1740794941.9083185,0.05351518752602852,0.7294429685671596,-0.11347275948857383,-0.1571992256150465,nan
1740794941.9122245,-0.15743801312519187,0.46861441729855663,-0.23034984309503784,-0.07519887314939219,nan
1740794941.9161305,-0.2589927040794587,0.01327703909120111,-0.32314456062997016,-0.03065696508447431,nan
1740794941.9200425,-0.2563490081951577,-0.3723908785870585,-0.20788867089653504,-0.06637645341396857,nan
1740794941.9239485,-0.22389962118119355,-0.4456792050428095,0.13026053638424218,-0.09124608743652703,nan
1740794941.9278543,-0.1728692067008659,-0.26113794816386166,0.39346223659712354,0.007366573333763777,nan
1740794941.9317603,-0.04260812846454474,-0.13146427398659938,0.2700290185987924,0.19132112340045954,nan
1740794941.935666,0.1758618576443966,-0.2502508885277584,-0.1627407578213971,0.2739084584984717,nan
1740794941.939572,0.36637289638089465,-0.41646249493239884,-0.46236957374736515,0.13201393755351842,nan
1740794941.9434779,0.3854818289343598,-0.24189499407798995,-0.298423469525273,-0.1183420672207726,nan
1740794941.9473839,0.22045602617285232,0.34841764095595834,0.16578548586476258,-0.22196917180444206,nan
1740794941.95129,0.005409955628047836,0.9133453164276313,0.4480660880906097,-0.07268431057304121,nan
1740794941.9551957,-0.12897255339282468,0.8873094643587869,0.281678753036256,0.1498586554229941,nan
1740794941.9591017,-0.1827867816979205,0.1826265526065007,-0.1100983116870534,0.1772204440944581,nan
1740794941.9630075,-0.2350338990759493,-0.6562572899182143,-0.29688858542009106,-0.034905326856043015,nan
1740794941.9669194,-0.2942907425760593,-0.94049930185008,-0.123938826282795,-0.2502265956664386,nan
1740794941.9708254,-0.26243239077942,-0.47586558278699725,0.1597849969181478,-0.22597158450057508,nan
1740794941.9747312,-0.0694979549225653,0.28396716313814085,0.2251595491299801,0.0060963968722756775,nan
1740794941.9786372,0.19653164437631915,0.6857201981086091,0.01941835660084225,0.18523747280595668,nan
1740794941.982543,0.34738132138168415,0.45204740519043357,-0.23238611527164843,0.1333385562176453,nan
1740794941.986449,0.28622453746400894,-0.14441050500782276,-0.30490077817662203,-0.04444892072478878,nan
1740794941.990355,0.10541127777911279,-0.5864712104042044,-0.16707571186630993,-0.1029480379344202,nan
1740794941.9942608,-0.026003311009512774,-0.5488920941616742,0.07329443130053585,0.04168146988942588,nan
1740794941.9981668,-0.04501874711668658,-0.10035263689367459,0.30400366189962286,0.2168125937234386,nan
1740794942.0020726,-0.03138005817920633,0.4105074389801871,0.4277429538535288,0.20416852184917839,nan
1740794942.0059786,-0.07362580582602404,0.6262724604646477,0.32841478106599065,-0.008942009679674382,nan
1740794942.0098844,-0.14820265375696634,0.4144344877519409,-0.0437638455968006,-0.22748995562885302,nan
1740794942.0137959,-0.1603386361414965,-0.05600729964345019,-0.5142559892624016,-0.26976921022974815,nan
1740794942.0177019,-0.07805669716694773,-0.4344025193777715,-0.7130070412999063,-0.1385964113411781,nan
1740794942.0216076,0.02209066248045253,-0.4462443063370291,-0.3887645264778475,0.028010397659364764,nan
1740794942.0255136,0.052249521228078286,-0.11271083483110532,0.2816150072863087,0.11905958997254386,nan
1740794942.0294194,0.020724223708437906,0.2627765548045636,0.7766646290088824,0.12363669178281077,nan
1740794942.0333254,0.012296559349356027,0.357868471866669,0.6962600110469709,0.07749788646493398,nan
1740794942.0372314,0.07435239518560557,0.11499638452079101,0.14299926644001357,0.007661242711226481,nan
1740794942.0411372,0.15658314549396676,-0.22684312080972627,-0.3951934464602306,-0.05168665318005266,nan
1740794942.0450432,0.17139771522177824,-0.3772982089307831,-0.5353913138085374,-0.045077594974887336,nan
1740794942.048949,0.08848700067505101,-0.2570240837496132,-0.33015798725088935,0.04368669159138255,nan
1740794942.052855,-0.047677498849346765,-0.016200564507376915,-0.10758194262620692,0.13017164520369714,nan
1740794942.0567608,-0.17282143854267057,0.16817547119907633,-0.05524983202432295,0.09258246400879616,nan
1740794942.060672,-0.2425447636177905,0.2587512728236273,-0.04453663645393859,-0.0748017680954462,nan
1740794942.0645778,-0.223250242932016,0.3126374884305365,0.13314354292007582,-0.2143950822300657,nan
1740794942.0684838,-0.09155380806069047,0.3280734595173701,0.4420701919992396,-0.16618160924579276,nan
1740794942.0723896,0.11984205656915244,0.21112634370679,0.5936560978925738,0.032045096950204036,nan
1740794942.0762956,0.2926748807970058,-0.0832601027219846,0.36143720621115566,0.16404627243869796,nan
1740794942.0802014,0.29151550148866023,-0.4226289834678126,-0.14951216823985247,0.08287292126077425,nan
1740794942.0841074,0.09264662090986327,-0.5688823971404835,-0.5784928287269665,-0.10347818853494635,nan
1740794942.0880134,-0.16842260280785018,-0.39898587986998235,-0.636446371866851,-0.15079321016338174,nan
1740794942.0919192,-0.30437496807932163,-0.03644392640582118,-0.34067925967488843,0.02461967385608257,nan
1740794942.0958252,-0.23589287795417405,0.25517630172334366,0.04822470469747664,0.23264021329696272,nan
1740794942.099731,-0.03785925470842171,0.3095653568528967,0.27614026693941307,0.22904690682839135,nan
1740794942.103637,0.15881626083193628,0.1876653326343643,0.27885628144680785,0.00678616747058672,nan
1740794942.107548,0.27724610558630886,0.08510689747331536,0.17001091539125798,-0.19692641115453485,nan
1740794942.111454,0.29884063208471207,0.12553162959788816,0.09944426107370416,-0.1838225653809281,nan
1740794942.1153598,0.20479321127341224,0.24149754237635043,0.12217009027150949,-0.017100720308005444,nan
1740794942.1192658,-0.02155519388030182,0.24424207030217707,0.1668771126749736,0.08258566865490241,nan
1740794942.1231716,-0.31733295878033635,0.012068457189985149,0.11138487700879054,0.018873588269840102,nan
1740794942.1270776,-0.514355994971508,-0.36774127468483647,-0.0922655685779979,-0.08232665826269289,nan
1740794942.1309834,-0.45243676071698136,-0.6322918376860114,-0.3437263023851188,-0.06599995340371395,nan
1740794942.1348894,-0.13485155294132775,-0.5461966397373503,-0.4544844768237321,0.04060983321826869,nan
1740794942.1387951,0.25356667052202986,-0.12004614784306364,-0.313470950632851,0.08072660772781921,nan
1740794942.1427011,0.49896938955653325,0.35803301299014134,-0.004336611111633041,0.002268529974878478,nan
1740794942.1466072,0.5169319974452,0.5458089314101866,0.26069081675943606,-0.05709103492109885,nan
1740794942.150513,0.3577163666845488,0.35002758249173616,0.337682784128963,0.03779216693526814,nan
1740794942.1544237,0.09917095225699793,0.014239008843390787,0.2677330939046227,0.20606485858016463,nan
1740794942.1583295,-0.20564740473773585,-0.12478537727911902,0.183228436398197,0.21990078079691752,nan
1740794942.1622355,-0.4725091619906407,0.016743780534561655,0.12485763298864043,-0.007484676772093709,nan
1740794942.1661413,-0.5546397612275822,0.1903976533194489,0.0070120514767430375,-0.2820470420658591,nan
1740794942.1700473,-0.35240076794977354,0.10635654302430171,-0.21724606620326578,-0.3343794835691784,nan
1740794942.1739533,0.03621734222179223,-0.219605314635023,-0.4134194744535206,-0.1290205149568093,nan
1740794942.177859,0.34054734998119174,-0.46404737221134806,-0.36760222241652774,0.10433127033729633,nan
1740794942.181765,0.352971598798237,-0.3576940204225343,-0.049348200691951914,0.152648735193412,nan
1740794942.1856709,0.13483250802809799,0.0011916722389533618,0.28872068192860506,0.05713621628873034,nan
1740794942.1895769,-0.053439389582293835,0.2550712714731456,0.34187486387100774,0.01621157248746025,nan
1740794942.1934826,-0.03427721170468385,0.19763316724537064,0.08335318690708225,0.1000574319373931,nan
1740794942.1973886,0.11228483200685493,-0.0012456955969565636,-0.1916787734063043,0.16009543715435104,nan
1740794942.2013016,0.17448020856273583,-0.028684480915613576,-0.1831929330091466,0.04873244085154775,nan
1740794942.2052073,0.06662019263727441,0.16592560057435457,0.08537007094113586,-0.15232520575243505,nan
1740794942.2091134,-0.09714180122638792,0.30113275602686645,0.3024266135953392,-0.21200766637146168,nan
1740794942.2130191,-0.17893536720616615,0.12918094808037583,0.22318634091157719,-0.04608086143690865,nan
1740794942.2169251,-0.18828177750716074,-0.2148552931927995,-0.06764728901535581,0.15717732723428682,nan
1740794942.2208312,-0.21919508054388498,-0.33864913735120844,-0.27632196629500005,0.1569514916778355,nan
1740794942.224737,-0.25785315851212576,-0.0731137891834751,-0.23852010782689337,-0.04653739282401847,nan
1740794942.228643,-0.15593507530518672,0.2766825378955699,-0.07176237959295229,-0.21638897504201562,nan
1740794942.2325487,0.15646631321651938,0.25319613366514293,0.011759154511760541,-0.1722504231365782,nan
1740794942.2364547,0.4940993562018147,-0.20472747017375195,-0.027370671958235473,0.003557238380148293,nan
1740794942.2403605,0.551366325526194,-0.6376929215687828,-0.03744606378461894,0.1007695277762718,nan
1740794942.2442665,0.23738105828228961,-0.5462358517706445,0.09654407327063382,0.0632909126453364,nan
1740794942.248179,-0.18787161479687628,0.05440653504485553,0.28352316772771763,0.040366864532320496,nan
1740794942.2520847,-0.3702861394316459,0.6382326046700186,0.3250175109619435,0.1458442493542766,nan
1740794942.2559907,-0.2323352421520712,0.7258148771718768,0.14669840346261037,0.2617422476944292,nan
1740794942.2598965,-0.025697549722750908,0.359616831306952,-0.12380738006537866,0.17027240801702695,nan
1740794942.2638025,-0.009312702756351043,-0.021963688097623436,-0.3070871106309296,-0.14086179040692062,nan
1740794942.2677083,-0.1470464000593327,-0.12068060253477499,-0.343249731620919,-0.404433722590173,nan
1740794942.2716143,-0.18612630684163484,-0.07731309629987035,-0.2837468407039958,-0.356867710722338,nan
1740794942.27552,-0.0011166730098090083,-0.2074442726489483,-0.16030551174763277,-0.046533857405706903,nan
1740794942.279426,0.23646002405100103,-0.5352939888400083,0.058332266946439476,0.2129402659598282,nan
1740794942.283332,0.2728229023525811,-0.711709323181063,0.3559379547628935,0.19371314075677726,nan
1740794942.287238,0.09221349218835898,-0.4186310804902275,0.5740945065390235,-0.009481034460891723,nan
1740794942.291144,-0.06574622957751658,0.22706034365526687,0.5059154201450835,-0.12357335192962096,nan
1740794942.2950559,-0.012318224613063625,0.7505451769370269,0.11053674442510426,-0.022210247495553403,nan
1740794942.2989619,0.14978963798904105,0.7874894677996016,-0.3939298732830871,0.16195385647317906,nan
1740794942.3028677,0.15626717689088337,0.4142733905505598,-0.6842222986591624,0.2339474002227771,nan
1740794942.3067737,-0.08057292543638159,0.0007483844503382901,-0.5890043764907644,0.15838771185624353,nan
1740794942.3106794,-0.3462561235037636,-0.19713381833142832,-0.20322907855007513,0.039519100986076555,nan
1740794942.3145854,-0.3653910879899202,-0.23190006196153967,0.22121811539441977,-0.05838731643126775,nan
1740794942.3184915,-0.11440173099078249,-0.280205951389204,0.4706093488578705,-0.17288572662103877,nan
1740794942.3223972,0.1639299019472864,-0.3680116447557808,0.4771791729563265,-0.31405831247800875,nan
1740794942.3263032,0.24044893436754758,-0.35201773588081386,0.30147524424835115,-0.3651736718411195,nan
1740794942.330209,0.1280481487209151,-0.14403744553623635,0.061836146836197224,-0.19848652441423292,nan
1740794942.334115,0.010370144777946871,0.13702056173052024,-0.1300517135593506,0.12702167028586508,nan
1740794942.3380208,0.0025749935907532127,0.2845162271308514,-0.22035436519460624,0.37040877728167904,nan
1740794942.3419328,0.05006175685681612,0.2376497663942649,-0.2362364486944413,0.3537585918549416,nan
1740794942.3458385,0.05261063021879851,0.13362961718016086,-0.2431913638134322,0.15722615304755366,nan
1740794942.3497446,0.009498672439738988,0.12064391123058144,-0.25223869269627236,0.013111396042981243,nan
1740794942.3536503,-0.008303091410174325,0.17372040714513912,-0.18065768609768817,0.024379336512334714,nan
1740794942.3575563,0.009525728614976935,0.1428673577663657,0.053264617234987814,0.060373810213833395,nan
1740794942.361462,-0.015412333265637767,-0.034985590365059764,0.38049793965644646,-0.04400705196359388,nan
1740794942.3653681,-0.1271109273250499,-0.23378876677041613,0.5663586835425424,-0.2509928255589613,nan
1740794942.3692741,-0.2386458853145477,-0.2794785597328796,0.4053406591052663,-0.3554844615175081,nan
1740794942.37318,-0.212449513672408,-0.1612668954818754,-0.04758349621446547,-0.24382553859992276,nan
1740794942.377086,-0.026865845319190156,-0.04731836993849226,-0.469962249215649,-0.03360414885597859,nan
1740794942.3809917,0.18467626337031584,-0.07606092030085232,-0.5375926328198274,0.08650376304208326,nan
1740794942.3848977,0.2737541785075028,-0.17388328580657758,-0.21582481484114568,0.09721126023120609,nan
1740794942.3888094,0.22045005042678417,-0.1303977641198805,0.212562944092348,0.14354609838919336,nan
1740794942.3927152,0.11303477815048492,0.14118604267161108,0.40470045048786274,0.29187850500731916,nan
1740794942.3966212,0.018978618700233436,0.4619100960512894,0.24238713299446196,0.38762838088021595,nan
1740794942.400527,-0.0686816282388716,0.5455272158439197,-0.10859653030725913,0.23151728057987572,nan
1740794942.404433,-0.15675555257250692,0.2967861569685743,-0.3692354411195008,-0.13502988432624277,nan
1740794942.4083388,-0.18965115093877216,-0.08217944188173326,-0.3568185296567512,-0.4164864178420829,nan
1740794942.4122448,-0.11594305274641357,-0.3026547369813214,-0.07782894258424856,-0.37531128488313614,nan
1740794942.4161506,0.007153027980648552,-0.2855752868022996,0.2998893861132389,-0.10283790464873105,nan
1740794942.4200566,0.047552736248151074,-0.21091755561088787,0.5360038477903144,0.08740922686478331,nan
1740794942.4239626,-0.035708314751038306,-0.2668433364621989,0.445654804406542,0.02324233886246012,nan
1740794942.4278684,-0.11065215594904715,-0.39261679244436,0.04109057838184075,-0.14094137032874862,nan
1740794942.4317744,-0.018154841527842875,-0.3260100047341486,-0.41995306432240204,-0.1311317571545807,nan
1740794942.4356854,0.2085110543444031,0.07900103357686583,-0.5908426789389917,0.10982066799008845,nan
1740794942.4395914,0.33787172610898314,0.6200754735983344,-0.3297449031990312,0.35971030738806314,nan
1740794942.4434972,0.1950780749197245,0.8824730628886809,0.13790060087025677,0.380591410921594,nan
1740794942.4474032,-0.11338968741529784,0.6262633927116616,0.3969521975130972,0.1731408027992259,nan
1740794942.451309,-0.29254337604434294,0.024462457561606133,0.2338982223234274,-0.06567472302027154,nan
1740794942.455215,-0.18364390829850444,-0.49613148543746255,-0.14628919579315855,-0.18409641369466537,nan
1740794942.459121,0.057537217903176646,-0.6395909965423555,-0.32291128685285186,-0.20129340156562356,nan
1740794942.4630268,0.14521724576206235,-0.45647426178482114,-0.09046737718907191,-0.19990298759029868,nan
1740794942.4669328,-0.005754717594381296,-0.20465557631168155,0.32891501408719837,-0.1810004123078408,nan
1740794942.4708385,-0.19425084186382013,-0.055374217074147004,0.5130986346371846,-0.08971306647423719,nan
1740794942.4747446,-0.18401728661178218,0.027894924618769135,0.26333830699329014,0.051354869428560636,nan
1740794942.4786503,0.019900973330035175,0.1529483148778862,-0.21399059821031266,0.12376010901865875,nan
1740794942.482561,0.19550564273363766,0.3175367058746427,-0.5270104674553409,0.061826661856201975,nan
1740794942.4864671,0.17741554196237053,0.40463504821000046,-0.46067873478916194,-0.03479209722262122,nan
1740794942.4903731,0.0356299333841855,0.3275430317893708,-0.12118274334648307,-0.002328026157717823,nan
1740794942.494279,-0.0414712486656285,0.124691724494741,0.2205946088255905,0.1779767408690301,nan
1740794942.498185,0.013628185707161606,-0.0968687356841019,0.36725675652380174,0.3294481889529625,nan
1740794942.5020907,0.0888973452707163,-0.2649992183734006,0.2883771274786738,0.26748380162691626,nan
1740794942.5059967,0.06199668152386958,-0.35726345896479056,0.06324066397217865,0.005529279915273485,nan
1740794942.5099025,-0.043968726632589855,-0.34921513586809083,-0.19081456766186786,-0.2632166453547346,nan
1740794942.5138085,-0.11434502014067933,-0.21700113896677883,-0.34091977365788384,-0.3723257965678039,nan
1740794942.5177143,-0.1089730828673821,-0.00694993402896301,-0.2732809580674441,-0.32216661993531126,nan
1740794942.5216203,-0.1018704876332656,0.15857528049586672,0.019223309329750533,-0.21026854691014987,nan
1740794942.5255263,-0.14562921329730824,0.20469804971330074,0.37852219676698023,-0.0836486927937151,nan
1740794942.5294368,-0.16268804740018275,0.2094032985139115,0.5582304152294422,0.08182232869890904,nan
1740794942.5333426,-0.03381754075920682,0.3033167971792424,0.40417001409506953,0.2731401118578019,nan
1740794942.5372486,0.21894964172680345,0.43742805675485963,-0.023460453214546345,0.38591340810140784,nan
1740794942.5411544,0.40355550474428437,0.3390066987405472,-0.4972397126831221,0.3227218280981418,nan
1740794942.5450604,0.34752202317627034,-0.18175568964950733,-0.7767401908220617,0.11815920462714173,nan
1740794942.5489662,0.08884139338264498,-0.8732050880549591,-0.7246227454974861,-0.08284863760368605,nan
1740794942.5528722,-0.1621339608409234,-1.1220292327861525,-0.33047227962293724,-0.17286714323184688,nan
1740794942.5567782,-0.24433042790341863,-0.5341127787594561,0.2939110654931721,-0.17010378684792624,nan
1740794942.560684,-0.18919319529440687,0.5550008269005854,0.9051484826561266,-0.14956720357887957,nan
1740794942.56459,-0.13326407483388886,1.2700228227674608,1.1736023320952378,-0.13232529563816603,nan
1740794942.5684958,-0.13341573002324988,1.0053985181538112,0.8584586863115875,-0.08737635736538847,nan
1740794942.5724018,-0.1180687929904809,0.03971368324113964,0.029063980503424968,-0.020901967031772502,nan
1740794942.5763118,-0.013798187181133056,-0.7315386651939743,-0.8862321520085082,0.004915212663960247,nan
1740794942.5802178,0.13590502224100182,-0.6978397777961487,-1.3445243618679978,-0.030118903091159506,nan
1740794942.5841236,0.2143536590011547,-0.11086906038713805,-1.070671989349564,-0.03801887320206407,nan
1740794942.5880296,0.17164506238183272,0.2751682027237839,-0.2582268786123247,0.08112770810436191,nan
1740794942.5919356,0.077786134801041,0.06978694189476169,0.5858292344650771,0.2815450737427036,nan
1740794942.5958414,0.030652774816699445,-0.36208566699406447,1.0096696297793235,0.37651544349625016,nan
1740794942.5997474,0.04511100625307082,-0.3916633172627818,0.886205693652993,0.23998537721036783,nan
1740794942.6036532,0.0552297686940123,0.11063273746185212,0.403318292799556,-0.03339331001411826,nan
1740794942.6075592,0.004376530055478995,0.6319842729836581,-0.13855353752420166,-0.22609834197823817,nan
1740794942.611465,-0.0995792645103519,0.6252164778350531,-0.5099897628032101,-0.24687826451055617,nan
1740794942.615371,-0.21098563240167337,0.12495913011413382,-0.6072280530301505,-0.21517100300660208,nan
1740794942.6192768,-0.28609542430475365,-0.33549267832339424,-0.4309381662550486,-0.2660202385931596,nan
1740794942.6231892,-0.27931567603144636,-0.357924675490367,-0.07702849975304435,-0.33207711261314443,nan
1740794942.6270952,-0.141161944530597,-0.08964142538028279,0.267268681082567,-0.20849173849368322,nan
1740794942.631001,0.12357974161974979,0.03796372763823344,0.3954999228919759,0.15783137127693547,nan
1740794942.634907,0.39250013909070786,-0.1342419413110082,0.22794359618069504,0.528649493920436,nan
1740794942.6388128,0.4779053182965578,-0.3296296881026024,-0.08930522269082135,0.5962192181596746,nan
1740794942.6427188,0.29671598665247795,-0.220216332645605,-0.2684610835292932,0.3210380635151136,nan
1740794942.6466246,-0.017191399781285182,0.15587965183224725,-0.12716581666794194,-0.026611110186744214,nan
1740794942.6505306,-0.2170073076935888,0.4496691737444984,0.2124482101980629,-0.1773632110376774,nan
1740794942.6544363,-0.18448993234512825,0.41773757166201614,0.3946518858589894,-0.14550073213333917,nan
1740794942.6583424,-0.04696355306548209,0.16688403883779485,0.16062417287303798,-0.14583323580159177,nan
1740794942.6622484,-0.026529471479275528,-0.03706991518163255,-0.35335027593121593,-0.27558268591986607,nan
1740794942.6661541,-0.18340190839582837,-0.09925549451473178,-0.6747270230395641,-0.3825827097629276,nan
1740794942.6700664,-0.34437991376753097,-0.13901163213114376,-0.4226333242230452,-0.2808005212399669,nan
1740794942.6739721,-0.2960104366083409,-0.24293351254873405,0.277554753129835,-0.011548670112336616,nan
1740794942.6778781,-0.0183905019962632,-0.305775141697775,0.8349465751833528,0.20389244658978456,nan
1740794942.681784,0.29917808996586615,-0.18442582017334053,0.7211355061688598,0.25082410146547535,nan
1740794942.68569,0.45536738268866517,0.06153970271771171,0.001660991466700378,0.24876534139426637,nan
1740794942.689596,0.40782652340130415,0.19925255592674015,-0.683248136213227,0.3380636731352886,nan
1740794942.6935017,0.24700725100377396,0.11243728761783518,-0.7222355743789101,0.4219633514637527,nan
1740794942.6974077,0.05694554244135266,-0.027199547532151536,-0.13725323530692904,0.24979175185362326,nan
1740794942.7013135,-0.14186824394761677,0.04115214965778963,0.4403668406167952,-0.22225063520038885,nan
1740794942.7052195,-0.32351259316332376,0.3198874860679752,0.421283207205231,-0.6634732928322363,nan
1740794942.7091253,-0.403420573921206,0.49182457545467206,-0.1310729396105455,-0.6684954747989629,nan
1740794942.7130313,-0.31004549879481397,0.252581459294885,-0.5740516998334451,-0.21137647797450648,nan
1740794942.716943,-0.0950748056459984,-0.32715155640246657,-0.36878211546702366,0.2915930553547602,nan
1740794942.720849,0.0840292935057308,-0.8176663562611266,0.3496528639035182,0.4112972266596229,nan
1740794942.7247548,0.1196618028415299,-0.8117341514938156,0.9087175757345646,0.14093733955627402,nan
1740794942.7286608,0.06852989497604264,-0.2783128680158428,0.7765076163318083,-0.15214988773714913,nan
1740794942.7325666,0.07788045201227717,0.4329597942668212,0.06182506686418835,-0.16592538351434424,nan
1740794942.7364726,0.20194565976842782,0.8799761634933024,-0.6474446484247408,0.03948023066306886,nan
1740794942.7403784,0.32498856724775776,0.8191216951368814,-0.8696615721134708,0.19799595644022097,nan
1740794942.7442844,0.2841713956194325,0.30809932692621184,-0.6051276860963195,0.1881855406853478,nan
1740794942.7481902,0.05223679562085251,-0.3603364342771854,-0.18488911209707343,0.1271722862728056,nan
1740794942.7520962,-0.2234972745820124,-0.8088254830849203,0.1292564599591644,0.14021960904502825,nan
1740794942.7560022,-0.3599155029993761,-0.7698202901253605,0.32447975540950774,0.1586672444995019,nan
1740794942.759908,-0.2986185712363067,-0.263171524290607,0.47988751942184943,0.01974429572346586,nan
1740794942.7638218,-0.13235182043408264,0.3808216132188901,0.5613445584232776,-0.28542048356388944,nan
1740794942.7677279,0.0002555751297932321,0.7372674418567243,0.44428475725171684,-0.5560830351991178,nan
1740794942.7716339,0.030380521484494903,0.6044365940319745,0.10293534000548683,-0.5832381485695204,nan
1740794942.7755396,-0.008489302933089108,0.14139169012828312,-0.2996725155473174,-0.34143327481728447,nan
1740794942.7794456,-0.027898086131767686,-0.3036138295800216,-0.5352788388195038,0.04063845863722694,nan
1740794942.7833514,0.04119533642040865,-0.4900699273935846,-0.4977951933496197,0.4237401089316243,nan
1740794942.7872574,0.19100554246863283,-0.4151777797281466,-0.26069315563426454,0.6990945875566595,nan
1740794942.7911632,0.3284191473716611,-0.20623875033605746,0.011831456131910943,0.738871595191446,nan
1740794942.7950692,0.336006809580936,0.03088407507955157,0.1794138580238155,0.4487592859879292,nan
1740794942.798975,0.17355228925437483,0.23178096321904335,0.18723222140104034,-0.0633891299914987,nan
1740794942.802881,-0.07092234588932335,0.3206912249320825,0.08510523429709317,-0.465649717538248,nan
1740794942.806787,-0.25073296399560985,0.24189803799679693,0.005186079635438016,-0.4874961661473787,nan
1740794942.810698,-0.2966094187811704,0.05949330499949107,0.06408516320676584,-0.23791557046222106,nan
1740794942.814604,-0.27157774554704645,-0.056942023732363546,0.2309277482756293,-0.11764299825940809,nan
1740794942.8185098,-0.27299383868565696,-0.015886529060492642,0.3149455305785352,-0.3346930178823471,nan
1740794942.8224158,-0.2929118893376292,0.06150071431233252,0.15464913728279236,-0.5897027730286188,nan
1740794942.8263216,-0.21300940764862766,-0.021695970709109284,-0.16472656668262012,-0.38793759220553414,nan
1740794942.8302276,0.045742636158864924,-0.25382345614757185,-0.35291507347004314,0.32437645815140664,nan
1740794942.8341336,0.39575194036684663,-0.3631134014450253,-0.23724514368763705,0.9838901544997449,nan
1740794942.8380394,0.638882765047304,-0.1380644050764253,-0.002525500291367374,0.9896170912682437,nan
1740794942.8419454,0.6446124726263789,0.24322617529626753,-0.0011814589906222158,0.392624412643757,nan
1740794942.8458512,0.44091372227890796,0.3399563728951984,-0.292661510596096,-0.1565753589936726,nan
1740794942.8497572,0.1296067641099519,-0.027554896618758453,-0.48078531205348235,-0.18332370320628816,nan
1740794942.853663,-0.23113506474057186,-0.4690179044581508,-0.14261618921870467,0.04889021598021094,nan
1740794942.857574,-0.6070077752934601,-0.3839190374032454,0.5905159539628183,-0.09338129420894485,nan
1740794942.8614798,-0.8786071733904341,0.3342591559558295,1.0360037848467498,-0.7452561646525432,nan
1740794942.8653858,-0.8504534135155696,1.0587101907733107,0.6673450089161406,-1.2667061432584557,nan
1740794942.8692915,-0.44020061221618095,1.008982142592174,-0.23463752168035587,-0.9529628787684428,nan
1740794942.8731976,0.1666061621995107,0.07344622100362065,-0.7986546070257116,0.10122550495706203,nan
1740794942.8771033,0.6300998272482469,-1.0222980017270047,-0.4986488996503923,1.0430718470776783,nan
1740794942.8810093,0.7575787121526315,-1.401532833640157,0.23422687705032866,1.1789267082867478,nan
1740794942.884915,0.6513509619653143,-0.849905105773546,0.475608733003195,0.6734361176671789,nan
1740794942.8888211,0.520514320463572,0.07402390155813159,-0.12697389399083214,0.22446317953970926,nan
1740794942.8927271,0.39106264227126036,0.6607573952266343,-0.9071963693469073,0.17712179434238284,nan
1740794942.896633,0.09323206851298327,0.6814802682229295,-0.9044097058703756,0.1927681145335428,nan
1740794942.900539,-0.44057616320713916,0.42006979056613114,0.037695630523740635,-0.17256399421865662,nan
1740794942.9044495,-0.9533895118810379,0.23044919418153795,1.0533484853515163,-0.793394361640711,nan
1740794942.9083552,-1.0464319898227024,0.19218475882129646,1.1790195282075364,-1.0931811311551638,nan
1740794942.9122612,-0.5990793686734385,0.16716151768703041,0.3806349602130656,-0.7727301745489552,nan
1740794942.916167,0.06627891490700961,0.0416734775517127,-0.45647972577480983,-0.17214094693914006,nan
1740794942.920073,0.4901361782548253,-0.17449097833574365,-0.5233698639845827,0.19454110618193202,nan
1740794942.9239788,0.5129456774394651,-0.41518272957385927,0.0683419457229674,0.2799274694798094,nan
1740794942.9278848,0.35521310982413484,-0.6031106460664152,0.4928470070082923,0.45106262608728803,nan
1740794942.9317906,0.2919814932932514,-0.6258931124853556,0.1579436477429035,0.8410150083342635,nan
1740794942.9356966,0.3448186943017121,-0.38149522290041427,-0.6767555890597938,1.03734892672326,nan
1740794942.9396026,0.33770590858457095,0.07716783024750111,-1.2127670731374613,0.5970030531809526,nan
1740794942.9435084,0.17322667830017302,0.5015978182814984,-0.920046426700158,-0.2750158862477824,nan
1740794942.9474144,-0.06357540201137679,0.652724068422428,0.017116371465756224,-0.8418428594029144,nan
1740794942.9513245,-0.27253322594036716,0.5474463351988905,0.949866816260207,-0.685490344807968,nan
1740794942.9552305,-0.4780725319728435,0.41107530249656554,1.3248176861735323,-0.21670965497945213,nan
1740794942.9591362,-0.7064234518973661,0.35418040568033976,1.0213512963634226,-0.1439055460587948,nan
1740794942.9630423,-0.7956241717553265,0.19988602957384535,0.3113051292241934,-0.5442596149536955,nan
1740794942.9669483,-0.4947945883539572,-0.2557974271334073,-0.38021173001567177,-0.7419728479103633,nan
1740794942.970854,0.18245699858402054,-0.855653619692502,-0.7240688262571773,-0.18947974990080088,nan
1740794942.97476,0.8167564086110846,-1.1197256357633583,-0.6565852828836157,0.7641286320014601,nan
1740794942.9786658,0.9428589797038623,-0.7573170541213873,-0.38418332706833264,1.2271185315817292,nan
1740794942.9825718,0.555970178324577,-0.040309476753114644,-0.17721367737479152,0.8210163126663937,nan
1740794942.9864776,0.13455572000016644,0.4738017940289044,-0.10916767830635463,0.10426626042856796,nan
1740794942.9903836,0.08653108800409465,0.5616786661224166,-0.031183527551883108,-0.1635279033509585,nan
1740794942.9942894,0.26098519695716144,0.5077517112280038,0.16138897068903166,0.048328274251453765,nan
1740794942.9982018,0.14520354448516037,0.6034359266089387,0.31629690582356346,0.11109828059235065,nan
1740794943.0021079,-0.4597792831235502,0.6666501173362325,0.2106257547047545,-0.3351011943818667,nan
1740794943.0060136,-1.1140764282111222,0.2965819412142581,-0.055153603559443716,-0.8649637634133355,nan
1740794943.0099196,-1.1943661551686593,-0.43269724671171084,-0.04493440095253266,-0.8539583158971766,nan
1740794943.0138257,-0.5969785748792403,-0.8497350593318023,0.4585416983868683,-0.34443049022390715,nan
1740794943.0177314,0.16410369442082387,-0.4771188648468432,0.9788334653840004,0.022932265345137953,nan
1740794943.0216374,0.568617583471601,0.2231479142992943,0.7166699962937296,-0.06451886710718924,nan
1740794943.0255432,0.6340159498801786,0.26697539159476247,-0.45663580047450286,-0.11568540144892227,nan
1740794943.0294492,0.7266875877948503,-0.5869544353888055,-1.5775276719985833,0.4471815184255988,nan
1740794943.033355,0.938162230320608,-1.3188702164704809,-1.4884994754955885,1.3162246403025684,nan
1740794943.037261,0.89063914306293,-0.7615776877019484,-0.20492336264364164,1.4963110174259766,nan
1740794943.0411668,0.26020679089619037,0.8458513963655067,0.9214181821600749,0.5812089702091835,nan
1740794943.045079,-0.6682416196309405,1.8845259667404137,0.6763788257945292,-0.5635302972336101,nan
1740794943.0489848,-1.1885703283627829,1.2138329866483804,-0.5145610242721516,-0.7831402358175253,nan
1740794943.0528908,-0.9367180167709785,-0.29795057317134627,-0.9594203231527678,-0.15232150189306098,nan
1740794943.0567966,-0.3031563786277742,-0.6556436319408044,0.27490512079278046,0.017123388256262747,nan
1740794943.0607026,0.017382886416867693,0.7352851909126459,2.049870617263314,-1.0848257664930963,nan
1740794943.0646086,-0.2091783406633855,1.9593145164607455,2.30890828974009,-2.432943843559193,nan
1740794943.0685143,-0.5691197668640244,0.6222327852586949,0.5189578873584835,-2.148572057549444,nan
1740794943.0724204,-0.5125919183549819,-3.0229656278739254,-1.5465966738793477,0.16686171871611197,nan
1740794943.0763261,0.13562861708447072,-5.622279322996901,-1.8320744022570312,2.6531652974661735,nan
1740794943.0802321,1.1747929692092594,-3.9576337387003186,-0.5207991447017405,3.172327733513994,nan
1740794943.084138,2.2370910500723573,1.4280783189397095,0.12980299067579884,1.7689397918211023,nan
1740794943.088044,2.742808456946906,6.315645572694145,-1.2868776909956205,0.49204871426043506,nan
1740794943.0919557,1.8697583529549866,6.759734582914086,-3.125200335187503,0.6457722335575196,nan
1740794943.0958617,-0.805940098328937,2.769833437083016,-2.218289491639267,0.9413369336579426,nan
1740794943.0997674,-4.248358380154007,-2.0911225002254628,2.206703495359582,-0.828948024580938,nan
1740794943.1036735,-5.917483326884456,-4.439753412962255,6.7803845459028045,-4.414020691442613,nan
1740794943.1075792,-3.680653887360406,-3.8965545457641007,6.919023701649893,-6.413631771112012,nan
1740794943.1114852,1.6773068448668582,-2.277723044845775,1.6361085543112723,-3.7740714249546996,nan
1740794943.115391,6.20562084559409,-0.8596963178046187,-5.023120634933465,2.2798373100593072,nan
1740794943.119297,5.948720615777832,0.6663610483622706,-7.7201589014154735,6.76103946364396,nan
1740794943.123203,0.9120718395370951,2.620031508213469,-4.881201813933672,5.8951166840021925,nan
1740794943.1271088,-4.384509548877804,3.8064926378590296,0.20605598160360172,1.1607512259196422,nan
1740794943.1310148,-4.970916647962394,2.5500489209008963,3.128697917478478,-2.3318820916970933,nan
1740794943.1349206,-0.36800059719856304,-0.8426279806093552,2.6164468227491087,-1.491007940105908,nan
1740794943.1388323,4.74890121912721,-3.5970917074962077,0.9033786341356165,1.4562009493803598,nan
1740794943.142738,5.142981475341086,-3.1325608255408772,0.4652196885561487,1.8012139670303677,nan
1740794943.146644,0.2648959666130766,0.0321826617429963,1.2938893155121665,-1.9569194917281278,nan
1740794943.15055,-5.287019045986863,2.696435813918926,1.6066039096987328,-6.171254296037339,nan
1740794943.154456,-6.505223592835673,2.4414206244566117,0.4904452794790754,-6.089376317914399,nan
1740794943.158362,-2.82675091020139,0.13900670986608687,-1.0477855337231017,-1.1844707405917199,nan
1740794943.1622677,1.8988581205609658,-1.4125916686650015,-1.6628079072766064,4.302697866237247,nan
1740794943.1661737,3.850272895403919,-0.957539636109765,-1.4413689335234328,6.026716198069119,nan
1740794943.1700795,2.9334228568839533,-0.05345143746829202,-1.4345512010871133,3.893986436819286,nan
1740794943.1739855,1.862423819002553,-0.6469097394678914,-1.770508029760797,1.3025697935125073,nan
1740794943.1778913,2.241237717740277,-2.151746568583121,-1.1924519980628987,0.6664728074840439,nan
1740794943.1817973,2.5467258071916556,-1.9293881142420126,1.0782212252444137,0.8068436151104531,nan
1740794943.1857085,0.3483447748000503,1.207005324664953,3.610548343155497,-0.859782538677689,nan
1740794943.1896143,-4.075920892574285,4.83204258333429,3.829254939384793,-4.380010757979998,nan
1740794943.1935203,-7.232071767837801,5.097355211018818,1.0352290769536057,-6.613714853700969,nan
1740794943.197426,-5.839170283167968,1.041047892611495,-2.2977007689847633,-4.733665778089082,nan
1740794943.201332,-0.4166227510937938,-3.9852540146760784,-2.9385268614778135,0.35397056145437444,nan
1740794943.2052379,4.963806375017676,-5.607733619470066,-0.5329924651996328,4.74665152365535,nan
1740794943.2091439,6.485378863391215,-2.8504841127949905,1.8433578073003192,5.523507462971828,nan
1740794943.2130497,3.8991017629909854,1.1700399981762941,1.1411662000019887,3.3551868163858267,nan
1740794943.2169557,0.11962032921348827,2.807088445529224,-2.0325470397241414,1.0284232536214912,nan
1740794943.2208617,-1.9690391180054923,1.5093949800822493,-3.8910022726614604,0.06412946691557163,nan
1740794943.2247674,-1.90940745648323,-0.3489753563335839,-1.7136030907325945,-0.46409687875436295,nan
1740794943.2286735,-1.1484780089779607,-0.6451042771864116,2.880302457500379,-1.8812393389984146,nan
1740794943.2325842,-0.8875780979477643,0.3308754723819247,5.405631320256327,-3.6133956032141565,nan
1740794943.23649,-0.9636566022175276,0.9497946599717775,3.214161630989578,-3.672181311703943,nan
1740794943.240396,-0.6460010144575,0.6135899355054487,-1.6909856949634114,-1.2573514505856282,nan
1740794943.244302,0.11917922842291082,0.22474487714076313,-4.724028662851411,1.8812349205457544,nan
1740794943.2482078,0.6514187664343775,0.4500298130615071,-3.338207931776339,3.121749583376346,nan
1740794943.2521138,0.5154853984749235,0.47936797699271216,0.6912318533437729,1.754988549398832,nan
1740794943.2560196,0.11311616097358154,-0.8216721176032158,3.4228980403593408,-0.3633117287729186,nan
1740794943.2599256,0.14542166959600272,-2.8868033986389583,2.7129383123600532,-0.9588918046431246,nan
1740794943.2638314,0.7130636042531706,-3.493220486676558,-0.13457112058668474,0.2614285591493204,nan
1740794943.2677374,1.1938788303810983,-1.248553117797628,-2.2425445442975445,1.583493759804607,nan
1740794943.2716432,0.974149088703925,2.416994739391733,-2.0969853852973315,1.3785914558079277,nan
1740794943.2755492,0.09657564257599309,4.4026223475762185,-0.5300872589800271,-0.21407746875293415,nan
1740794943.27946,-0.8678023461453738,3.1503603319788835,0.7056039031144192,-1.7239285353096447,nan
1740794943.2833657,-1.414452468663723,0.23470669432531577,0.7931323438534323,-2.040903967499097,nan
1740794943.2872717,-1.427330292616025,-1.5306249835383798,0.27176330421219913,-1.325713343620635,nan
1740794943.2911777,-1.0210024883954807,-1.2133755280222398,0.06383719679376712,-0.40141216042488137,nan
1740794943.2950835,-0.3199059555303413,-0.4453013452426418,0.4545009039326082,0.2739947659700292,nan
1740794943.2989895,0.5038886597365193,-1.0037825306293202,0.969652034615635,0.7931334946949548,nan
1740794943.3028953,1.1348898420333131,-2.3767348812989066,0.959629144414091,1.2310304395804725,nan
1740794943.3068013,1.274690863201431,-2.3452297107638955,0.1859234095350193,1.3278344511817297,nan
1740794943.310707,0.9339640123543264,0.11955606555961848,-0.9932313458318186,0.8582322470566921,nan
1740794943.314613,0.4383618695603344,3.210918818088369,-1.8378747026198283,0.06839641216758342,nan
1740794943.3185189,0.07009218156939179,4.001672536893563,-1.7077477775867713,-0.5039978328278258,nan
1740794943.322425,-0.2138544013879224,1.635345976479429,-0.5772471831404578,-0.6088405318981159,nan
1740794943.3263354,-0.60533502985681,-1.6563180201560883,0.821452642293129,-0.49032544515275495,nan
1740794943.3302412,-1.041023039354707,-2.8699410204510407,1.5096617687079128,-0.4784124502726385,nan
1740794943.3341472,-1.1438453508980995,-1.28673284105049,1.10841782294753,-0.5505344025179117,nan
1740794943.338053,-0.6530729584323635,1.027912450758746,0.20114555007988924,-0.4402064884005269,nan
1740794943.341959,0.18080529184859698,1.6116587378504472,-0.25362201146277363,-0.08427915180554309,nan
1740794943.3458648,0.7718863668530662,0.11860147791731308,0.08332517245263543,0.2507650816570318,nan
1740794943.3497708,0.7824201903617848,-1.6348506555810873,0.60127068744729,0.33769183857677715,nan
1740794943.3536766,0.43021034753571485,-1.794919551805352,0.46103323361093196,0.30910350466778597,nan
1740794943.3575826,0.17034570441858554,-0.28952187382821154,-0.4325847089954014,0.44602211116147067,nan
1740794943.3614886,0.16787103661390876,1.4040643794189596,-1.306920326737322,0.7095615507171114,nan
1740794943.3653944,0.19920728683071454,1.901954696809038,-1.3669268238279721,0.6938860684488434,nan
1740794943.3693004,0.03736006352545596,1.0812138338256048,-0.6236535311055041,0.14001861239694782,nan
1740794943.3732126,-0.23106279085537143,-0.1763917132319374,0.21038613515595114,-0.6331694338003442,nan
1740794943.3771186,-0.36072963017937554,-0.985208091710246,0.5530969733192187,-0.9884213802360342,nan
1740794943.3810244,-0.31189826669149645,-1.059606404760214,0.5042500901117584,-0.6683698022154954,nan
1740794943.3849304,-0.28919346733061896,-0.6003610310789567,0.5414355713848477,-0.09202488816227689,nan
1740794943.3888361,-0.3982344663543018,0.04979648960109005,0.8362059900251386,0.13134559652806077,nan
1740794943.3927422,-0.42400387102428183,0.5624145624853433,1.039505320037476,-0.10127085732457301,nan
1740794943.3966482,-0.09279810618851848,0.6736281422634116,0.7235624884723287,-0.3083168521035165,nan
1740794943.400554,0.4949827578612339,0.32375657946512765,-0.11387792139376571,-0.03672943629820611,nan
1740794943.40446,0.8650850625049434,-0.23133789142065472,-1.042632750027924,0.5838441226494857,nan
1740794943.4083657,0.679174472713521,-0.5791608439000777,-1.5856233735758012,0.9881123068362586,nan
1740794943.4122717,0.14505340219739746,-0.5019528972303683,-1.5130595253836212,0.8048850490438105,nan
1740794943.4161775,-0.20988246638711938,-0.14432469814699125,-0.8521125038222693,0.2145108879608731,nan
1740794943.42009,-0.15404364687367078,0.18957835119042418,0.17417220338538195,-0.32392710032409333,nan
1740794943.4239957,0.0008275673450845953,0.3478711487351473,1.1377378433738938,-0.5673951882021213,nan
1740794943.4279017,-0.1638000599577572,0.3863096716778595,1.5193376718141138,-0.6139379328112711,nan
1740794943.4318075,-0.5951336399138953,0.3705146057156142,1.088915570520535,-0.6101610616067283,nan
1740794943.4357135,-0.7848523145145998,0.2521273962937901,0.2256534876568946,-0.5075218695813484,nan
1740794943.4396193,-0.38213395196528943,-0.008716773685934346,-0.3223402150708759,-0.1870398367526008,nan
1740794943.4435253,0.34253257313964214,-0.2903001687547123,-0.17045056859705718,0.26852131575621135,nan
1740794943.4474313,0.7595533246473075,-0.39812444848990003,0.24827177014345195,0.5712683647085577,nan
1740794943.451337,0.5655254458085639,-0.3077539789113825,0.1286809979326229,0.5309097164847961,nan
1740794943.455243,0.08486702921637596,-0.2127030449718625,-0.7479234155325698,0.27884298497777954,nan
1740794943.459149,-0.1428021830552045,-0.26331763259606694,-1.6305497787732508,0.11816862152691321,nan
1740794943.463055,0.028434880760339506,-0.3212642631574604,-1.5223050372759992,0.17336107162897782,nan
1740794943.4669669,0.2525540030730536,-0.08975883698599517,-0.2726745702763458,0.2571858669382999,nan
1740794943.4708726,0.1589053528810645,0.48379632847277204,1.1869765172709184,0.10269671027172031,nan
1740794943.4747787,-0.2153094856554178,1.0209878136958994,1.7551616892110338,-0.31754936047368487,nan
1740794943.4786844,-0.5132627843219336,1.0211232591843595,1.2159761901578903,-0.7360821714613917,nan
1740794943.4825904,-0.48767674591908805,0.3675157459854484,0.3023064177192121,-0.8323279660318444,nan
1740794943.4864964,-0.22844081156852414,-0.5177083443073519,-0.20361797016051925,-0.5048316844182553,nan
1740794943.4904022,0.02404964399369968,-1.0407831747619936,-0.24038961390171473,0.06623005945319425,nan
1740794943.4943082,0.1673146572774977,-0.9388969466042626,-0.28691890236561896,0.5665668965040657,nan
1740794943.498214,0.26232597250446016,-0.4286708358256763,-0.6004166020643817,0.7508145277061313,nan
1740794943.50212,0.3412781623388708,0.07408399714941968,-0.8735891459447015,0.5733103766698092,nan
1740794943.5060258,0.32067746731304175,0.31963317896441695,-0.6824066628947363,0.19873994681191667,nan
1740794943.5099318,0.14248517234654162,0.33984067541443913,-0.07995352833407958,-0.11280903420211451,nan
1740794943.5138435,-0.08594394153597995,0.30159362061488487,0.4351118397027501,-0.1961018588109967,nan
1740794943.5177493,-0.1833488065452877,0.31234862864144186,0.5032500413858718,-0.10811499218323727,nan
1740794943.5216553,-0.11159461071198554,0.34362000667318093,0.28201140574413786,-0.057132120182406175,nan
1740794943.525561,-0.022016211440970594,0.2825260385175691,0.17272609150440435,-0.17476212472890734,nan
1740794943.529467,-0.05923627068669152,0.04783814738003254,0.2970734861896246,-0.36295475910297936,nan
1740794943.5333729,-0.17935677959259103,-0.3015749154960745,0.3962500972159109,-0.39726029749947084,nan
1740794943.537279,-0.21968479878968367,-0.5571529614520432,0.2265794676861979,-0.18198915763766296,nan
1740794943.541185,-0.11713910438255286,-0.5116443386550845,-0.11173769549459585,0.13699945834018926,nan
1740794943.5450907,0.02200161616117658,-0.1773810591427479,-0.3319680267595104,0.3345187966700498,nan
1740794943.5489967,0.08470339958484209,0.16631981755585312,-0.34592138519761295,0.34210467447589277,nan
1740794943.5529025,0.10643132422319031,0.2226437345851438,-0.3346698190046257,0.27144557340275044,nan
1740794943.5568085,0.19416734738753944,0.007564919514540773,-0.42748380503795985,0.21983694424863162,nan
1740794943.5607195,0.3265070992349248,-0.1307238599863769,-0.4643314125927322,0.1367889348012408,nan
1740794943.5646255,0.32942449815057295,0.09991848134024277,-0.2003266741969189,-0.06210028589446142,nan
1740794943.5685313,0.09566976278752677,0.5427465743827065,0.31147899454756955,-0.3013163900740985,nan
1740794943.5724373,-0.23322859445885236,0.6875083613547387,0.6961275300565053,-0.371783791835571,nan
1740794943.576343,-0.38804621357671976,0.22451747696687951,0.6670401199623179,-0.18652693277862778,nan
1740794943.580249,-0.27514511547965326,-0.5435335382071635,0.3557597578994108,0.06512613095503704,nan
1740794943.584155,-0.0843338821302874,-0.9409140620679868,0.1249109827077441,0.10760408109949293,nan
1740794943.5880609,-0.05112863376960302,-0.5992196826446962,0.09609844299583362,-0.08577107399547611,nan
1740794943.5919669,-0.16107376305982957,0.15716344507853985,0.011225593230511097,-0.2372331508164105,nan
1740794943.5958726,-0.1692284646394668,0.6468865189392831,-0.3736472935947323,-0.09215202164164657,nan
1740794943.5997787,0.08117966142137575,0.5109409973847734,-0.8654116282952192,0.2564715351652109,nan
1740794943.6036844,0.4339090102105489,-0.0009075542475938637,-0.959755675744913,0.45759647880396864,nan
1740794943.6075954,0.5699166387085028,-0.38256909891358826,-0.4164336224319524,0.3123486965178593,nan
1740794943.6115012,0.3547941007179689,-0.3876394553297173,0.40187734144556553,0.0025576089682408736,nan
1740794943.6154072,-0.026579585925407847,-0.14057666202115765,0.8612881974535842,-0.14657163319912528,nan
1740794943.619313,-0.2869915923389422,0.14982575548532243,0.6973560987308984,-0.06838914034591294,nan
1740794943.623219,-0.3258755271512133,0.40502837668080277,0.23564053686167882,-0.010061312140310126,nan
1740794943.627125,-0.26105877490201407,0.5686101787374455,-0.03305449535374411,-0.1734356780654773,nan
1740794943.6310308,-0.21941328382319242,0.45845806785603344,0.004940363220245328,-0.41131537664900014,nan
1740794943.6349368,-0.18248746217104367,-0.06512703538227413,0.051848534280772955,-0.38717605525148346,nan
1740794943.6388426,-0.06348545274879273,-0.7679734434976242,-0.14364636034532838,-0.012178105519435763,nan
1740794943.6427486,0.12847018504783486,-1.0679091984964963,-0.43287832335113596,0.3970464210507603,nan
1740794943.6466544,0.2724599823619942,-0.5754992458529781,-0.4502073514778624,0.4600134420211767,nan
1740794943.6505604,0.27755882625324896,0.3982143252123048,-0.09297460457882464,0.16681885295657792,nan
1740794943.654471,0.1800728272868866,1.0274134717135934,0.2980616378602095,-0.12491385429696403,nan
1740794943.6583767,0.07587692847192981,0.7689953947096829,0.29232219271939924,-0.12122827618716542,nan
1740794943.6622827,0.0018564759571581082,-0.06732570694497217,-0.13598753620783435,0.0818749484835866,nan
1740794943.6661887,-0.06798555154672585,-0.6348392818161849,-0.5315887635489119,0.16285153200026004,nan
1740794943.6700945,-0.13276452107483797,-0.432664249723451,-0.40263170432462847,-0.004416651984356408,nan
1740794943.6740005,-0.1414817334041144,0.20900904891526795,0.26486960322272435,-0.2109876738900638,nan
1740794943.6779063,-0.08266340351792861,0.5507028291937469,0.9426170670939824,-0.20949796925879527,nan
1740794943.6818123,-0.03928872705435321,0.2572549739069985,1.017829481656263,-0.04048272267309651,nan
1740794943.685718,-0.08966598213064783,-0.30915269105124127,0.3510023350634015,0.038129844460389216,nan
1740794943.689624,-0.16915811892764512,-0.5720794274569982,-0.5743554912614254,-0.08589877407640852,nan
1740794943.6935298,-0.10998920011344762,-0.36862004681975913,-1.0512481823066158,-0.21161807815501033,nan
1740794943.6974359,0.13981301810443136,-0.01323565156403451,-0.7562301636284158,-0.08324738179403869,nan
1740794943.7013462,0.38872010733571716,0.1678244122287084,-0.0291847225066212,0.2547434434561962,nan
1740794943.7052522,0.3728615694818875,0.19149180634676605,0.4409183587244144,0.47019488647823426,nan
1740794943.709158,0.0645588604756105,0.25910772296628654,0.2616157636320409,0.3246970127959439,nan
1740794943.713064,-0.25661607720189816,0.380117380605653,-0.28380800907196885,-0.042915512457303406,nan
1740794943.71697,-0.2921290987023601,0.3234512857701108,-0.5117761114488573,-0.27751095311975926,nan
1740794943.7208757,-0.053919197704379765,-0.036904978738729305,-0.03366185479541407,-0.2104416509044618,nan
1740794943.7247818,0.1576934822088632,-0.46175711420976034,0.8129033131361404,-0.017420034499455637,nan
1740794943.7286875,0.10805074168581623,-0.5536219537428955,1.2554885359885901,0.03351292910980022,nan
1740794943.7325935,-0.10883693507704094,-0.20934400832862954,0.8304089886302802,-0.0933972903665899,nan
1740794943.7364993,-0.21018425288026052,0.2330447137526169,-0.17470097756275174,-0.19770739898753262,nan
1740794943.7404053,-0.08288103836005753,0.3469940322587285,-1.0220767496799594,-0.1251685356098913,nan
1740794943.744311,0.08870562249859258,0.06944131156404479,-1.221478119846307,0.044683717024934004,nan
1740794943.7482235,0.07745412558479783,-0.254478879005368,-0.8801108986420327,0.12897608795903656,nan
1740794943.7521296,-0.08150303306169152,-0.2580338764554565,-0.3999429233959302,0.08964098731112197,nan
1740794943.7560353,-0.12878537676059984,0.07640518683593583,0.029597529637173606,0.06548129744999712,nan
1740794943.7599413,0.08146571576439797,0.43784551239035774,0.5158954630152991,0.15956073761921932,nan
1740794943.763847,0.3692314650407379,0.5107834864538997,1.0816240534889685,0.27654156447241784,nan
1740794943.7677531,0.41483011067978076,0.23324875788933996,1.3863656887895706,0.228847101872978,nan
1740794943.771659,0.12494454751756501,-0.21596078824851542,0.9947020707535044,-0.025067346468879433,nan
1740794943.775565,-0.25821056929002656,-0.5858105605700592,-0.07504178714039993,-0.3124290930282475,nan
1740794943.779471,-0.424467144240302,-0.6824479141341241,-1.194003736148353,-0.4260924321462833,nan
1740794943.7833767,-0.31280509651707905,-0.4258578396573716,-1.6142159076351288,-0.32552347087375644,nan
1740794943.7872827,-0.11874669749165685,0.09888386468053242,-1.1172293902702932,-0.1317315700244409,nan
1740794943.7911885,-0.026468609262199436,0.621516997524801,-0.14784242363724262,0.0362116743456766,nan
1740794943.7951007,-0.013804862391293119,0.8085303478527731,0.652920568592287,0.15931238553170207,nan
1740794943.7990065,0.05601578956499109,0.5130085864567705,0.9669032671679406,0.25738528289501167,nan
1740794943.8029125,0.21547423768880833,-0.06715252087926961,0.8688244421574258,0.30068009758017755,nan
1740794943.8068182,0.3385827957238997,-0.5233823807233584,0.5375908824989452,0.23830143111848714,nan
1740794943.8107243,0.30020605179998927,-0.5754052875369178,0.06484595525762858,0.09314330692716366,nan
1740794943.81463,0.12436629077266408,-0.2908588232829865,-0.4464156984618946,-0.035100170452282156,nan
1740794943.818536,-0.060800562746022746,0.026814644622719843,-0.7609904491043934,-0.08421569637278488,nan
1740794943.8224418,-0.17626121642416318,0.14657410842495586,-0.6545897250051906,-0.10587034938489512,nan
1740794943.8263478,-0.24386614409923818,0.09031728124630635,-0.1869252778916126,-0.1854683544945173,nan
1740794943.8302538,-0.29147672510507233,0.033940228337036554,0.2800257937093641,-0.3014120634575716,nan
1740794943.8341596,-0.2724713379679333,0.08587220952196764,0.41406135574139785,-0.31798982297396167,nan
1740794943.8380656,-0.1266569533676642,0.19192722955145322,0.23256689958120508,-0.14194658508313118,nan
1740794943.8419776,0.10312376192095288,0.22816430932853224,0.03491154567509245,0.1451088069452794,nan
1740794943.8458834,0.2733624957885805,0.13670662312372928,0.03808248297344782,0.34866400028678357,nan
1740794943.8497894,0.2785101062912596,-0.03837562535512007,0.15563359499506305,0.35120685726660766,nan
1740794943.8536952,0.1571229039172268,-0.20770774877215845,0.1550880260929508,0.21030778854280785,nan
1740794943.8576012,0.0353510356286965,-0.2945008019224353,-0.04452643145959496,0.0657795069985295,nan
1740794943.8615072,-0.01393564341626357,-0.2570504591196762,-0.3027984556647492,-0.012766600321993424,nan
1740794943.865413,-0.02041761218165259,-0.10658745540867763,-0.4425143080052491,-0.05911010431110482,nan
1740794943.869319,-0.03415112953579979,0.07543322515468116,-0.40012577369495234,-0.1192842208993545,nan
1740794943.8732247,-0.04734852482088972,0.17118499160651393,-0.17937677545783615,-0.1805415968053422,nan
1740794943.8771307,-0.03119998522835022,0.1249479733439769,0.21843293589349824,-0.20380395447329056,nan
1740794943.8810365,-0.018456261224838344,0.016674559462268673,0.6941049467176051,-0.1840668121352965,nan
1740794943.8849425,-0.08612918040287122,0.004143500747473507,0.9291640610060925,-0.13879088718187027,nan
1740794943.8888543,-0.23455861788002969,0.1575706943794337,0.5629718450650639,-0.054942512130011716,nan
1740794943.89276,-0.3261357527552599,0.35035195710291406,-0.36775744716072684,0.09788104803334689,nan
1740794943.896666,-0.1993214114263223,0.34209921989278896,-1.2355383658635146,0.2839750811937732,nan
1740794943.9005718,0.14526203555919934,0.0037291687366972086,-1.2689466926768704,0.37714079369663184,nan
1740794943.9044778,0.5007261067338487,-0.5184220213936422,-0.31520459878259627,0.27385632853633596,nan
1740794943.9083836,0.6180750758129856,-0.8638440488230467,0.8956533115283561,0.028593198871756893,nan
1740794943.9122896,0.4142049908145948,-0.7186703154010026,1.3685719945669559,-0.17261473748348277,nan
1740794943.9161956,0.021219723257862082,-0.08106839901409663,0.7687762937334248,-0.20076565364345714,nan
1740794943.9201014,-0.34189544338388506,0.6818495348636542,-0.30095741916972735,-0.11825295407009002,nan
1740794943.9240074,-0.5229939726401753,1.0603903267989523,-0.9402707218095228,-0.08802582376821654,nan
1740794943.9279132,-0.4893128502340009,0.7780885546729378,-0.7916182377922052,-0.16242922342431143,nan
1740794943.9318192,-0.29447414243415115,0.03528249267209838,-0.2131544453721071,-0.21574783157836677,nan
1740794943.9357302,-0.03663319180709325,-0.6129270878765861,0.2641501168943591,-0.10922275648790994,nan
1740794943.9396362,0.17532041457661912,-0.7010212655073452,0.4646284832922621,0.11970055039534992,nan
1740794943.9435422,0.2740443544574903,-0.2589470525409171,0.5150998218848925,0.2873355440004381,nan
1740794943.947448,0.278750358283969,0.21624493737558545,0.45471286907283653,0.2763162788994954,nan
1740794943.951354,0.26274406136487083,0.24404309417587552,0.13876664221615176,0.1586001835371396,nan
1740794943.9552598,0.25077333522913037,-0.15349107731908548,-0.4267349931559817,0.075670866192943,nan
1740794943.9591658,0.17026947009107596,-0.47422719378899625,-0.8514635470919402,0.04405315982947139,nan
1740794943.9630716,-0.05176994601711212,-0.27640501323919137,-0.6779834656013037,-0.04651293061252526,nan
1740794943.9669776,-0.3424587038829091,0.3246014953478517,0.05135384721429712,-0.2365874772099545,nan
1740794943.9708834,-0.48876511861717264,0.7549298896799616,0.7065368041118754,-0.37725049861064636,nan
1740794943.9747894,-0.3402024361568934,0.5888951876499902,0.6789372293866957,-0.27944448156141166,nan
1740794943.9786954,0.005429028358279716,-0.0005411317559012433,0.044252997049342914,0.03220778811202475,nan
1740794943.9826062,0.2704517765479569,-0.4490589544840246,-0.4962224247434098,0.2933464993040251,nan
1740794943.9865122,0.27225889909041634,-0.42105912184456085,-0.3660738392184473,0.2718566548786721,nan
1740794943.9904182,0.09701413422035965,-0.12731807129188,0.27246839181345966,0.029822990818765348,nan
1740794943.994324,-0.030419106503310703,0.00535087821680211,0.7127992401302141,-0.14430382623007426,nan
1740794943.99823,-0.01745593229523729,-0.11964899374538565,0.4621454749498196,-0.06428966666561609,nan
1740794944.0021358,0.01992198192717551,-0.1862704350805517,-0.27577729761211506,0.14924824056670358,nan
1740794944.0060418,-0.039720258617838206,0.06340558002153243,-0.860560332995975,0.22389466993053583,nan
1740794944.0099475,-0.1216778286965348,0.42198166917684465,-0.851913083594994,0.05563432124257457,nan
1740794944.0138535,-0.041450024700685956,0.4265913153823511,-0.33766205787683423,-0.18458821069333928,nan
1740794944.0177593,0.21444391927306147,-0.0392866483788712,0.2760618675192363,-0.2624530787374101,nan
1740794944.0216653,0.3889257679464656,-0.5109147962915334,0.6550149382721934,-0.1363888885563815,nan
1740794944.0255713,0.2126530554847753,-0.42852915897466476,0.7001087398987536,0.036474618427744465,nan
1740794944.029482,-0.2584517996758401,0.18792469789881644,0.4688722990556628,0.10932240298063353,nan
1740794944.033388,-0.6415315420611315,0.6925664053461646,0.08793161348809823,0.08839463272410299,nan
1740794944.037294,-0.5972138707821945,0.5063533290864901,-0.2594087196419697,0.057990965283227454,nan
1740794944.0411997,-0.16485487440547386,-0.22225114866313841,-0.394588208208855,0.03571887517627972,nan
1740794944.0451057,0.30642827838767933,-0.7567197906578361,-0.2933273428853088,-0.027949846714760338,nan
