timestamps,TP9,AF7,AF8,TP10,Right AUX
1740795712.5148914,-0.1910188928651053,0.10180574074821977,-0.4171066799345562,-0.250902645967158,nan
1740795712.5187974,0.046245181464782466,0.04100794744597567,-0.43919229256648223,-0.10907380091721264,nan
1740795712.5227032,0.23590392958605724,0.024585363336831065,-0.2745698278459155,0.10663593091664142,nan
1740795712.5266092,0.17804217032166458,0.05997058981723205,-0.16877135475387173,0.10612407175058182,nan
1740795712.530515,-0.07531521052989819,0.0689474214011382,-0.1389724395900223,-0.15124950886855337,nan
1740795712.534421,-0.2563693171358123,-0.012045213041664036,0.0246627196127162,-0.3702359594671418,nan
1740795712.538327,-0.16667951108296655,-0.1482452077308973,0.41719908076104634,-0.24276392029302993,nan
1740795712.5422328,0.10523779701253952,-0.23865141178015237,0.7847324092857727,0.18510562886750537,nan
1740795712.5461388,0.28374974511123735,-0.21698048644698323,0.7291968487731086,0.53424349964871,nan
1740795712.5500445,0.20726105915917087,-0.09876589174927876,0.1520106919145762,0.4853428383238359,nan
1740795712.5539505,-0.014992334874137488,0.06273308764638195,-0.57171561760904,0.10221826906538868,nan
1740795712.5578563,-0.15425511770547085,0.2275247941486399,-0.9123431076577296,-0.26110922334639747,nan
1740795712.5617654,-0.12018473350471759,0.3527761447658989,-0.6734778498823717,-0.33575746204494455,nan
1740795712.5656712,-0.021419662106678665,0.35765886169573385,-0.1392071640313759,-0.1705264428581182,nan
1740795712.5695772,0.007946339870340382,0.1679777744577993,0.24926371490452942,-0.005333935228295946,nan
1740795712.573483,-0.030428042400290137,-0.17188290775657727,0.31617021678789586,0.013683486771876191,nan
1740795712.577389,-0.04419730294575192,-0.4630158577479691,0.23375214042868855,-0.05330791535995006,nan
1740795712.5812948,-0.00416099433777146,-0.4884385524848652,0.23453103669855338,-0.07328977527523584,nan
1740795712.5852008,0.022528958189170632,-0.21659720180285005,0.3225333401445974,-0.008234320450497429,nan
1740795712.5891066,-0.0036383671945876884,0.1464440942128456,0.30506014840667184,0.07675810061512484,nan
1740795712.5930126,-0.012901692451672251,0.33533818461251214,0.06681898923476214,0.12257846434160587,nan
1740795712.5969186,0.07147042800421358,0.26271760414088857,-0.26250760151675884,0.13332512634823224,nan
1740795712.6008244,0.18302661147350496,0.07311249994634413,-0.44150001530846955,0.1270363177513675,nan
1740795712.6047304,0.152711929226932,-0.03030043780012478,-0.3768544065995855,0.08461015897849591,nan
1740795712.6086388,-0.0668340814471819,0.010483102211008876,-0.197214964032061,-0.015397799416069806,nan
1740795712.6125448,-0.28130825931789005,0.08239019118771118,-0.06921496237039187,-0.13311468862685757,nan
1740795712.6164505,-0.24161945590528502,0.05070567362597917,0.0009733490975621712,-0.18389825034479942,nan
1740795712.6203566,0.04845011409046426,-0.09656206995990874,0.13087358597215498,-0.13011663235551993,nan
1740795712.6242626,0.28898585665998533,-0.24827336395274266,0.34493275149487335,-0.029341574591684717,nan
1740795712.6281683,0.20413270496340188,-0.27978680474854567,0.4716891827733676,0.029818648270911994,nan
1740795712.6320744,-0.1280043395426474,-0.14911057057833996,0.3189928724717351,0.025833749398662592,nan
1740795712.6359801,-0.339583362665862,0.08399722306581714,-0.06272742706295571,0.013977919222942036,nan
1740795712.6398861,-0.18347228909088192,0.29348062722711643,-0.36526849405535633,0.04241901077510278,nan
1740795712.643792,0.18030660190323022,0.34834880163230786,-0.32522960524497957,0.08838534196570834,nan
1740795712.647698,0.36187924428249574,0.19536841581084005,-0.02533544570039108,0.09339450671149138,nan
1740795712.6516037,0.17992462516915594,-0.07531209200270887,0.1680298739978517,0.042727261964974346,nan
1740795712.6555119,-0.14671693950546869,-0.2662691066731874,0.002031748273245631,-0.01727350077969516,nan
1740795712.6594179,-0.2645077618162869,-0.2318709992496816,-0.3584707266543099,-0.039565105960383665,nan
1740795712.6633239,-0.08206528441818656,-0.02776103428938231,-0.4796773720261685,-0.02847573537164689,nan
1740795712.6672297,0.15907958864328012,0.12787572948699438,-0.12724871775230467,-0.01984157588690143,nan
1740795712.6711357,0.18894547423026,0.07867395767334062,0.4523442632000517,-0.028425442037814365,nan
1740795712.6750414,0.004490728103467686,-0.09449637660651018,0.7591818125587295,-0.037901094120822196,nan
1740795712.6789474,-0.17432647384675662,-0.1625644042842496,0.5408608399107571,-0.036657770853576715,nan
1740795712.6828532,-0.18485893213482812,-0.018840697707912888,0.02716763460492403,-0.03602326180942342,nan
1740795712.6867592,-0.07709244057925803,0.1865365450103354,-0.3427293366408397,-0.04266300267819771,nan
1740795712.690665,0.010593427608953732,0.22286578430805096,-0.3761453575890148,-0.03450771277362336,nan
1740795712.694571,0.04493792881129146,0.06052202152634522,-0.25576949487041734,0.012600410640815572,nan
1740795712.6984768,0.09904055561174738,-0.09484743379240326,-0.23318196392445664,0.08186641030507376,nan
1740795712.702388,0.1919575341903085,-0.06985973385431785,-0.2896287566954072,0.12521766451310692,nan
1740795712.7062938,0.2189229388595703,0.04507371128347029,-0.18415145662306392,0.12046048578460279,nan
1740795712.7101998,0.08501077581478086,0.01453874346158025,0.18078005817907722,0.092717326337666,nan
1740795712.7141058,-0.13952040532148136,-0.20345811718944004,0.5490407590708215,0.06171881409974868,nan
1740795712.7180116,-0.2668373867250471,-0.3437084058327505,0.551650424958945,-0.006094016327205388,nan
1740795712.7219176,-0.1991905099115644,-0.13876072530755668,0.14070955464712193,-0.14821503732021205,nan
1740795712.7258234,-0.03619577631670219,0.3045214138914181,-0.3045513469244051,-0.30543731363954046,nan
1740795712.7297294,0.05383521496586094,0.5503488193238443,-0.3608206338631543,-0.32428079171054813,nan
1740795712.7336352,0.031392569493692166,0.3096360879192345,-0.020722475131705383,-0.11448370536554253,nan
1740795712.7375412,0.0033430271287609842,-0.19859271303864068,0.2934022063729127,0.20414529600542583,nan
1740795712.741447,0.054475688101552476,-0.45978072238423245,0.19112120331208562,0.3733905893974215,nan
1740795712.745353,0.12850161296911333,-0.2384453438902537,-0.25557817097882657,0.2557998545306048,nan
1740795712.7492638,0.11608606232743932,0.15589091824961443,-0.5845648357276382,-0.0027744675561197536,nan
1740795712.7531695,0.020322518397150994,0.24108272602421946,-0.43199486915878815,-0.12110395989314444,nan
1740795712.7570755,-0.03754970541071631,-0.059526749588109246,0.09463643539580928,0.0008523904011154658,nan
1740795712.7609813,0.010020916024581498,-0.3280010329350075,0.539071647653585,0.1620275927215978,nan
1740795712.7648873,0.062894193713151,-0.16793204671985174,0.5515195908140698,0.09517145602907721,nan
1740795712.768793,-0.02749598364661264,0.29295990984497,0.19310508410629293,-0.2042976968824978,nan
1740795712.772699,-0.23935064727055524,0.5287437177734239,-0.1804788503892615,-0.4448355174532809,nan
1740795712.776605,-0.35181980796985673,0.2327562782245887,-0.2758400303061215,-0.35373409269347483,nan
1740795712.780511,-0.17890692526852803,-0.30684754341907816,-0.0909469512497829,0.017320633033877438,nan
1740795712.7844167,0.19374386210612032,-0.5247496323824928,0.14660156597577562,0.3457749910040374,nan
1740795712.7883227,0.4582334062351183,-0.21774760088855846,0.19981437574656485,0.38088124462781076,nan
1740795712.7922287,0.3854339845799269,0.24129296530281474,-0.006491553710289456,0.17878173521716878,nan
1740795712.7961388,0.05146435342272621,0.34942830772365846,-0.3467071364359378,-0.016493179534873507,nan
1740795712.8000448,-0.2508842268420483,0.0414115751581436,-0.5653142927986062,-0.0663741930989803,nan
1740795712.8039505,-0.30364733297823077,-0.27420857166777224,-0.43008740605997275,-0.04745321680936184,nan
1740795712.8078566,-0.1420368800285992,-0.2162700397950225,0.07823661038041758,-0.08362286496314521,nan
1740795712.8117623,0.037914405586574974,0.1391196412368425,0.6735870698777207,-0.1556311766521782,nan
1740795712.8156683,0.09691848674334057,0.3789549794567462,0.9170134210615825,-0.13928501896833026,nan
1740795712.819574,0.05354282254733662,0.23698262235095943,0.5683877031704799,-0.000418382279242027,nan
1740795712.8234801,0.004157041696651646,-0.13443731625247324,-0.16034931366531918,0.131625940959978,nan
1740795712.827386,-0.0014216322826531807,-0.37382341084313103,-0.7370826757049739,0.11776646857622573,nan
1740795712.831292,0.01116048196606148,-0.3025857912480288,-0.7588747270159413,-0.013244012492459297,nan
1740795712.8351977,0.0018077759779681819,-0.05165532839455938,-0.3000877209299674,-0.09974314089234225,nan
1740795712.8391037,-0.02963438207982804,0.14951640831219018,0.19115608423613017,-0.04898306886714104,nan
1740795712.8430135,-0.04811989030069786,0.21152119210941026,0.3396958729926526,0.0580662545894681,nan
1740795712.8469195,-0.020594913598989677,0.1919659480809477,0.16823550717999355,0.08911605215157181,nan
1740795712.8508253,0.05377653723876273,0.14682290485182353,-0.015160712269610115,0.03680693729915037,nan
1740795712.8547313,0.1312463626622819,0.061154164480954204,0.003791440896708875,0.009197741359102805,nan
1740795712.8586373,0.13757009138656365,-0.07723078854473425,0.13879636308056703,0.054064261212863625,nan
1740795712.862543,0.024176727513294433,-0.20872560091898418,0.1672247445300293,0.07087310231563168,nan
1740795712.866449,-0.16050843037318818,-0.2492817183138041,0.02379408748314677,-0.049071272242089875,nan
1740795712.870355,-0.27020629941070856,-0.17815602435271363,-0.13587959900006855,-0.23329639704391306,nan
1740795712.874261,-0.17953572062246556,-0.040913912167577116,-0.14792686048871623,-0.26428143851558994,nan
1740795712.8781667,0.06992742045247667,0.11418276313915053,-0.039808528825417876,-0.037395207605961996,nan
1740795712.8820727,0.26920539234838575,0.2510486183855098,0.02597564522505525,0.26954538480165624,nan
1740795712.8859785,0.23310849723515428,0.3000182601107184,-0.030983012093761864,0.3524831002380568,nan
1740795712.889888,0.00020232608251381787,0.17372827743142957,-0.11587444102066699,0.11191651705790293,nan
1740795712.893794,-0.19170700952688102,-0.10735305642375581,-0.09382346495774194,-0.22218741745081014,nan
1740795712.8976998,-0.15430219173695203,-0.3388393284892445,0.03707096049092243,-0.3268957708329693,nan
1740795712.9016058,0.046706298495200575,-0.28220617368846546,0.1537377457115639,-0.12214333354406934,nan
1740795712.9055116,0.1697284787521385,0.05733558304889025,0.16470653180202596,0.16634723752243924,nan
1740795712.9094176,0.07520996104986646,0.35733609352782963,0.09837671168410032,0.26721802369334435,nan
1740795712.9133234,-0.11840914955761798,0.2740952829990494,0.024303455988702188,0.13622988418968698,nan
1740795712.9172294,-0.18172322230447574,-0.16696908301299154,-0.0513618021923357,-0.04893861201654444,nan
1740795712.9211352,-0.04505388915106309,-0.5399284718178504,-0.15236167915874257,-0.11882671445201831,nan
1740795712.9250412,0.13009937002586325,-0.4364031764046805,-0.22009414949421052,-0.07690347330738136,nan
1740795712.928947,0.15342975726,0.09753087215228969,-0.1271281076429121,-0.03608568876365155,nan
1740795712.932853,0.02527002292384467,0.59081412976922,0.1426084723763045,-0.05444146017663522,nan
1740795712.936762,-0.08929412645162738,0.6198822129657439,0.3766458383461035,-0.08373291513332125,nan
1740795712.940668,-0.07797345448541056,0.21081621646507254,0.29754934331075444,-0.06051916663799438,nan
1740795712.944574,-0.004913442452857492,-0.24358896716656728,-0.11466217839502353,0.010629012993281893,nan
1740795712.94848,0.005299946508866084,-0.4108033497494411,-0.519303897705284,0.08400973468917448,nan
1740795712.952386,-0.048921818910465945,-0.2980502128877859,-0.5148722749476794,0.1398854038442399,nan
1740795712.9562917,-0.04727219531385931,-0.12869458708953177,-0.058737929573726144,0.18013660338026716,nan
1740795712.9601977,0.07034370215226976,-0.04477794564806855,0.46019172176984435,0.17280099677479555,nan
1740795712.9641035,0.1923219907252196,-0.004516050517274841,0.6025710345403473,0.06063705028783497,nan
1740795712.9680095,0.15717977272219164,0.07108626558141104,0.30777980597099486,-0.144783082878102,nan
1740795712.9719152,-0.03847384880114403,0.16040059911718935,-0.09469189160073732,-0.3131319361182655,nan
1740795712.9758213,-0.2153231077866899,0.19167153013182225,-0.2787094247335823,-0.2962756946514748,nan
1740795712.979727,-0.2104647654664165,0.16117592657224644,-0.2477614630282629,-0.09188723589333905,nan
1740795712.9836357,-0.056075829569197065,0.11947328830448582,-0.22737335204310227,0.12996447073885226,nan
1740795712.9875417,0.07802620636821422,0.0590230809559022,-0.29721009296277734,0.1940957508724937,nan
1740795712.9914474,0.09226088992736846,-0.08792725547493482,-0.2541902858809915,0.10078687160462636,nan
1740795712.9953535,0.04887019334312979,-0.2967288900794804,0.09852148346670636,0.008790833718200565,nan
1740795712.9992592,0.04854481404561811,-0.3747563191505123,0.5955444108752534,0.039932346101597474,nan
1740795713.0031652,0.07901632509881645,-0.15012297631714705,0.7718579775726985,0.13761878343196024,nan
1740795713.007071,0.04598616700232174,0.25661417907549305,0.346567158947152,0.1442749951468836,nan
1740795713.010977,-0.06526690244937136,0.45839128254499817,-0.4028884997608328,-0.0020864885218592893,nan
1740795713.0148828,-0.13649669237926293,0.19596145652949412,-0.8416438197968552,-0.18907081955744365,nan
1740795713.0187888,-0.06413623591963126,-0.31815587054188915,-0.592708320998527,-0.2548364250471381,nan
1740795713.0226948,0.08439678094383771,-0.5538579108289543,0.07836670559971814,-0.15973993265533962,nan
1740795713.0266006,0.13094740222514353,-0.214769914774885,0.5324714099622785,-0.008343334342489064,nan
1740795713.0305088,0.00817112060336019,0.4126383190639123,0.4035007287786553,0.08133318439800738,nan
1740795713.0344148,-0.1412118166658046,0.7282608651239104,-0.059146260187777334,0.09143877381052996,nan
1740795713.0383205,-0.1321110749998649,0.4307038389022497,-0.3002381569583957,0.08041468394467392,nan
1740795713.0422266,0.02753379808367135,-0.19385490621716275,-0.06788453369808944,0.08360950066314302,nan
1740795713.0461326,0.13643231191402164,-0.598605166721099,0.3342166883771629,0.0763183958434678,nan
1740795713.0500383,0.05032506872605393,-0.5211947413850494,0.40240862052180576,0.030632059283257428,nan
1740795713.0539443,-0.12456401574979893,-0.15585538205135624,-0.006791980776743367,-0.029798112000836464,nan
1740795713.0578501,-0.14632998856946225,0.15146897491605535,-0.5141044469052359,-0.05546658717126761,nan
1740795713.0617561,0.06594436692410707,0.25497138132861763,-0.6112787409290444,-0.03606669246118759,nan
1740795713.065662,0.31143439792208777,0.22565906827198487,-0.18364340915021526,-0.012841835308160153,nan
1740795713.069568,0.3156497114710977,0.13696062136391987,0.3788955476202465,-0.02410003828159479,nan
1740795713.0734737,0.030304401318715757,-0.02008907430103854,0.5758973470699641,-0.05896801055995019,nan
1740795713.077385,-0.31345346069322005,-0.20188538003140513,0.2768258508727201,-0.07533293165163794,nan
1740795713.0812907,-0.4415515623116787,-0.23379695169905984,-0.18661116354165863,-0.049189549914514026,nan
1740795713.0851967,-0.28630543792279844,0.008967023074310028,-0.372838085172629,0.008573446702014879,nan
1740795713.0891025,0.0018041450954168255,0.3699221848143084,-0.14975540260147657,0.07379090003844523,nan
1740795713.0930085,0.23319936501084382,0.4894462423371671,0.22014024805308166,0.12417905668898326,nan
1740795713.0969145,0.31945930874173745,0.18204682762955424,0.36635543447316243,0.132477066186199,nan
1740795713.1008203,0.26416335351540254,-0.323089826384867,0.15473728304428608,0.07340541509435106,nan
1740795713.1047263,0.10253835078582446,-0.6013608741650318,-0.22875229244202394,-0.039070758268222254,nan
1740795713.108632,-0.09829381402431309,-0.4783911504247421,-0.48046126818935986,-0.134268315576614,nan
1740795713.112538,-0.2219618044395263,-0.17261683753973603,-0.43349183773104183,-0.13768899322525774,nan
1740795713.1164439,-0.17154224225718406,0.025034803410342126,-0.14229928666261718,-0.052442222989457034,nan
1740795713.12035,0.012310266382749553,0.11096146935977838,0.21401426312665148,0.03448575144101245,nan
1740795713.1242607,0.14824674843614172,0.3004543020511886,0.4662216070157852,0.047531414628132686,nan
1740795713.1281664,0.08581753792528005,0.631134026818566,0.5188117906990317,0.010022852997063667,nan
1740795713.1320724,-0.1204855339244356,0.7894402769298289,0.35723068756594517,0.006734351854722376,nan
1740795713.1359782,-0.2513699048795898,0.44331419025296853,0.05147201852360513,0.06045753291938671,nan
1740795713.1398842,-0.15541216118079365,-0.3021303728435966,-0.25526520868892727,0.08688315081577722,nan
1740795713.14379,0.08610757534750911,-0.9152515782738929,-0.41919527022920594,0.004554057559476902,nan
1740795713.147696,0.2527438231597534,-0.9552799971526654,-0.4015799572978213,-0.13263736033928863,nan
1740795713.1516018,0.22261939413488194,-0.5055903002185158,-0.2940857315280471,-0.1681727412726839,nan
1740795713.1555078,0.07677197065654691,-0.01970925796595574,-0.20509593249578587,-0.02949667737172863,nan
1740795713.1594136,-0.03029914378101738,0.21152418486113758,-0.11758474294913035,0.1581931663600658,nan
1740795713.1633196,-0.04941612166846161,0.3150513695347365,0.09664260550822727,0.1962732429006952,nan
1740795713.1672254,-0.04753949820353995,0.5311297648447104,0.48016852043407016,0.04769348738423097,nan
1740795713.1711357,-0.07406216654868893,0.7848817488118819,0.8265594009699234,-0.10674030224786689,nan
1740795713.1750417,-0.08887147795345675,0.7176967939615615,0.7896089859526662,-0.08170725580620078,nan
1740795713.1789474,-0.047022993635893136,0.1574411502450077,0.22330266695494586,0.07648336518424795,nan
1740795713.1828535,0.0017557838980284785,-0.5756647772065853,-0.5873139956203053,0.1303994050189245,nan
1740795713.1867592,-0.033454553019499324,-0.9440179098965487,-1.0938765449699612,-0.057120940513745035,nan
1740795713.1906652,-0.13535680127965477,-0.7426102743143794,-0.942511791819471,-0.32542703697989694,nan
1740795713.194571,-0.15171597205229942,-0.2726830713643773,-0.2845488854034177,-0.3673235027628477,nan
1740795713.198477,0.03230891989973219,0.04829325161633302,0.3739769194624622,-0.07341914640067886,nan
1740795713.2023828,0.3201654446257836,0.1432643048859166,0.6305928088324854,0.3266550621861071,nan
1740795713.2062888,0.46183444796946366,0.2520779045341667,0.4912549647003487,0.4946823438235676,nan
1740795713.2101946,0.3045273404142731,0.5078641342212188,0.24883987020535783,0.3255514813993913,nan
1740795713.2141006,-0.04658071244390606,0.6912493049071206,0.12599831597483216,0.02052190991105775,nan
1740795713.2180104,-0.33991177966378505,0.489487169317169,0.08945474185632878,-0.16382789985038598,nan
1740795713.2219162,-0.4213902909046954,-0.07236474401694162,-0.007387002534883875,-0.17837249396442725,nan
1740795713.2258222,-0.3313491945767326,-0.5856231954136504,-0.18776662438847558,-0.1643092143663494,nan
1740795713.229728,-0.18211531197132508,-0.6714450514813486,-0.32310819631300486,-0.22167107832178706,nan
1740795713.233634,-0.014652036561554598,-0.36021230517110653,-0.31404333832841763,-0.272232704275136,nan
1740795713.2375398,0.1811421923894057,-0.0006991704091055655,-0.2148650958855734,-0.17528642518113824,nan
1740795713.2414458,0.3525204057846029,0.15216610469099975,-0.1351033245273824,0.07181530255138596,nan
1740795713.2453518,0.37996484518093543,0.1570526781534998,-0.06849092017248772,0.30688482842319226,nan
1740795713.2492576,0.21725604382089722,0.1895463439464194,0.09480183542174676,0.37395774081166727,nan
1740795713.2531636,-0.018600212973765226,0.24485416193540033,0.368751139860726,0.2739144741610706,nan
1740795713.2570693,-0.15690267129189622,0.15150072919447938,0.5595767041926252,0.12394387041581968,nan
1740795713.2609754,-0.160258697422993,-0.13499636444188476,0.4371229130907079,0.004750363232253101,nan
1740795713.2648847,-0.14327717750274532,-0.3756787673383671,0.020618183957298118,-0.10297140721525878,nan
1740795713.2687905,-0.1908225433859054,-0.2764454301218878,-0.378585017892474,-0.2330998863278647,nan
1740795713.2726965,-0.2210664416858201,0.15133583930276787,-0.4556946720673249,-0.33858404003879655,nan
1740795713.2766023,-0.09457875933226012,0.540768721688447,-0.23280726607122162,-0.32280197460686755,nan
1740795713.2805083,0.16092976684956214,0.5165361463291664,-0.02195814941539234,-0.15581174906750106,nan
1740795713.2844143,0.322521898614992,0.06561682596543857,-0.056092941509720225,0.07593823439717476,nan
1740795713.28832,0.21767503444259495,-0.45845825826515746,-0.2132206860275705,0.24564682012411657,nan
1740795713.292226,-0.04835839776035634,-0.6722749840991397,-0.16606133351523153,0.29171618110642544,nan
1740795713.2961318,-0.1880829600247018,-0.4742549280483843,0.20610547083437436,0.2392502999545102,nan
1740795713.3000379,-0.06165631823977466,-0.057886289448936194,0.6244733226864336,0.14327401364899384,nan
1740795713.3039436,0.15716652495198905,0.302584976099254,0.6755700147148657,0.04144546287072331,nan
1740795713.3078496,0.19207011388696948,0.44505610538853135,0.24809983095029975,-0.0447230312937562,nan
1740795713.3117585,-0.001866586910244451,0.3626115912186473,-0.3407455159936127,-0.10148506310402704,nan
1740795713.3156645,-0.19450944210155732,0.15285542939737862,-0.6584935559269612,-0.136931224663759,nan
1740795713.3195703,-0.17800826230489514,-0.04492570758587897,-0.5551733379788482,-0.17995056503432877,nan
1740795713.3234763,-0.024207643164680413,-0.11931161087606465,-0.22986929729511216,-0.23223395046347106,nan
1740795713.3273823,0.027133407512497626,-0.06170460173246742,0.04784704756599151,-0.22846360533246513,nan
1740795713.331288,-0.09752963205281028,0.020467089909936224,0.2027508579680544,-0.08746820724235874,nan
1740795713.335194,-0.18918281857608885,0.0021684416273744463,0.32196164952063666,0.17205729971208797,nan
1740795713.3391,-0.025074400849533107,-0.12956648473364377,0.4322621357177298,0.39298818035898003,nan
1740795713.343006,0.3099395247809909,-0.26158226233514453,0.40781314230275983,0.40208150530560827,nan
1740795713.3469117,0.470850155063147,-0.27870868724763026,0.13180800178069962,0.1829897362155064,nan
1740795713.3508177,0.2414797249880221,-0.1749098344245752,-0.3007388466685172,-0.09714839032937604,nan
1740795713.3547235,-0.19394267780351024,-0.018467186307881654,-0.6079219369458588,-0.24924741989895702,nan
1740795713.358632,-0.4299609500926865,0.1591659916348582,-0.5660843116739832,-0.23189594999491353,nan
1740795713.362538,-0.270601963940702,0.3718257771234026,-0.2090887972579038,-0.1423283511246624,nan
1740795713.3664439,0.07845810788779445,0.5607159146583909,0.22121968124952174,-0.06652684749837987,nan
1740795713.37035,0.25524030664044745,0.5442699360037314,0.49164288898036784,0.005497729750879153,nan
1740795713.374256,0.12133097345190251,0.18307217993646477,0.5229864227646384,0.10102373805119984,nan
1740795713.3781617,-0.14144806432412876,-0.3912209669344567,0.35736120044075065,0.16123917187628406,nan
1740795713.3820677,-0.26980226295999077,-0.7936129176140913,0.06143884150477543,0.09048480032629538,nan
1740795713.3859735,-0.17818604869584603,-0.7158174509620713,-0.2882906783601012,-0.08812327172348655,nan
1740795713.3898795,0.02667107862115302,-0.24063929175048615,-0.5570054563075689,-0.19830328738109873,nan
1740795713.3937852,0.20835671499846073,0.22703617607405627,-0.575504147048604,-0.09289123186971715,nan
1740795713.3976912,0.3042020110723499,0.36407142323424524,-0.27735157903298285,0.1496392830573128,nan
1740795713.401597,0.292302888950748,0.22575547446830696,0.1900374383375159,0.2794641329350672,nan
1740795713.4055054,0.15211010645527523,0.11233080332156166,0.5375607059107231,0.15187149383726609,nan
1740795713.4094114,-0.08682358215959282,0.1870009653141026,0.5574008322562383,-0.09758595467568534,nan
1740795713.4133172,-0.2992490051673474,0.3065639489833788,0.28644378434499107,-0.2048082176111413,nan
1740795713.4172232,-0.34424439375639226,0.2419515671734967,-0.05056321193991164,-0.08450427926742447,nan
1740795713.421129,-0.209328587790616,-0.018122710156682934,-0.25152419744963134,0.07938036042637861,nan
1740795713.425035,-0.03099040803016398,-0.2645330958988785,-0.28479452308989134,0.06988426336987683,nan
1740795713.4289408,0.05720184885460707,-0.3406237988426799,-0.24566196280632382,-0.09677422220562655,nan
1740795713.4328468,0.06634327105951562,-0.3109667432142682,-0.20599811457197467,-0.2052877249058993,nan
1740795713.4367526,0.1024891826131475,-0.30680879178018156,-0.13872135648894193,-0.12034055976639058,nan
1740795713.4406586,0.195602047788121,-0.2827364950003207,0.01232055389058661,0.05406318082281615,nan
1740795713.4445646,0.24304882282619517,-0.054013782622319886,0.22071317282126143,0.13260676334017862,nan
1740795713.4484704,0.14912457117679748,0.39612349197485225,0.36625205868627525,0.09860041974208161,nan
1740795713.4523816,-0.030708704995411132,0.7525238225082147,0.34044720385700367,0.10203841418730776,nan
1740795713.4562876,-0.14661214019939922,0.6339591432904595,0.15053843873313275,0.20986269675935115,nan
1740795713.4601934,-0.14245314278137403,0.03766812466556237,-0.0891079561675399,0.2638958263267525,nan
1740795713.4640994,-0.11520260446666497,-0.5670892687035258,-0.2602617918351122,0.07327320631673163,nan
1740795713.4680052,-0.15593056308364892,-0.6640888011680115,-0.3224000687617972,-0.2904587811119862,nan
1740795713.4719112,-0.19407161479945198,-0.20333965859219832,-0.295569744015055,-0.5048405471406158,nan
1740795713.475817,-0.08275851617524144,0.35093433141431624,-0.190599142111294,-0.3514149428525823,nan
1740795713.479723,0.16685327828208318,0.48606061835962033,0.007441248899262075,0.011541310709017157,nan
1740795713.4836287,0.3313157320087226,0.12180973167709103,0.27159532362786654,0.21997183720384128,nan
1740795713.4875348,0.22210380062958962,-0.3697765704121707,0.47316504117235864,0.13242404678942576,nan
1740795713.4914405,-0.056778245273593056,-0.5613433363201542,0.44085695361245825,-0.014023023292424048,nan
1740795713.4953465,-0.19485830906481452,-0.3378184621702795,0.12290324871135457,0.07298954065855583,nan
1740795713.4992573,-0.04158563716537889,0.08970387627285861,-0.30728160236061336,0.33902833027139734,nan
1740795713.5031633,0.19348144324617983,0.43280508756577446,-0.5466214469568043,0.4216196053695628,nan
1740795713.507069,0.1824040539521598,0.5370390587777244,-0.4123618074822182,0.10496292458916862,nan
1740795713.5109751,-0.11132040751283703,0.4083135413579535,-0.0184209366053422,-0.370704434148507,nan
1740795713.514881,-0.3652371251813458,0.1391940275946555,0.31169544136638144,-0.5487940575118786,nan
1740795713.518787,-0.27709905170387905,-0.14853783357076966,0.3341442112870239,-0.2749565451192469,nan
1740795713.5226927,0.06575554703017641,-0.34158919100560275,0.09989342834631985,0.12891887330079208,nan
1740795713.5265987,0.2865716502710647,-0.3867548402492629,-0.1196634095156331,0.24451366154371992,nan
1740795713.5305047,0.17062781438094082,-0.3179864080627807,-0.1184033198334641,0.028894775657916906,nan
1740795713.5344105,-0.0894733399843633,-0.20408847331079458,0.046565335566896744,-0.18098040234950938,nan
1740795713.5383165,-0.1534637630063092,-0.06658308715903856,0.14721105806952334,-0.10541714656406416,nan
1740795713.5422223,0.0375197752582778,0.11698374256563797,0.05326455895904195,0.15361021381898746,nan
1740795713.5461326,0.20470189843146228,0.31752098411050184,-0.12598681127581204,0.2804535280964003,nan
1740795713.5500383,0.10869684570103252,0.4119792562250203,-0.18017979458716862,0.15647749379334508,nan
1740795713.5539443,-0.13263408302862448,0.2967736372392253,-0.04946791945170495,-0.016627220998670363,nan
1740795713.5578501,-0.1958641177135506,0.03915930253189182,0.10463781057439156,-0.012193513653249013,nan
1740795713.5617561,0.023351124584517265,-0.1503569230755899,0.09135899690402041,0.11521055324725743,nan
1740795713.565662,0.25991889801786855,-0.13933729339698395,-0.07828156284616418,0.11055196303960813,nan
1740795713.569568,0.1987931420807206,-0.032337581113942145,-0.19300901632424014,-0.13366575087146723,nan
1740795713.5734737,-0.13704592662234275,-0.047275933934482255,-0.08102427054463542,-0.4203848059980834,nan
1740795713.5773797,-0.41053559131704814,-0.23355527136325716,0.18142156110159038,-0.47506806724876555,nan
1740795713.5812857,-0.3611052383493702,-0.381089974713915,0.33270576614536757,-0.25280746167427426,nan
1740795713.5851915,-0.07098589436639485,-0.25692615974034816,0.20054799578806234,0.05557986102994145,nan
1740795713.5890975,0.19104254246503946,0.10427477429095532,-0.10525089185216101,0.28218843521547365,nan
1740795713.5930076,0.2969126673690752,0.4144040284493587,-0.29155185101299297,0.4334022870492834,nan
1740795713.5969133,0.32537864363408625,0.44020330613524644,-0.17615385474626985,0.5492835284974004,nan
1740795713.6008193,0.33344954807073734,0.23289849684775532,0.11931281698409461,0.519622445807059,nan
1740795713.6047254,0.21257248537903795,0.016432468954635224,0.2734197782634849,0.17716616436680477,nan
1740795713.6086311,-0.13025427553713687,-0.09054953235624918,0.0735446225047203,-0.4112311262087416,nan
1740795713.6125371,-0.5204608076197705,-0.15310593223532243,-0.3563249715738209,-0.8623583565442794,nan
1740795713.616443,-0.6014802037057777,-0.23352577191789162,-0.6253314739632997,-0.7951825359353051,nan
1740795713.620349,-0.23387914478116814,-0.24724093856091875,-0.40314499744807314,-0.23088870363476233,nan
1740795713.6242547,0.27711134454908637,-0.09357221861135197,0.26220515865669136,0.3927047604575528,nan
1740795713.6281607,0.4611971254212338,0.1287523500428772,0.919059877049282,0.6309287548267088,nan
1740795713.6320665,0.1880387046134194,0.1774758942702837,1.040851089282011,0.42050066421080734,nan
1740795713.6359725,-0.19268898659733427,-0.015550489303074835,0.4657920404904112,0.05090402699921243,nan
1740795713.6398818,-0.2513416412302277,-0.19242163584604022,-0.4313070254101557,-0.17848712657901078,nan
1740795713.6437879,0.04810445086370051,-0.06040054800916332,-1.0213210592388846,-0.19677361874455326,nan
1740795713.6476936,0.34424357914595033,0.29220062436976996,-0.9398273861269487,-0.09376433418834346,nan
1740795713.6515996,0.3142076381475063,0.42668885197410616,-0.37470896043074997,0.051347902037700704,nan
1740795713.6555054,0.014367187079203777,0.08658854813328945,0.1567281818614642,0.18942242847272792,nan
1740795713.6594114,-0.24309165329656338,-0.40414959427071434,0.3228996298957984,0.22021603500446918,nan
1740795713.6633174,-0.26463464342578946,-0.4499900612439887,0.2574869588269733,0.03933288777728336,nan
1740795713.6672232,-0.13358156272513325,0.08177802925960988,0.31423456123845284,-0.2814299574193286,nan
1740795713.6711292,-0.026159194962616643,0.5972280414235037,0.5801945774656014,-0.45951844561142025,nan
1740795713.675035,0.006493812792016498,0.4043381999666733,0.7153837099229067,-0.2700151392060558,nan
1740795713.678941,0.016417241192236438,-0.4309308004954012,0.33466862130095004,0.1529738249728134,nan
1740795713.6828468,0.009908032392621101,-1.0395939549552327,-0.47940740106554997,0.3940441845762584,nan
1740795713.686756,-0.05342618290108365,-0.6676208803706787,-1.1345557801989494,0.20568813523464036,nan
1740795713.690662,-0.11506629328868745,0.44492965530384,-1.0628576793157873,-0.1776087139897724,nan
1740795713.6945677,-0.005171940184146484,1.2505126572491143,-0.28948853251572154,-0.2753191816429304,nan
1740795713.6984737,0.3240485808672109,0.9802363092229814,0.5688971677939466,0.08142391497327293,nan
1740795713.7023797,0.6120807798519393,-0.06708207158278093,0.8769172376644664,0.5210162254690461,nan
1740795713.7062855,0.4840248502618909,-0.8856940837521399,0.5291077633445536,0.5274326626617505,nan
1740795713.7101915,-0.11038561552051941,-0.8229006414552084,-0.05280914441994958,0.020306932401623054,nan
1740795713.7140973,-0.7372196274224123,-0.15497815262326145,-0.3852124646112523,-0.5484862812349568,nan
1740795713.7180033,-0.8650197321618274,0.3632931075050233,-0.3185773895449933,-0.6825377921803404,nan
1740795713.721909,-0.4097541938543521,0.3409507938358808,-0.021537042832348127,-0.34090358749502775,nan
1740795713.725815,0.18551124090220353,0.027044034007266526,0.27972812965918487,0.09551120142254886,nan
1740795713.7297208,0.43652883852841023,-0.14475084693201537,0.44653181340182213,0.2816045938572305,nan
1740795713.7336295,0.30471221277427657,-0.06738568052403912,0.3816780347499932,0.2202756153179001,nan
1740795713.7375355,0.13595813982715496,0.0544677128488436,0.01799338022006855,0.12237657281047754,nan
1740795713.7414412,0.17892971054187012,0.07158274816553871,-0.5406236656239339,0.09204947250724599,nan
1740795713.7453473,0.30002424991216037,0.053080285114943594,-0.9391463806480999,0.06349693689802077,nan
1740795713.7492533,0.2176790631671592,0.08972169882241285,-0.797305294188964,-0.0005244104035247283,nan
1740795713.753159,-0.09398322135253889,0.11074496737338363,-0.10067987173725748,-0.0038375377602917634,nan
1740795713.757065,-0.3654046913103975,0.006820130968803084,0.689354479441635,0.11725090021771332,nan
1740795713.7609708,-0.37881592453100266,-0.1542513425934055,1.0122452940875448,0.21771509216724785,nan
1740795713.7648768,-0.22049453068287814,-0.1878640739435034,0.716015222291529,0.07135573349874738,nan
1740795713.7687826,-0.11565501145602544,-0.06950575636054437,0.1510759648792148,-0.3120840920867897,nan
1740795713.7726886,-0.10350025654784666,0.00023076439522914377,-0.23680626088109608,-0.6098324425129121,nan
1740795713.7765944,-0.014271367743381853,-0.10438268750612933,-0.3305933579267214,-0.5100707839024952,nan
1740795713.7805026,0.22892162618790973,-0.18312192869470487,-0.31801247724942916,-0.0689981576169623,nan
1740795713.7844086,0.42842965793146504,0.061377966866362835,-0.3341632914584358,0.3456690513623134,nan
1740795713.7883146,0.3386703003724353,0.5391048341004965,-0.28384620585452625,0.46254222690898855,nan
1740795713.7922204,0.01359207606891631,0.7145391322083737,-0.06607893442850397,0.3596859224878601,nan
1740795713.7961264,-0.21249234295184946,0.19769644006853268,0.16066903908635266,0.2680080492037188,nan
1740795713.8000321,-0.12429121938770483,-0.6757854570586006,0.11451648704392106,0.22417501739131857,nan
1740795713.8039382,0.10431087932538732,-1.0675100384369156,-0.19296812178787603,0.05814369673381891,nan
1740795713.807844,0.1327178521759598,-0.5306255090341735,-0.3407725066581202,-0.27714398948451224,nan
1740795713.81175,-0.11135616379363364,0.44258468448250643,0.0472970328668922,-0.5235250269750575,nan
1740795713.8156557,-0.349253547118389,0.917600264212555,0.7655754326079117,-0.3956472286456223,nan
1740795713.8195617,-0.31988270786283773,0.5281253774040068,1.113758740619711,0.011485581139498609,nan
1740795713.8234675,-0.09939004363537987,-0.1730337758892822,0.6219407609044539,0.25669113265431,nan
1740795713.8273787,0.04906355970516549,-0.41819049068358044,-0.384165218084386,0.062175750475500766,nan
1740795713.8312845,0.06275987323146479,-0.1112867012574125,-1.0702489506681259,-0.3160090483500821,nan
1740795713.8351905,0.14093086738539246,0.16647890584928976,-0.9520290235546841,-0.3575872874942878,nan
1740795713.8390965,0.3826276033277857,-0.024077854337136797,-0.354821260317958,0.09884429557537792,nan
1740795713.8430023,0.5345419721953997,-0.40764567038419547,0.04038050833239829,0.6368259620942898,nan
1740795713.8469083,0.2767946209098469,-0.38294807076430043,-0.0005183338857293923,0.7290273595453903,nan
1740795713.850814,-0.2819869513942977,0.1599269182537159,-0.07431987312338086,0.32536977922401367,nan
1740795713.85472,-0.6073230777721457,0.6581118770837511,0.2476808028709522,-0.14663782224421318,nan
1740795713.858626,-0.35001158275870753,0.5551507412064921,0.8015716350179936,-0.3306371925623704,nan
1740795713.862532,0.1722849106675413,-0.03512867319014005,0.987967845561513,-0.31884143660360764,nan
1740795713.8664377,0.30064521603241096,-0.5016700644506613,0.5041665648986735,-0.3970643015016776,nan
1740795713.8703437,-0.1546527956213969,-0.4727554612267257,-0.2644541634429724,-0.5486761243071326,nan
1740795713.8742545,-0.6255108217468041,-0.16088367784265334,-0.6738927031894328,-0.4287179446723409,nan
1740795713.8781602,-0.4428393623459705,0.049052928735420234,-0.5319493188725295,0.12347213022107693,nan
1740795713.8820662,0.3267608694299523,0.11725576004062438,-0.22983333222228874,0.7257009237629006,nan
1740795713.885972,0.9102030599224155,0.25642240381953696,-0.18893556838113604,0.7943390425975642,nan
1740795713.889878,0.7208890938293029,0.4424749419393606,-0.358272590061372,0.22892502681664514,nan
1740795713.8937838,0.02865249291191865,0.3337432940528023,-0.36840369307273696,-0.4110242105884971,nan
1740795713.8976898,-0.4103016840422591,-0.19971246110268995,-0.0657944646860273,-0.5010149704954355,nan
1740795713.9015956,-0.27550749798171015,-0.6978031146124586,0.3077997775488338,-0.03037474091450257,nan
1740795713.9055016,0.00881194846904513,-0.5561936297246999,0.48780435011736,0.434073446310064,nan
1740795713.9094074,-0.07569619839191041,0.1642964766699555,0.5367807696622533,0.4222515818402606,nan
1740795713.9133134,-0.4294166511537521,0.6694339552000513,0.6555394099173618,0.03987916657473022,nan
1740795713.9172194,-0.5023617038231679,0.3520766579747636,0.7431365262382813,-0.2786652774308519,nan
1740795713.9211297,-0.08182287915293249,-0.3990281164605905,0.41144034059332923,-0.3413779079018416,nan
1740795713.9250355,0.39367222929520096,-0.6103220642482151,-0.4474686819376916,-0.3387186378256549,nan
1740795713.9289415,0.4287349501906497,0.051813004566095916,-1.2914929439100424,-0.43964435882465025,nan
1740795713.9328473,0.14431452421005803,0.7876276592025432,-1.3842563558709702,-0.47033384572108045,nan
1740795713.9367533,0.0705334887542881,0.623910580927441,-0.6424490566796967,-0.15066135859345225,nan
1740795713.940659,0.32839452127479873,-0.31891203493687775,0.19377454358234575,0.4451376817840708,nan
1740795713.944565,0.384220309440695,-0.9022555521356869,0.39399129971853913,0.8772203553819301,nan
1740795713.9484708,-0.17485077035141552,-0.38827135779596306,0.10972327765886594,0.8413765073581225,nan
1740795713.9523768,-0.874246719776784,0.5739408494135895,0.15747160854912565,0.5160883982512391,nan
1740795713.9562826,-0.7841067690377497,0.7235753460654176,0.8997965627437353,0.26662493256915065,nan
1740795713.9601886,0.22556279156119202,-0.18534608152137463,1.620235248768392,0.10367600196471807,nan
1740795713.9640946,1.0667343018919988,-1.001670315500301,1.28269866914393,-0.3205264623418046,nan
1740795713.9680045,0.6366671856331241,-0.6208954270214104,-0.15701793215079646,-1.1026505994666662,nan
1740795713.9719102,-0.7075508050486771,0.5497446457836956,-1.5234154220494087,-1.6909831884219253,nan
1740795713.9758162,-1.3654676094740261,1.0558317908114732,-1.6733516742735166,-1.3645434779591588,nan
1740795713.979722,-0.386613313948705,0.29388766792585697,-0.7772624717304378,-0.12246324827220709,nan
1740795713.983628,1.216126489458078,-0.6177142557526849,-0.05212407102080225,1.1378251241095114,nan
1740795713.987534,1.524167242722859,-0.2723193563456049,-0.23633167110578138,1.5036776077122587,nan
1740795713.9914398,0.04925803341687018,1.0203545609995726,-0.6892473676334694,1.0126563294486233,nan
1740795713.9953458,-1.5196651571228679,1.3602420361712497,-0.26666622470492635,0.5251725608091377,nan
1740795713.9992516,-1.2587838881944946,-0.3514667205408568,1.109413155174767,0.6169617693495997,nan
1740795714.0031576,0.6071531207045837,-2.660688545702811,2.2034586543483257,0.834608020446956,nan
1740795714.0070634,1.8655381442221572,-2.893131027301083,1.9232869984555028,0.26759735841416427,nan
1740795714.0109694,0.9757510762393727,-0.2952888949801389,0.650236069582744,-1.2106988181680227,nan
1740795714.014879,-0.9979918683895316,2.7692395783706134,-0.3124185269552358,-2.5467149646722644,nan
1740795714.0187848,-1.6669792794263452,3.2628752586394842,-0.5100877046894619,-2.5075988928124318,nan
1740795714.0226908,-0.32978376391621206,0.8882033732983631,-0.9422229535871851,-0.9798369057576966,nan
1740795714.0265965,1.0731159602561935,-1.5616305902561434,-2.4769558519447887,0.893798790941418,nan
1740795714.0305026,0.425067605848097,-1.444018376380078,-4.009938506980737,1.8583238181436124,nan
1740795714.0344083,-1.662471632720292,0.6718442373306964,-3.0718317895823555,1.675117427122941,nan
1740795714.0383143,-2.291389267180349,1.7582184283556768,1.210792311346921,1.077778822002757,nan
1740795714.0422204,0.1694128363883813,0.011031431079660032,6.136044767763003,0.7947360536406185,nan
1740795714.0461261,3.684819882357436,-2.920191479150015,7.291543810217782,0.8154174732175536,nan
1740795714.0500321,4.48625302493693,-3.7815721323599294,2.936291653285709,0.5847867010450825,nan
1740795714.053938,1.3366019993920453,-1.40314300612337,-3.697062306364924,-0.29499782329370694,nan
1740795714.057844,-2.89018109269153,2.1002059021679402,-7.056065301551977,-1.6434569211244272,nan
1740795714.061753,-4.318204065068248,3.8189050998691956,-4.527429092067607,-2.7994861122419574,nan
1740795714.0656588,-2.287973886897969,3.053713557786131,1.0655209086355126,-2.9648880532230337,nan
1740795714.0695648,0.2667919029343063,1.3683503165854776,4.364208230524863,-1.6218549477550515,nan
1740795714.0734706,0.6109194764513082,0.13707599314538507,2.7632852238207932,0.9635317417463136,nan
1740795714.0773766,-0.5475649375666237,-0.9477535091787377,-1.35116255802328,3.4637397114511455,nan
1740795714.0812824,-0.33331416211814807,-2.583867931280437,-3.470738050682612,4.083063867771103,nan
1740795714.0851884,2.195509887247975,-3.9230662500932807,-1.6279888967292206,2.0527354256707655,nan
1740795714.0890942,4.411012103766594,-3.0841920951378223,2.0007692607314307,-1.230755145584641,nan
1740795714.0930002,3.2066320754203756,0.2010590197879179,3.776796920984736,-2.9749053078195695,nan
1740795714.096906,-0.9204587611489419,3.3944423006527695,2.2978887044017573,-1.5226910088544576,nan
1740795714.100812,-4.0160068867854175,3.554904158395715,-0.6893735914847069,1.6997218681476165,nan
1740795714.1047177,-3.1826080092015063,0.8238977720487746,-2.524316423353211,3.163101160766828,nan
1740795714.1086266,-0.07496531754879561,-1.425969282773842,-2.1773645891666287,0.6654328619234511,nan
1740795714.1125324,1.0551011285321497,-0.45920819310492894,-0.6236908033061845,-4.1191300661201495,nan
1740795714.1164384,-1.3529705419724414,2.358175159362444,0.6376021602868016,-6.825213263917353,nan
1740795714.1203442,-3.9338454247927053,2.9131676077501933,0.9018299430187927,-4.444474944766599,nan
1740795714.1242502,-2.215064900220324,-0.6785593482639852,0.33569026030761145,1.7252646450912226,nan
1740795714.128156,3.750218937011162,-5.311482387538122,-0.5301202918591048,7.184447544601853,nan
1740795714.132062,8.636194915228133,-5.96745227047338,-1.0191923273191446,8.210766670588272,nan
1740795714.1359677,7.233311460113923,-1.417976530352378,-0.4496856903468497,4.737758183339539,nan
1740795714.1398737,0.1107949886299435,4.060352185436557,1.2333892156951876,-0.366679953503606,nan
1740795714.1437795,-6.771948847056998,5.211221577432462,2.824636842914869,-4.243235160651923,nan
1740795714.1476855,-8.069307103803416,1.5658921702319575,2.4695265454716577,-5.9248042362641415,nan
1740795714.1515913,-4.059867873589127,-2.1644707930026392,-0.41514668509670505,-5.756462963272799,nan
1740795714.1554997,0.53988643509519,-1.5874260735961152,-3.8514382121393615,-3.9737955231103963,nan
1740795714.1594055,2.065201594049351,2.282003426920685,-4.610550998908136,-0.5918254238493449,nan
1740795714.1633115,1.300443690499903,4.21833529764653,-1.406330122246943,3.4934076376434926,nan
1740795714.1672173,1.3731755388760039,0.9186282236522516,3.2981612447552724,6.17847577975326,nan
1740795714.1711233,3.279229358631011,-4.953524540000245,5.2334206444551565,5.65058318139016,nan
1740795714.1750293,4.564318939867204,-7.445722274981195,2.4641260461224705,2.2500948750937493,nan
1740795714.178935,2.5201027304269212,-3.7217502047434214,-2.503502387240421,-1.5607635358651482,nan
1740795714.182841,-2.1721097064580044,2.909832315385063,-5.041936130925237,-3.3464681445524085,nan
1740795714.1867468,-5.745173107291442,6.523444587964412,-2.9086824602354002,-2.7513230729680096,nan
1740795714.1906528,-5.210558863315016,4.584634409877241,1.6798669335149299,-1.3504200360756982,nan
1740795714.1945586,-1.3578801905421072,-0.025914968401936304,4.449400278941946,-0.6861854119588539,nan
1740795714.1984646,2.2968855619282733,-2.6573647392349056,3.2733508404316067,-0.7817679203117339,nan
1740795714.2023757,3.1351074337013323,-1.7296339088529915,-0.16932340299344495,-0.6043585921495419,nan
1740795714.2062817,1.593728639996823,0.4082887974571105,-2.619728455290234,0.4022973379632562,nan
1740795714.2101877,-0.05584077412603404,0.8409994331088535,-2.5457961446006565,1.6332664960640713,nan
1740795714.2140934,-0.3717502047020059,-0.637936705185602,-1.032313884446366,2.10914155651792,nan
1740795714.2179995,0.19413296719275422,-1.8703372002250125,0.12079108946694209,1.5641457130384742,nan
1740795714.2219052,0.49048230591234654,-1.2821151096718324,0.4262265389781083,0.5449864899301897,nan
1740795714.2258112,0.18185343662151612,0.33729348657054203,0.6154519826649376,-0.3491752934981307,nan
1740795714.229717,-0.20471437603704562,1.1073235931494172,1.0870071040044724,-0.9715701833549939,nan
1740795714.233623,-0.31483309778292246,0.4723807557885364,1.2113651649380832,-1.3607546916946451,nan
1740795714.2375288,-0.452603623365444,-0.25966651653323597,0.3592279674069866,-1.3375740138490315,nan
1740795714.2414348,-0.9237549321572289,0.26083913345815773,-0.9045405371222207,-0.6906108300790935,nan
1740795714.2453406,-1.3104136290705881,1.6181908631163657,-1.2460221486741976,0.3159781424334264,nan
1740795714.2492516,-0.8227204079991675,2.0412859664899385,-0.2054841765617026,0.9614826558742272,nan
1740795714.2531574,0.6250102946557382,0.5024903164391428,1.0531555621585396,0.7746653065687816,nan
1740795714.2570634,2.00466720029653,-1.962973609423161,0.9875370511071826,0.07722244259140978,nan
1740795714.2609692,2.0731408425054085,-3.2036898924618877,-0.480383463348551,-0.37593675167173896,nan
1740795714.2648752,0.6491544256983678,-2.0928187205208717,-1.7638067270392779,-0.2503347730924721,nan
1740795714.268781,-1.1353557656991538,0.4073210582971623,-1.376695185234422,0.08890534523683889,nan
1740795714.272687,-1.877957170723102,2.2359286134637766,0.37094273846761716,0.18950113432163698,nan
1740795714.2765927,-1.1469198476124933,2.125655886793359,1.7191024313149872,0.146253626362242,nan
1740795714.2804987,0.270492930882988,0.5424696597839203,1.4136292601131377,0.36742716506744,nan
1740795714.2844045,1.1954100081203918,-0.9977715715632225,-0.0011147105386117438,0.7978815407375726,nan
1740795714.2883105,1.0471375189253742,-1.3352021215200698,-0.952929287674477,0.7485784367474362,nan
1740795714.2922165,0.143425892402089,-0.47634857373062983,-0.6360779791170252,-0.261232120488456,nan
1740795714.2961266,-0.743086891241519,0.6834442708791069,0.27468358918031804,-1.6564328428733286,nan
1740795714.3000326,-1.0267241551248452,1.2174760134775722,0.6399719903245251,-2.1573013516126824,nan
1740795714.3039384,-0.6432486504427907,0.815717327285112,0.193386120705692,-1.1157835797147617,nan
1740795714.3078444,0.041403144134222795,-0.15349624419675378,-0.38425299508002053,0.6857434688567814,nan
1740795714.3117502,0.5692440952897095,-1.021726059715577,-0.5101634982079234,1.7823197394134502,nan
1740795714.3156562,0.7108546515508991,-1.277326890178099,-0.3748993930242988,1.5217981792314161,nan
1740795714.3195622,0.5564311017684503,-0.8285137928778061,-0.4288077814528841,0.6038879393912935,nan
1740795714.323468,0.3321098380056681,0.009479365943951757,-0.5343298927904998,0.0978617929599096,nan
1740795714.327374,0.13408940904194178,0.7362889521261842,-0.07524034850979046,0.18111829682491432,nan
1740795714.3312798,-0.12838984947121984,0.9594571226925834,1.0401967099736436,0.10995762911670848,nan
1740795714.3351858,-0.5108840447984195,0.614554138166302,1.8745279243206858,-0.6349407026841486,nan
1740795714.3390915,-0.8172711513130693,0.002584181369322976,1.3393040130645162,-1.5290396976325087,nan
1740795714.3430016,-0.7203734601423024,-0.3990724201807177,-0.4448679827490617,-1.5600705170224216,nan
1740795714.3469074,-0.1513389103348714,-0.27999611583637696,-1.9980968481399692,-0.47075230215371666,nan
1740795714.3508134,0.5056595562592361,0.2248621538931002,-1.915893242971078,0.8506689920333427,nan
1740795714.3547192,0.7265167161455744,0.5870806879181623,-0.35565071900472267,1.3126663485603065,nan
1740795714.3586252,0.38462435400313705,0.3247058470348771,1.1248864094926363,0.7646434036838843,nan
1740795714.362531,-0.10051630182963438,-0.4964119426346423,1.2254223224906193,0.024247338741049607,nan
1740795714.366437,-0.21588909750143476,-1.208791813838057,0.20018658039988502,-0.14305742395902246,nan
1740795714.370343,0.08373028944383162,-1.1075034948316227,-0.6114950474019841,0.1780470622695456,nan
1740795714.3742487,0.3528269684997738,-0.1596973143530386,-0.3752964148916387,0.3446467415386162,nan
1740795714.3781548,0.19709376844267065,0.8795925831541751,0.39576807642709083,0.027247200383369533,nan
1740795714.3820605,-0.2608869760324287,1.1573687108338784,0.6256829861211501,-0.4517733336525028,nan
1740795714.3859665,-0.5373072775743699,0.5641120618311943,0.0266950765557491,-0.6178614694813792,nan
1740795714.3898761,-0.36131608811551835,-0.17190196031660696,-0.615906286748341,-0.4252132051922164,nan
1740795714.393782,0.026036120716253268,-0.2807739868135224,-0.4799354281294325,-0.18929502233385037,nan
1740795714.397688,0.18816617363601335,0.2100770138298244,0.2682420296454972,-0.08510475855931336,nan
1740795714.4015937,0.017080078423715683,0.5338426359890877,0.6957990681209629,0.03841895232960947,nan
1740795714.4054997,-0.16859254526003814,0.09315825639835675,0.24917207470692215,0.3114274616650462,nan
1740795714.4094057,-0.04196776806028225,-0.8063539564033951,-0.5860374182485054,0.534742680127509,nan
1740795714.4133115,0.3263504414657105,-1.252418059806393,-0.87120495973778,0.41192510810982524,nan
1740795714.4172175,0.5530234360060692,-0.7368387911291185,-0.2989220268929013,0.015342211397563624,nan
1740795714.4211233,0.3829247409469674,0.26728732748063805,0.504576041755858,-0.21283424789993854,nan
1740795714.4250293,-0.047244055275353254,0.8248530776584657,0.7399739554153454,-0.01321030370487543,nan
1740795714.428935,-0.3919559541542038,0.5608761509771482,0.3000239082850799,0.2995896133699244,nan
1740795714.432841,-0.4555363006481767,0.01981391727625745,-0.23395375410586314,0.18957625514730422,nan
1740795714.4367502,-0.3106618324007772,-0.0284036402492878,-0.3330749476717394,-0.38740521529015454,nan
1740795714.4406562,-0.12035837155809725,0.4875840180627566,-0.05442789987501868,-0.8330640724068671,nan
1740795714.444562,0.044372686735821676,0.854800893739149,0.1857722072329123,-0.5861380130922449,nan
1740795714.448468,0.18221969635485433,0.4134501890257334,0.1745759982060989,0.16784396466151502,nan
1740795714.452374,0.2514916412155749,-0.6489130907489682,0.06052099307378204,0.6584928717541545,nan
1740795714.4562798,0.1858504165286191,-1.4372796038226843,0.009064198704857751,0.4154568552106434,nan
1740795714.4601858,0.01737662507681645,-1.2497280663895962,-0.07175577670305633,-0.18293945120867225,nan
1740795714.4640915,-0.10344980650583183,-0.25485771829169795,-0.3305108728763361,-0.36995818442918155,nan
1740795714.4679976,-0.06511715982113293,0.7260209260955238,-0.6103863149815824,0.09359798477522055,nan
1740795714.4719033,0.06388037092611408,1.0163424584285097,-0.5072779269225832,0.6506116055251041,nan
1740795714.4758093,0.11135017642247413,0.6145623071794374,0.12855913165666674,0.6279271851464863,nan
1740795714.479715,0.013548253918045311,0.024849455008345518,0.8705400872556707,0.0199809414138453,nan
1740795714.4836237,-0.10832340491945201,-0.2834299750785656,1.0564942883954134,-0.5533674583353408,nan
1740795714.4875295,-0.10852191338390542,-0.20697370995678235,0.4776753898926886,-0.602678201623884,nan
1740795714.4914355,-0.005141119773613975,0.06473412298471556,-0.366489239076624,-0.2828199827060259,nan
1740795714.4953413,0.0482932132796811,0.2843025830594895,-0.7655786242583681,-0.08195481956693004,nan
1740795714.4992473,-0.03365513238382427,0.28429988096398773,-0.5064568184607078,-0.15884168885731406,nan
1740795714.5031533,-0.1573979492999558,0.015857416420958725,-0.01991385715923607,-0.19260920172809926,nan
1740795714.507059,-0.16917587095683492,-0.41293272705755585,0.1518846568998917,0.10908506566224939,nan
1740795714.510965,-0.03850158999031953,-0.7374867234892574,-0.06821029699633564,0.5542460944861197,nan
1740795714.514871,0.12711360743121702,-0.6878767547490775,-0.29471499051845385,0.6740400319077836,nan
1740795714.518777,0.22744245065937876,-0.22843071316044955,-0.18035755397895809,0.31885212525813134,nan
1740795714.5226827,0.25933179696032704,0.364065590136051,0.20018412992368378,-0.1377484726896545,nan
1740795714.5265887,0.2442911550414487,0.719028122840408,0.48457956928339274,-0.25441275142145353,nan
1740795714.5304968,0.14011257413989828,0.6891650165541625,0.4464262107276703,-0.05449350808855019,nan
1740795714.5344026,-0.0948035440870037,0.4308343711915829,0.19826275254188702,0.03883056926280387,nan
1740795714.5383086,-0.3639547128648686,0.17619502733567302,-0.004874985394744449,-0.22747319982019232,nan
1740795714.5422144,-0.4558842417119338,-0.016944391935198602,-0.06717649005332708,-0.5892875217077373,nan
1740795714.5461204,-0.2662469294117322,-0.24472193878450754,-0.1055821270010206,-0.5771191794564136,nan
1740795714.5500262,0.045846513355510675,-0.5266594625765666,-0.2470341216504201,-0.09378893091073126,nan
1740795714.5539322,0.20431793464493445,-0.6914251099312061,-0.4459363430104957,0.4528712175869105,nan
1740795714.557838,0.12674940325100748,-0.547620038947862,-0.519334308880761,0.6088602778465962,nan
1740795714.561744,0.016003763211355753,-0.13136165247100182,-0.32709687506370916,0.356711161451663,nan
1740795714.5656497,0.09459149319000584,0.28924762729653797,0.09700185243998366,0.06534587466004597,nan
1740795714.5695558,0.30175689640362974,0.47441197776912225,0.5546824522250188,0.02207719319958176,nan
1740795714.5734618,0.349059722308081,0.4298552804985353,0.792164249353431,0.13447424131609056,nan
1740795714.5773728,0.088001772897061,0.33025500854177586,0.6434266699966554,0.11837013924293512,nan
1740795714.5812786,-0.2712253999015165,0.2674516566063089,0.15507546211355305,-0.1225428984554083,nan
1740795714.5851846,-0.3878254598010538,0.15371249973862045,-0.39302321024347264,-0.39968525704845614,nan
1740795714.5890903,-0.19904213849497088,-0.10239922999053369,-0.6516912637072335,-0.4887443364544355,nan
1740795714.5929964,0.0071694472704629765,-0.39339018407074267,-0.48030708912614584,-0.36684828462357777,nan
1740795714.5969021,-0.036605132805685885,-0.4761786048006948,-0.08953461241982864,-0.16342086535404488,nan
1740795714.6008081,-0.22429041595669894,-0.25574526306864903,0.14273755850421926,0.04082460062559278,nan
1740795714.604714,-0.20296666533968732,0.05874582351355476,0.046819979777861016,0.26548874268198824,nan
1740795714.60862,0.15830193585672347,0.14972286735179874,-0.1612098832840726,0.49090153243601586,nan
1740795714.6125257,0.5467110169074563,-0.055322472626712485,-0.12244477465688443,0.5742180265594061,nan
1740795714.6164317,0.5380724341553281,-0.27905135262065,0.24186171508047197,0.38443447344890375,nan
1740795714.6203377,0.10299346990843933,-0.1821057009845316,0.6022392088688279,-0.005314474948032759,nan
1740795714.6242483,-0.33090250821292305,0.2574720741778412,0.5563723682468867,-0.33826026326736935,nan
1740795714.6281543,-0.3543747708416901,0.6890730279289538,0.06994162684144681,-0.4152614875980141,nan
1740795714.63206,-0.03211870293336577,0.7241731400807931,-0.4680231857789544,-0.27943882176946794,nan
1740795714.635966,0.1974131592883491,0.3062673223562284,-0.6351125774560561,-0.13254357894915073,nan
1740795714.6398718,0.0466786088305854,-0.2618740775703637,-0.37429689602050226,-0.0980847193348594,nan
1740795714.6437778,-0.2995637127200444,-0.6280895727211468,0.01819627283850441,-0.11452016871548092,nan
1740795714.6476836,-0.4273075961176011,-0.6827452358452147,0.2451572404174211,-0.05645029116905533,nan
1740795714.6515896,-0.18091608502681059,-0.5427724246084611,0.2663320713378659,0.09699643371834303,nan
1740795714.6554954,0.18679616807833732,-0.31597630027071394,0.2075504592775864,0.24989649398851732,nan
1740795714.6594014,0.34139009668860715,0.024511868904447707,0.12329635610418634,0.31208700695837,nan
1740795714.6633072,0.24031926680487156,0.49535057379473446,-0.04057489210778393,0.2792934621967251,nan
1740795714.6672132,0.11545128061946684,0.8972126916866081,-0.26183236743295685,0.18964420047692615,nan
1740795714.6711235,0.1394156757709338,0.8759712366879087,-0.3474831321105047,0.05535632517590912,nan
1740795714.6750295,0.2174820347609281,0.2772054813466522,-0.12786210465520445,-0.12164871366784945,nan
1740795714.6789353,0.14082720123886708,-0.572717834305357,0.2805208162623085,-0.29019247703385564,nan
1740795714.6828413,-0.12986664475629137,-1.0365679223223347,0.5155389527283879,-0.36085320125640086,nan
1740795714.686747,-0.4110128015007261,-0.7178891267187071,0.3339603535853436,-0.2940523803113662,nan
1740795714.690653,-0.5067054572253387,0.1257918042593657,-0.10821279826974757,-0.1463267665949221,nan
1740795714.6945589,-0.39386605190347923,0.7649629009740225,-0.4102391091166484,-0.003770303613657031,nan
1740795714.6984649,-0.17501849126320257,0.6569468643864559,-0.3567997763327429,0.11035806121722234,nan
1740795714.7023706,0.07887080292928147,-0.04706967963695875,-0.12261224760103219,0.22687061875582487,nan
1740795714.7062767,0.3560240016996894,-0.6592538882641809,-0.014587765246996516,0.33642940225021417,nan
1740795714.7101824,0.5900050198563006,-0.6268063386910122,-0.07694874481141568,0.35290892175449357,nan
1740795714.7140884,0.6199786770398067,-0.04164874194135556,-0.05367620672382996,0.20441745299978945,nan
1740795714.7179985,0.34136854960153024,0.5124245529299611,0.23999728433913778,-0.057921967957230355,nan
1740795714.7219043,-0.12487042181105704,0.5766994905559019,0.6026443439052511,-0.2812033418047257,nan
1740795714.7258103,-0.4868262715550975,0.23139863426823742,0.6066585374113844,-0.3468264440019784,nan
1740795714.729716,-0.5392194385958429,-0.09659248987371075,0.08459990948052862,-0.26107392090036136,nan
1740795714.733622,-0.34161434125535173,-0.15067098271895812,-0.6150898498388021,-0.10787908033985052,nan
1740795714.7375278,-0.11866926001749971,-0.0766648826031529,-0.9185211637580826,0.046791148746944414,nan
1740795714.7414339,-0.011564744229909,-0.1429983767491211,-0.5693711755356256,0.1689849241922951,nan
1740795714.7453399,0.02984309900729599,-0.34160751604658923,0.1411131905284905,0.20815355306227826,nan
1740795714.7492456,0.11907100391827574,-0.3818197658533671,0.667595565941023,0.11279209843381584,nan
1740795714.7531517,0.2601458561420711,-0.0805157169112864,0.6900532156668887,-0.07113973246982787,nan
1740795714.7570574,0.3427680672160165,0.35360828800442173,0.3091730161147964,-0.1736357542938358,nan
1740795714.7609634,0.2820635092424409,0.5205731523654203,-0.14783593373107493,-0.05613595929232888,nan
1740795714.764873,0.11020486720685381,0.28827366463894116,-0.4256874608870882,0.19513389182521082,nan
1740795714.7687788,-0.0757033559735456,-0.05392463549821276,-0.4547634085670105,0.30448217917281084,nan
1740795714.7726848,-0.20919922701277274,-0.14915074844671194,-0.27899389665637486,0.10038137762081029,nan
1740795714.7765908,-0.2698018467676997,-0.005697932497522193,0.02070551914774702,-0.25016046282723303,nan
1740795714.7804966,-0.24292821227939163,0.03550893441473929,0.32321418140633856,-0.3804293316197052,nan
1740795714.7844026,-0.12753296516874157,-0.2258604504231881,0.4699895224371973,-0.12947359466226507,nan
1740795714.7883084,0.012448717937327547,-0.5273449932106289,0.35227132070654316,0.24543151501848381,nan
1740795714.7922144,0.06861161820332888,-0.41337420369099726,0.01471582171096861,0.3288090836564564,nan
1740795714.7961202,0.011256384487995465,0.18475395748808135,-0.3495307393527231,0.011775609795180197,nan
1740795714.8000262,-0.03703077409848941,0.764092456624027,-0.5238985484469648,-0.37155247475009767,nan
1740795714.803932,0.07591948627259412,0.7422833960255836,-0.40178544726007853,-0.4064616913069929,nan
1740795714.807838,0.3145313725605332,0.10421796764140728,-0.036281031128177994,-0.04947024017924964,nan
1740795714.8117468,0.4245754349781439,-0.545823303659562,0.38572720157988083,0.34356548777713836,nan
1740795714.8156528,0.1935760890451847,-0.6193039726133199,0.6118201636123489,0.4257407455014163,nan
1740795714.8195586,-0.2624940050301258,-0.16376387058472738,0.4485521617421776,0.21454170891942123,nan
1740795714.8234646,-0.5488936408300914,0.23238383042965988,-0.07073692038182706,-0.00039973923212040555,nan
1740795714.8273706,-0.3846334538924795,0.136239425185054,-0.6131080327215165,-0.03811752859373048,nan
1740795714.8312764,0.07747020072335545,-0.23680325765825375,-0.7318897265629958,-0.011234830116096342,nan
1740795714.8351824,0.3830354094926589,-0.3012332040352402,-0.2503556523288775,-0.11411319618152092,nan
1740795714.8390882,0.24490759699539513,0.1752879149369246,0.5008216087919127,-0.32209209847744474,nan
1740795714.8429942,-0.15930352820560373,0.7465366693080637,0.8994967270395373,-0.40093590324248957,nan
1740795714.8469,-0.38786917476585625,0.7505585322621279,0.5786421757322412,-0.20748620697613945,nan
1740795714.850806,-0.20543203952473016,0.05183531887984171,-0.2126543400274619,0.11388346607949432,nan
1740795714.8547118,0.19379585067883978,-0.7665470891481484,-0.8223942731199231,0.29310692995128634,nan
1740795714.8586204,0.4272173513814282,-0.9796416210891555,-0.7930458803697341,0.24658074335297783,nan
1740795714.8625264,0.32591636200457985,-0.44362610481396814,-0.24404173855326258,0.14593718109691492,nan
1740795714.8664322,0.05462092217700977,0.29718061616559915,0.3248905542121333,0.16801772234024154,nan
1740795714.8703382,-0.12940951192451106,0.5965738087215701,0.5482461580378645,0.2550384911897513,nan
1740795714.874244,-0.15378525896184164,0.3352604516659051,0.4599987721064234,0.19120192910734302,nan
1740795714.87815,-0.13717611404008112,-0.05042781932129551,0.2892712685979602,-0.10540574568337108,nan
1740795714.8820558,-0.17800253237273908,-0.10318589230390976,0.1247029771536203,-0.4451278382576879,nan
1740795714.8859618,-0.21946953723981402,0.17174246808981902,-0.11724749665024987,-0.5538028491881337,nan
1740795714.8898678,-0.14285211971532336,0.36946001238163895,-0.43302200797411555,-0.35660668791657885,nan
1740795714.8937736,0.05835594362322489,0.16915392295562978,-0.5935267879435502,-0.03086351121680068,nan
1740795714.8976796,0.24889973244126204,-0.31035897318826994,-0.37259539484712234,0.20328500647327558,nan
1740795714.9015853,0.2900243736048936,-0.6419443907909513,0.1243067059186202,0.2852098729654585,nan
1740795714.9054937,0.17067296699980883,-0.5293010057813028,0.48285285075363865,0.2943917487253653,nan
1740795714.9093995,-0.00440995323545408,-0.08155375321494099,0.39564075292654827,0.29051557300976194,nan
1740795714.9133055,-0.12195720194766407,0.32967865803319524,0.005293728527263364,0.23934855801778188,nan
1740795714.9172113,-0.13342824086996147,0.43818321170098873,-0.2454867566565091,0.09378453280618287,nan
1740795714.9211173,-0.05293567894691236,0.2890698470369667,-0.10400825422488813,-0.11156002732120548,nan
1740795714.925023,0.06391715938105776,0.11289840390835026,0.22518941877667542,-0.28175870173331913,nan
1740795714.928929,0.12870037838295645,0.052594220913265745,0.33797614411083776,-0.34986625332970744,nan
1740795714.9328349,0.05712703957244498,0.04484974705661845,0.09479276811580906,-0.30723450540280056,nan
1740795714.9367409,-0.14762171434849355,-0.04808229459827142,-0.25373849160165796,-0.16599505956423644,nan
1740795714.9406466,-0.3465284214965585,-0.2370076274074928,-0.39308157171226654,0.049061889355462095,nan
1740795714.9445527,-0.3470050833557759,-0.3694698826783142,-0.2920058815542298,0.25410147142686307,nan
1740795714.9484587,-0.0775100354746374,-0.29209977339305343,-0.153467867040081,0.3125451159505848,nan
1740795714.95237,0.3148542954775863,-0.025042889374474072,-0.08299971636026643,0.16084870776176935,nan
1740795714.956276,0.5620140808829726,0.24257172982478123,0.05213110581240402,-0.07341793037459791,nan
1740795714.9601817,0.48948766933016175,0.32714490273098823,0.37196910588912996,-0.1519605398504079,nan
1740795714.9640877,0.14894996369723035,0.20903844578725544,0.6885165729315689,0.022007199503549676,nan
1740795714.9679935,-0.24035193589873305,0.021205167831982792,0.6160367705465138,0.25962987290971495,nan
1740795714.9718995,-0.46313716137880406,-0.09603924441059324,0.029824493322916014,0.26114215057994244,nan
1740795714.9758053,-0.4366496601813692,-0.10895557388905174,-0.6751876309204299,-0.04770190878358073,nan
1740795714.9797113,-0.2230750585380167,-0.07121470439440074,-0.9044789093847304,-0.40282991745613644,nan
1740795714.983617,0.03634421184040627,-0.03140247460520405,-0.4671091356663512,-0.46888531000040984,nan
1740795714.987523,0.20462398319428746,0.008191771702390611,0.2082711851528295,-0.1969760839765747,nan
1740795714.9914289,0.2207976641984741,0.04984654319040273,0.5113013854764112,0.13682412389451395,nan
1740795714.9953349,0.1334611829040492,0.06019859934909868,0.27242617070836556,0.2509666362846663,nan
1740795714.9992366,0.05676671995063659,0.0041944095705502915,-0.11032955190934576,0.152481897890693,nan
1740795715.0031424,0.059422653457935876,-0.08987041597861657,-0.15678347962830513,0.06668811523667185,nan
1740795715.0070484,0.0890081059651163,-0.13482493212555713,0.16466255997451706,0.11908155619881634,nan
1740795715.0109541,0.033176844644051094,-0.0742506834532344,0.4464257104215877,0.18357017480468077,nan
1740795715.0148602,-0.12738113939316903,0.04634074127335466,0.3355282057763914,0.08146032576493198,nan
1740795715.018766,-0.2553814140060959,0.12184517366542744,-0.08088936250273858,-0.14378522555580214,nan
