timestamps,TP9,AF7,AF8,TP10,Right AUX
1740797040.957893,0.01918840919928283,0.23813687864400243,-0.993158646011359,-0.19423858325093143,nan
1740797040.9617987,0.07192990053535132,1.2148730000678236,-1.0486393750372465,-0.1071543682323173,nan
1740797040.9657047,0.07228347690178001,1.5323608238615645,-0.36447468322833854,-0.0019364289803399776,nan
1740797040.9696105,0.10582488486263132,0.9993154143040679,0.4186428329465457,0.08048334092989645,nan
1740797040.9735165,0.1639473758344974,0.005792082367281991,0.7310319740889729,0.12425809380736327,nan
1740797040.9774225,0.14994442216332393,-0.7573231397740144,0.5053161360960449,0.1285458812492134,nan
1740797040.9813282,0.014577148514167167,-0.855824928037458,0.08587490515933646,0.10125771817975071,nan
1740797040.9852343,-0.1540334608918469,-0.4595665951876655,-0.17086724658938318,0.059297539634802506,nan
1740797040.98914,-0.20546149611242392,-0.12887864935303514,-0.17854222166378203,0.023124388998573508,nan
1740797040.993046,-0.08572435955650812,-0.2210342966814621,-0.08517331582123308,0.003007809749562281,nan
1740797040.9969518,0.10024807470771153,-0.5102980919628982,-0.057622824011432386,-0.010565453614702576,nan
1740797041.0008578,0.18925985268014917,-0.43588647752334725,-0.13125885528055672,-0.039601841607098724,nan
1740797041.0047655,0.1109580045472559,0.2527840724770554,-0.22407186047907277,-0.09560913202045099,nan
1740797041.0086713,-0.06260030802535586,1.1319591622993939,-0.2369458536524014,-0.15782631267111194,nan
1740797041.0125773,-0.19717604689343288,1.4420944084750869,-0.12560282036042547,-0.1756635902672256,nan
1740797041.016483,-0.2075104589696061,0.8217741262969837,0.09000123644060197,-0.10525922968394079,nan
1740797041.020389,-0.10119296272998235,-0.30646036579945235,0.3426519968984538,0.041913944599002155,nan
1740797041.0242949,0.051901509218076874,-1.1050869393978286,0.5305047385663277,0.1862161197135258,nan
1740797041.0282009,0.17206138867535348,-1.082427205299445,0.5380886235944061,0.23234781182469777,nan
1740797041.0321066,0.20762727296233893,-0.48769681699822764,0.29127148994157015,0.15301377479169131,nan
1740797041.0360126,0.15506624280810705,0.026765626903948472,-0.16720658609818598,0.02147556242109536,nan
1740797041.0399187,0.057875021033254634,0.08899064607375677,-0.6454711521608021,-0.05361297354554968,nan
1740797041.0438244,-0.025822587516965603,-0.07673271195328643,-0.8769998381552405,-0.03569945723202834,nan
1740797041.0477304,-0.0707316312014598,0.006149965345723412,-0.6887988970316257,0.004159106438652101,nan
1740797041.051638,-0.09926901503065924,0.4707344258177759,-0.14885615842284408,-0.028805665999310264,nan
1740797041.0555437,-0.14015972140534955,0.9119219177966661,0.44481454425654543,-0.13644379368424056,nan
1740797041.0594497,-0.17583115503884894,0.8017804143239537,0.7601091421152383,-0.21267418948834696,nan
1740797041.0633554,-0.14890492702199376,0.0755863511219879,0.6692686693960399,-0.15629468476624278,nan
1740797041.0672615,-0.031394736875067636,-0.7322758593094641,0.32581311215036374,0.011510566132328585,nan
1740797041.0711672,0.12411172551969812,-0.9640013314973948,0.008469713382875726,0.1612701031629693,nan
1740797041.0750732,0.22116983809856697,-0.46383726877893233,-0.12349938465575956,0.1888074011796174,nan
1740797041.0789793,0.20963201388363756,0.2671470354396368,-0.13592641465398514,0.1165965152224565,nan
1740797041.082885,0.12551064082999236,0.5471437776276423,-0.2000074696661223,0.04898555221787746,nan
1740797041.086791,0.03633329628186889,0.1607303386468973,-0.3834396686984892,0.04114352785593948,nan
1740797041.0906968,-0.034618480741274674,-0.4502391320459433,-0.5637966734336992,0.04254014413363273,nan
1740797041.0946028,-0.1081314931996369,-0.6308550504811895,-0.5379977887830392,-0.019646229822905297,nan
1740797041.0985117,-0.1807414113118285,-0.1511231812573496,-0.2104294147814333,-0.1271534693574533,nan
1740797041.1024177,-0.19313004994303817,0.5829543960214213,0.31031021772708445,-0.1758633512074024,nan
1740797041.1063235,-0.09568461885103059,0.9319939166232466,0.7700316255170998,-0.1004313869670809,nan
1740797041.1102295,0.06438870069281302,0.6219814350793434,0.919883224420369,0.03368635023111299,nan
1740797041.1141355,0.15857383487482565,-0.04491789680371368,0.6591252144341261,0.09049450569204648,nan
1740797041.1180413,0.10321181491941617,-0.5303551272519011,0.10091623239760418,0.0142398654881179,nan
1740797041.1219473,-0.04065889465858907,-0.5619769580112353,-0.47402422528422916,-0.10266639938531655,nan
1740797041.125853,-0.11838422629637094,-0.29865634682400954,-0.7739194844762705,-0.1151808223710894,nan
1740797041.129759,-0.03981019419483943,-0.06565514813524088,-0.6849260074934037,0.020670970522829468,nan
1740797041.1336648,0.12640322748875768,-0.011521635874518092,-0.3473697851437692,0.20220868628538885,nan
1740797041.1375709,0.22438775156791302,-0.045464733359978644,-0.02806881922286532,0.2823040082541304,nan
1740797041.1414766,0.16618414770697118,-0.03600629741391726,0.1174016012123181,0.20139562085530394,nan
1740797041.1453855,0.003763614090336474,0.030369637476026872,0.1620783612984884,0.019364408790981228,nan
1740797041.1492915,-0.14269783344045925,0.10466439263037311,0.2740147831217601,-0.1575534824196352,nan
1740797041.1531973,-0.20166026707008974,0.1982112256987774,0.4729752146835427,-0.2579138102465453,nan
1740797041.1571033,-0.18626701675632734,0.3513417896654066,0.56208563366945,-0.26367643217549963,nan
1740797041.1610093,-0.13891443378687876,0.48481602488837167,0.3379968077842013,-0.1867473009970173,nan
1740797041.164915,-0.07476508694952953,0.38941565754115637,-0.14385740015497578,-0.055859601880348254,nan
1740797041.168821,0.01253959395761473,-0.04438410723189315,-0.5628368050143574,0.08122957534229319,nan
1740797041.1727269,0.11434924337437839,-0.6066097990642523,-0.6216981891106051,0.1729852674279624,nan
1740797041.176633,0.20029728766771943,-0.8775445140878224,-0.3271488983794251,0.19897901987673353,nan
1740797041.1805387,0.24273749249213558,-0.6218848042201054,0.04038835786017216,0.1811140784714742,nan
1740797041.1844447,0.2270488880294325,-0.046056261886610675,0.2208890758534185,0.1473039419133018,nan
1740797041.1883507,0.1376201245982851,0.39519741842819955,0.19648141782875153,0.09052341422260704,nan
1740797041.192259,-0.03668997803326093,0.44811239074461834,0.11617131905009458,-0.016607955863049834,nan
1740797041.196165,-0.25748019717272447,0.2651598360463118,0.06608381050259687,-0.16157379909414202,nan
1740797041.2000709,-0.41105822507182527,0.15360212422337752,-0.004404769993140814,-0.2667252458387236,nan
1740797041.2039769,-0.37250448874328496,0.19748592490846556,-0.12358268783061616,-0.24930064512919342,nan
1740797041.2078826,-0.12718688713358506,0.21366933197892962,-0.15763237428910645,-0.11048636066424111,nan
1740797041.2117887,0.18073018312943864,0.05910919354548629,0.06454408153038678,0.052019236479348675,nan
1740797041.2156944,0.3525579813554475,-0.14523292921358544,0.47091397717328354,0.13330298700660176,nan
1740797041.2196004,0.30501934671760406,-0.18483279575635736,0.6790981466868158,0.11791929719671741,nan
1740797041.2235062,0.13081880862441564,-0.0831184714715805,0.3202386262345534,0.0771695606686557,nan
1740797041.2274122,-0.01350173986330959,-0.11330295934104753,-0.5267015278212838,0.07513751095500186,nan
1740797041.2313182,-0.06394008455761203,-0.4157678516267717,-1.2670939905420102,0.09663424596910045,nan
1740797041.235224,-0.07691301728481466,-0.7054149881672735,-1.2403526799960796,0.07879306158668811,nan
1740797041.2391324,-0.1151680074640295,-0.5153638982572273,-0.3125670842619705,0.0005474325340957182,nan
1740797041.2430382,-0.1481744286158488,0.23253619589600466,0.937616158108277,-0.08323269223559038,nan
1740797041.2469442,-0.09607491421570998,1.0135038355466217,1.6324391280554778,-0.10437522396031597,nan
1740797041.25085,0.042573510335844736,1.1731887550708266,1.268638238627958,-0.06283949077568456,nan
1740797041.254756,0.15195029373107843,0.6054969122271879,0.10150131393416903,-0.02731321192885397,nan
1740797041.258662,0.11489789214306617,-0.14055933793003397,-1.0502427368900973,-0.05339706217489192,nan
1740797041.2625678,-0.04648558327920675,-0.46820371817024087,-1.407729963557976,-0.11464237527771164,nan
1740797041.2664738,-0.17705268360990628,-0.36121260952293754,-0.7865103110225167,-0.12520002644514233,nan
1740797041.2703795,-0.14498845433258067,-0.3058360443366475,0.29379250954766567,-0.029289502571804512,nan
1740797041.2742856,0.024000161408904343,-0.612616733445088,1.0151904603097477,0.13648174541810115,nan
1740797041.2781913,0.18058618874623372,-0.9620623384133312,0.8827857079398916,0.2673364243218026,nan
1740797041.2820973,0.2069453036716228,-0.7391098065025024,0.08976110102335981,0.27279704054954806,nan
1740797041.2860055,0.11789694434886462,0.21285844435678,-0.6708431253859598,0.1430959323755258,nan
1740797041.2899113,0.011467250677584081,1.292900845746904,-0.8020623884176447,-0.047876753301327145,nan
1740797041.2938173,-0.05050071893744693,1.6621054940553555,-0.2955969267452419,-0.19530764548476745,nan
1740797041.2977233,-0.08787196709828514,1.0304771363247445,0.3195351489841474,-0.23112208489157243,nan
1740797041.301629,-0.1390644630387333,-0.10676437302097046,0.513086098145299,-0.16393050932437328,nan
1740797041.305535,-0.18682693210293308,-0.9658478546146927,0.24497790235955363,-0.06538613206474352,nan
1740797041.3094409,-0.1689626141384129,-1.1297157346041367,-0.06842631998247196,-0.008990105545538052,nan
1740797041.3133469,-0.055007365014006535,-0.7395966078683522,-0.04798776234046681,-0.006746404098656886,nan
1740797041.3172526,0.10733775057676101,-0.19320497004933074,0.23626697981862138,-0.002323057012778301,nan
1740797041.3211586,0.2270697820328497,0.21066073125546472,0.36921070213875956,0.06426852321764188,nan
1740797041.3250647,0.2417980834316461,0.3670618613110125,0.07276171030758055,0.17918954419819932,nan
1740797041.3289704,0.15445221912352863,0.29151154475752683,-0.4737294264732818,0.24886051916344984,nan
1740797041.3328784,0.0167354314356854,0.08973335266762382,-0.810511560813805,0.1845701184254257,nan
1740797041.3367844,-0.10624367189692373,-0.043557616785988955,-0.6519132045307632,-0.001478483223170412,nan
1740797041.3406904,-0.16245856840471792,0.0534133497156853,-0.12611935421730588,-0.19013406887270742,nan
1740797041.3445961,-0.13367076613116344,0.31395602413667895,0.4058262300542685,-0.2537493297408102,nan
1740797041.3485022,-0.05124671360275779,0.4394509731178832,0.6893987771638791,-0.16611975331854867,nan
1740797041.352408,0.016003274325506616,0.1949522948765326,0.7044051037172455,-0.018643810653677168,nan
1740797041.356314,0.01416456551168704,-0.2893162579108463,0.5305303092501757,0.06780697473679856,nan
1740797041.3602197,-0.042073306479391864,-0.5986701438381559,0.2068301061594553,0.0469034272098508,nan
1740797041.3641257,-0.07591209568420135,-0.46506105592763286,-0.2281587616064089,-0.025974555109128817,nan
1740797041.3680315,-0.022829579485537183,-0.06549070369648438,-0.6278027709236196,-0.05517193629662548,nan
1740797041.3719375,0.09837744383035177,0.18041032931540443,-0.7779977362881686,0.009116729905112971,nan
1740797041.3758435,0.19537507212876457,0.08934032208945746,-0.5857374527206005,0.13021008229185246,nan
1740797041.379751,0.18660014061076416,-0.10145440439656951,-0.18466048805555826,0.21319713941071522,nan
1740797041.383657,0.07383009498705238,-0.06170372178608874,0.19044959474338083,0.17720490673799422,nan
1740797041.3875628,-0.06683768100731356,0.20902859136103702,0.41611847112188255,0.02241442061431467,nan
1740797041.3914688,-0.15545883656835674,0.39493777806529723,0.5248743956056601,-0.1579030379145762,nan
1740797041.3953745,-0.16354119737301487,0.2855742490808968,0.5524267837935375,-0.2409566874126741,nan
1740797041.3992805,-0.11177277433201441,0.04911076628704756,0.42348641951790256,-0.17472638308698013,nan
1740797041.4031866,-0.03670688857012466,-0.009430394474206303,0.06006203326512023,-0.027822233858965845,nan
1740797041.4070923,0.029733573876602547,0.10811976605300332,-0.41851483194696437,0.07053982798506189,nan
1740797041.4109983,0.06337416562376401,0.054439239008743326,-0.6981925829733758,0.0550903953848063,nan
1740797041.414904,0.05594360361980106,-0.39122229688492466,-0.5447634535746491,-0.012266095319716855,nan
1740797041.4188101,0.027839447265146772,-0.920401571795079,-0.06696248891188994,-0.01636729899965761,nan
1740797041.422716,0.017571708271841176,-0.9255662647346613,0.3491218623837725,0.07359866183091146,nan
1740797041.4266233,0.04238101401582727,-0.17467446054110516,0.39677999090893995,0.15982365012137273,nan
1740797041.4305294,0.07240501955265133,0.8403114924441348,0.12555544395773297,0.1260992595124146,nan
1740797041.4344351,0.05921456084263494,1.3258240641803747,-0.1486692654212777,-0.01809939030236475,nan
1740797041.4383411,-0.005417638783676551,0.9482759796893255,-0.18260361483800686,-0.13333402074340647,nan
1740797041.4422472,-0.07199150736818294,0.1127901917461508,-0.01945238454479582,-0.10388922406733886,nan
1740797041.446153,-0.08595795817662141,-0.5071401585875992,0.12447441599760364,0.02432366334171124,nan
1740797041.450059,-0.050706967070419114,-0.6226942251444724,0.1272768092806579,0.08968736202554213,nan
1740797041.4539647,-0.020895260751717208,-0.4627540366444875,0.06741715843360582,0.0010742517749182429,nan
1740797041.4578707,-0.030544149474128212,-0.35004192023016717,0.07617931073571614,-0.15081899498992593,nan
1740797041.4617765,-0.04689257581656697,-0.308759395065795,0.14349943883525795,-0.1918699581990965,nan
1740797041.4656825,-0.013911745102565959,-0.15092347222307462,0.11632071801209602,-0.06192351828833458,nan
1740797041.4695885,0.06553771203833997,0.1648263028763382,-0.110733521659904,0.11836070620461035,nan
1740797041.4734974,0.11722654664618486,0.42249412105087253,-0.4316299005759309,0.18676007967792918,nan
1740797041.4774034,0.07946341364850948,0.42407407054932594,-0.5794454786658944,0.11687289485834389,nan
1740797041.4813094,-0.014831245846212912,0.2553901908310905,-0.35685961393520294,0.02623135013744765,nan
1740797041.4852152,-0.06453404168989822,0.1664281991101082,0.16237466376365492,0.017587504985866885,nan
1740797041.4891212,-0.013840193480658035,0.21838455936049203,0.6471070736237509,0.05585095839882758,nan
1740797041.493027,0.07889363997054812,0.17826131926265837,0.7458639535575659,0.02963510731919265,nan
1740797041.496933,0.1018399300396322,-0.16833741026213955,0.3711519995353349,-0.08878527734785381,nan
1740797041.5008388,0.012656208521656673,-0.6687117778715349,-0.20312216084042256,-0.19287936720012996,nan
1740797041.5047448,-0.1169197894174482,-0.8815074138138642,-0.5414889117817019,-0.16707776635736682,nan
1740797041.5086505,-0.18131137477365858,-0.5340662201700652,-0.410213697757442,-0.030779654736139257,nan
1740797041.5125566,-0.14725184740142214,0.16075811753032537,0.007712535808348297,0.0802958830015227,nan
1740797041.5164626,-0.06605907309046506,0.6967050109442482,0.2723661890777763,0.07343814584286942,nan
1740797041.5203712,0.005901507333291189,0.7565458330237894,0.11042937216701298,0.002398536782810811,nan
1740797041.524277,0.06841089920815327,0.45318260648364117,-0.299032941564128,-0.009837199577285712,nan
1740797041.528183,0.14684311652728,0.11163576556996074,-0.4884531354744128,0.07129303977819595,nan
1740797041.532089,0.22248204098539354,-0.09566465828348758,-0.18263443469519883,0.1501392239688064,nan
1740797041.5359948,0.22709600785980769,-0.2363679097817951,0.39289340389626976,0.12228163802231888,nan
1740797041.5399008,0.11835006746078862,-0.3961259926339106,0.7184873527396451,0.0037992394119799994,nan
1740797041.5438066,-0.056945698808008004,-0.4889971295221736,0.5038212656558532,-0.09098795551634736,nan
1740797041.5477126,-0.19574645300840846,-0.35371731583501864,-0.02549186080610142,-0.0896364661547608,nan
1740797041.5516183,-0.23533248457642855,0.004234459403096361,-0.38579576318198644,-0.04203165366011194,nan
1740797041.5555243,-0.20284352510832876,0.35073625401440767,-0.3481290668808156,-0.04512157450376741,nan
1740797041.5594304,-0.16317310578800587,0.43474455108787646,-0.13603904654254062,-0.11258672119536682,nan
1740797041.5633361,-0.130954465828393,0.23279177706842993,-0.10260166692887616,-0.15379269970720622,nan
1740797041.5672448,-0.05264393035173976,-0.04251981509505472,-0.278594757525429,-0.08467038947638311,nan
1740797041.5711505,0.11862482660012731,-0.15913991231842325,-0.3281975030014524,0.06897055450871631,nan
1740797041.5750566,0.3390059559087678,-0.06541153367690643,0.028538847676501094,0.19783702572704515,nan
1740797041.5789623,0.4757414101345925,0.10589117935714644,0.6158455208686009,0.2239512553710148,nan
1740797041.5828683,0.40266276465252315,0.18163484293426205,0.9035286292320053,0.16364306118206975,nan
1740797041.586774,0.10846195713212238,0.08119708380567647,0.5314626591405623,0.078627391851265,nan
1740797041.5906801,-0.27272272215999205,-0.1458018891906613,-0.2926550406338741,-0.0027308297586556077,nan
1740797041.594586,-0.5356414702850097,-0.35683159165926914,-0.9425824671712486,-0.09106683055554626,nan
1740797041.598492,-0.5346267051947109,-0.39620357024534614,-0.922284743450905,-0.17896618714180387,nan
1740797041.602398,-0.28245346403025934,-0.20094703744178155,-0.2810105904988141,-0.21769453613110185,nan
1740797041.6063037,0.055828726732037086,0.12566259952002756,0.4680933823597453,-0.16959240682137994,nan
1740797041.6102097,0.2797708131783096,0.36676568354019484,0.7976484334178147,-0.0642900564427368,nan
1740797041.6141179,0.2991576463109837,0.3724480260768472,0.5590941788010776,0.025959804491397027,nan
1740797041.6180239,0.18854473529842145,0.2054667464039641,0.0227316339327268,0.06798937948979983,nan
1740797041.6219296,0.0981844289766791,0.07341147761826744,-0.39124209508369917,0.09956818490773876,nan
1740797041.6258357,0.10192920572147829,0.08806529625658509,-0.43247287256591627,0.1640231075931414,nan
1740797041.6297414,0.13222795336001977,0.11966157858688153,-0.16366184972156728,0.23006547071656236,nan
1740797041.6336474,0.06940309064049176,-0.05490480497490377,0.13570165909834955,0.20822489440935857,nan
1740797041.6375532,-0.11088393576822572,-0.4479826503492401,0.21071924886104315,0.057425374062992966,nan
1740797041.6414592,-0.2944248941811584,-0.7589145476672733,0.03642041124180631,-0.1447141564647065,nan
1740797041.6453652,-0.3384430963123556,-0.6376219597663156,-0.17540498172886557,-0.2617134429580544,nan
1740797041.649271,-0.2128081323652895,-0.058839366584261546,-0.18428458396005618,-0.22998622962592902,nan
1740797041.653177,-0.018841296094972936,0.6045257969083476,0.03607395033409144,-0.11594481036244396,nan
1740797041.6570828,0.12358943567285716,0.9067009626263545,0.2615689170624103,-0.03526100773060401,nan
1740797041.660991,0.18240005552286093,0.7141434090396325,0.2457890916321567,-0.027517448080464017,nan
1740797041.6648967,0.19880839479891477,0.2572391120246099,-0.009484318767060757,-0.02571138053815969,nan
1740797041.6688027,0.19554267162969574,-0.15756520221990766,-0.2354389059352116,0.05220567339156579,nan
1740797041.6727085,0.14092735206079984,-0.4151003078016668,-0.1730240144624437,0.1976315629101933,nan
1740797041.6766145,0.01409927349463587,-0.5585555587452935,0.13526318504104137,0.3063659055782552,nan
1740797041.6805205,-0.12768139645748233,-0.579995803872102,0.35720818758062645,0.27406470914500936,nan
1740797041.6844263,-0.18612053908464551,-0.3709728262435566,0.19597029534783558,0.09161907312444106,nan
1740797041.6883323,-0.12896083526706545,0.07304094783872483,-0.29216558781601265,-0.14535362580801708,nan
1740797041.692238,-0.030787778302015685,0.48452518454948956,-0.7079355954917508,-0.30750105661955285,nan
1740797041.696144,0.011218757867484724,0.4981674541383799,-0.6460843600513447,-0.31555617428874616,nan
1740797041.7000499,-0.014994429467709182,0.05795769465908984,-0.053326060176439025,-0.1811536437636837,nan
1740797041.703956,-0.038711195003065725,-0.40924256464817177,0.7007039528892108,0.0070816509926178986,nan
1740797041.7078638,-0.009526971741133166,-0.34597473563560627,1.0877691844812971,0.13734951060366127,nan
1740797041.7117696,0.03932617907474219,0.3395778281786189,0.8078813095390874,0.1437533614730127,nan
1740797041.7156756,0.050651878568105844,1.0594063689953592,0.015924169876005617,0.05283366216534705,nan
1740797041.7195814,0.0368443040031412,1.0221372120419612,-0.7727883796711138,-0.03317802284983357,nan
1740797041.7234874,0.06542722207367566,0.006921650735846606,-1.044796916797137,-0.01912632710135097,nan
1740797041.7273934,0.14388403941899258,-1.3195073634173153,-0.669238880303736,0.09533394897341066,nan
1740797041.7312992,0.1674892956724925,-1.9072795702692986,0.005241565856337972,0.20597957254297267,nan
1740797041.7352052,0.03284979583621568,-1.228045895241742,0.45046180957408655,0.19291149856446066,nan
1740797041.739111,-0.20312754032851013,0.24902265414427052,0.42036851589841057,0.0322696524972713,nan
1740797041.743017,-0.33426346714031574,1.4537336534616923,0.14355033356616073,-0.1750594635095319,nan
1740797041.7469227,-0.21548303774017696,1.615507763822321,0.038109295201889104,-0.2878236217963509,nan
1740797041.7508287,0.057248004827756424,0.8447878298078794,0.23224086672553612,-0.2433771897595256,nan
1740797041.7547364,0.22623956012765414,-0.09574667509861894,0.4169902814144984,-0.10122480940515084,nan
1740797041.7586422,0.14628576053785064,-0.5424112051382944,0.22009941106376904,0.023423631970796745,nan
1740797041.7625482,-0.05488071167622452,-0.4576897119950266,-0.3102881860497348,0.06648325366056446,nan
1740797041.766454,-0.12411569540460482,-0.27733841945385873,-0.6927721492929778,0.060857859669235015,nan
1740797041.77036,0.024445885850042436,-0.3335939101605388,-0.5321312904192779,0.08443328684354437,nan
1740797041.774266,0.21107118034930342,-0.5054051977683581,0.011693208758635209,0.16666439262442595,nan
1740797041.7781718,0.20214863379167683,-0.4376844158363643,0.37575083839777634,0.24616896566999036,nan
1740797041.7820778,-0.01641754431639357,-0.022487295516269885,0.22641997474964304,0.22214831010765085,nan
1740797041.7859836,-0.22276663083597828,0.43732100928277495,-0.15925418676765438,0.05437676875731909,nan
1740797041.7898896,-0.2124865234323335,0.5680898588732134,-0.22898882077831037,-0.18190107883148235,nan
1740797041.7937953,-0.021580320914723252,0.35602275321339466,0.1732203771268294,-0.3434932281712537,nan
1740797041.7977014,0.13201983739280873,0.14544658524824075,0.5994921355574565,-0.33307011911192513,nan
1740797041.8016088,0.10098378613411148,0.19674241823182648,0.5157030264634699,-0.17660129510407596,nan
1740797041.8055146,-0.0462220008843486,0.3377710235993011,-0.06381825082789729,0.008816884827771609,nan
1740797041.8094206,-0.13565311508805378,0.15839886713048135,-0.5801484860014667,0.1241194718593297,nan
1740797041.8133264,-0.09209832098992815,-0.4446660528801195,-0.5633864624748671,0.16350455311581694,nan
1740797041.8172324,0.009229297140602057,-1.0211411909158943,-0.1372883382228399,0.18186589650807197,nan
1740797041.8211381,0.0718860834322123,-0.969904092582662,0.18696866623397002,0.20091424495978502,nan
1740797041.8250442,0.09411113466250086,-0.1956662305338962,0.13597215020763395,0.17167967728052155,nan
1740797041.8289502,0.12667014131614637,0.7134460862974804,-0.05886201017855856,0.044685358409571226,nan
1740797041.832856,0.15834217294741199,1.0259672744105872,-0.04050487101986897,-0.13605341032964383,nan
1740797041.836762,0.10924513583469878,0.571259290333129,0.18207905127397447,-0.24186196950213917,nan
1740797041.8406677,-0.04886346114654256,-0.13626666435903673,0.27374060131425754,-0.183880335576296,nan
1740797041.8445737,-0.21547478824151073,-0.4611968602639054,0.06615966647897581,-0.019718155322151307,nan
1740797041.8484828,-0.25210894149777274,-0.26586627100700766,-0.1782317427622097,0.09058747145976337,nan
1740797041.8523886,-0.14045490662684065,0.06406932618765403,-0.1087044493659484,0.04795271126644073,nan
1740797041.8562946,-0.004335226519884083,0.1362627105621364,0.20688129122577262,-0.07898330986533368,nan
1740797041.8602004,0.04148252426528106,-0.02685569914968311,0.30772651295960396,-0.1281950033501842,nan
1740797041.8641064,0.026411328634819292,-0.1167504312070294,-0.07639319241835553,-0.023226097910826044,nan
1740797041.8680124,0.06707203578480447,0.01214087387802524,-0.6095441568096714,0.14173139846765215,nan
1740797041.8719182,0.18880114727491423,0.15596469744443542,-0.6723419472386822,0.2061130415301051,nan
1740797041.8758242,0.2617378387379085,0.05034594569331021,-0.08551546237121864,0.11809824377521762,nan
1740797041.87973,0.15047642992675253,-0.2557563054970899,0.6322187443674657,-0.016519946073403298,nan
1740797041.883636,-0.09926692889029766,-0.4241245803764694,0.8051395493944864,-0.061586634861833515,nan
1740797041.8875418,-0.27695730063535995,-0.2243361117680789,0.31957869099121083,-0.0031296893402803466,nan
1740797041.8914478,-0.2265379052328146,0.18522741406793378,-0.3021607521470679,0.04615941082071078,nan
1740797041.8953567,-0.01737098387469216,0.43436712212286027,-0.5122599310666808,-0.011995607106393488,nan
1740797041.8992627,0.1338511724415586,0.3565107737380582,-0.2829540687272326,-0.14261982521737476,nan
1740797041.9031684,0.09712128552911689,0.14256241416957727,0.006075522435392427,-0.21524458713508998,nan
1740797041.9070745,-0.051594340116427335,0.06571215620571474,0.09026078045989042,-0.14880999256327854,nan
1740797041.9109802,-0.14604687684852707,0.13314863590249337,0.06230157352335668,0.003009369013507659,nan
1740797041.9148862,-0.11791748325957682,0.0952047631031988,0.10547547110705378,0.11594401621027503,nan
1740797041.918792,-0.03069410156494896,-0.20753454556710363,0.1775126524625936,0.1276797722728505,nan
1740797041.922698,0.0489209267086524,-0.5935448451310877,0.10290321017145092,0.08971401619274477,nan
1740797041.926604,0.14142771813442412,-0.7012793817793366,-0.10052781274561817,0.09002705626591563,nan
1740797041.9305098,0.2766168318953493,-0.38089711727852665,-0.18624383329030933,0.14225282757861418,nan
1740797041.9344158,0.36717397850557926,0.1363482721918133,-0.031618669252155715,0.16567678106775133,nan
1740797041.9383216,0.2450475220626894,0.4795075252871973,0.1281831139265915,0.07490744980552194,nan
1740797041.9422302,-0.13245802746769023,0.5058978223533055,-0.012672406187615358,-0.11831610582927622,nan
1740797041.946136,-0.5487245363081628,0.38541463727607916,-0.3518397020219617,-0.29716119237838357,nan
1740797041.950042,-0.6707487240212053,0.33677678983192794,-0.397130919243756,-0.33498958999409595,nan
1740797041.9539478,-0.3633209460925795,0.3473835957634193,0.11986613432171493,-0.20408156315097004,nan
1740797041.9578538,0.15425765584170262,0.2039473682110169,0.7757971921002578,0.0021850701801025864,nan
1740797041.9617596,0.49442971395318847,-0.21294158826971696,0.8193579026045875,0.15219596892254972,nan
1740797041.9656656,0.4522011216273336,-0.7192316252344112,0.049315337305845565,0.18617819298143884,nan
1740797041.9695716,0.16561863986732858,-0.9515037292051388,-0.8396695967034097,0.1512835524291642,nan
1740797041.9734774,-0.06138194216892164,-0.7033356158342907,-0.9493745100927033,0.13161755451808924,nan
1740797041.9773834,-0.06672598474529044,-0.12543300788857276,-0.17311569263520288,0.1480770866879775,nan
1740797041.9812891,0.05019560993382889,0.41138907240703837,0.6665748099614005,0.13652088512787286,nan
1740797041.9851952,0.08565671836388561,0.6432209213453237,0.7241810866428944,0.03114581832328654,nan
1740797041.9891033,-0.0388361882407755,0.6010202482088233,0.03800665427623859,-0.13970733607557204,nan
1740797041.9930093,-0.2177297811326692,0.48999128647933127,-0.5946975441221268,-0.26148447023324983,nan
1740797041.9969153,-0.2973219966533271,0.4157089132559389,-0.564838620749267,-0.2475188000669716,nan
1740797042.000821,-0.22694631602111878,0.2671107697362324,-0.06312645816889816,-0.13190383450645207,nan
1740797042.0047271,-0.07207030478024286,-0.10880287264781127,0.3110827071324768,-0.027400780958368683,nan
1740797042.008633,0.08143458202516184,-0.6352620493908386,0.339915734716114,0.007418498087510933,nan
1740797042.012539,0.19599673082084834,-0.9676800805793949,0.33467151097911035,0.029668624856233682,nan
1740797042.0164447,0.2613927641541302,-0.7913337037826229,0.5162989793523176,0.11943980822333394,nan
1740797042.0203507,0.2513531596551913,-0.17442501079623954,0.5518962471135932,0.24625649296420238,nan
1740797042.0242567,0.14118702619870344,0.4242238719025343,-0.03405186985727948,0.2761159484474585,nan
1740797042.0281625,-0.033105468931545104,0.5677307485755904,-1.0612629316382916,0.13313198800620968,nan
1740797042.0320685,-0.16840527221464097,0.27857202382147855,-1.6192853318532001,-0.08016058516159616,nan
1740797042.0359764,-0.17776135063142628,0.015420075944278756,-0.990124425768825,-0.175852327063719,nan
1740797042.0398824,-0.08140548199140296,0.16300085862657007,0.45687921930045694,-0.09960173616041537,nan
1740797042.0437882,0.004846941358183843,0.5657929617636511,1.5187395137506807,-0.0063334317959191045,nan
1740797042.0476942,-0.013409833033146442,0.6526606461142902,1.3682553033062204,-0.07294898491799577,nan
1740797042.0516002,-0.10745280663271889,0.0791332347476092,0.3710849060685315,-0.2573593842283398,nan
1740797042.055506,-0.15309912247102303,-0.7997933999669684,-0.40684115439665913,-0.31306735891197657,nan
1740797042.059412,-0.06447557945830233,-1.2007252751945434,-0.39577911782246383,-0.07849039686317887,nan
1740797042.0633178,0.10813544591191933,-0.708725270693881,-0.030106323842961216,0.29222737026369355,nan
1740797042.0672238,0.22432647996323862,0.24268027893265218,-0.05135518150259081,0.45848972660195003,nan
1740797042.0711296,0.19689879554425335,0.7708916549946081,-0.5340924415336121,0.26631653687084145,nan
1740797042.0750356,0.07832526091350381,0.4456656943851243,-0.8273906428006043,-0.06548878288926352,nan
1740797042.0789416,-0.00393333476465315,-0.26339699996427635,-0.42543045278667335,-0.1842581398300833,nan
1740797042.0828495,0.008400992111857422,-0.4934338709166078,0.3542614706642765,-0.005975054515539984,nan
1740797042.0867553,0.04257983747050911,0.07725174965389985,0.7258334415930666,0.19075284839965836,nan
1740797042.0906613,-0.012595433102663355,0.8683216405928386,0.37124923535196397,0.09929677033877744,nan
1740797042.094567,-0.16296539137967134,1.001743386079191,-0.18938366789338948,-0.24125449462833498,nan
1740797042.098473,-0.28162857925258095,0.2285312341297128,-0.22506279876488106,-0.47641808695714677,nan
1740797042.1023788,-0.2391525583243675,-0.8000043923981968,0.3486185548455167,-0.33795462358123646,nan
1740797042.1062849,-0.05066434543412932,-1.184358621447488,0.8801202355953731,0.05381295248796508,nan
1740797042.1101909,0.12979771672009335,-0.6548306735710864,0.7149592459141159,0.3330152234319004,nan
1740797042.1140966,0.16998751923446467,0.21588229790865132,-0.12083128492770899,0.2929424846861349,nan
1740797042.1180027,0.09788820797870502,0.6267577412674863,-1.0035488872912113,0.0765144918362068,nan
1740797042.1219084,0.05847006941585878,0.3181001460718355,-1.3486985618211618,-0.040270213054314274,nan
1740797042.1258144,0.13459226035494,-0.257429984476968,-1.050530283250485,0.024804568104021152,nan
1740797042.129722,0.23854076384927397,-0.4518898809942226,-0.36647220096687677,0.11522178241439957,nan
1740797042.133628,0.20547564808013588,-0.05313348411689219,0.4186818418468928,0.08076534401565798,nan
1740797042.137534,-0.01234044801207362,0.5669343962028263,1.0970578120104568,-0.03370874176724765,nan
1740797042.1414397,-0.2732256917519581,0.8488104347248373,1.4300582143119838,-0.08770407787070916,nan
1740797042.1453457,-0.38276848124206375,0.5508544316015966,1.1748087764410124,-0.06319742401321984,nan
1740797042.1492515,-0.2875230600679987,-0.09023822135491576,0.33944297053400985,-0.08390022573878861,nan
1740797042.1531575,-0.11005307967455509,-0.6195649224114784,-0.6610909604178692,-0.2088515455034897,nan
1740797042.1570635,0.003967271746990824,-0.7525204947748472,-1.244476760253975,-0.2995100652301287,nan
1740797042.1609693,0.0404068532019222,-0.5458073644062422,-1.1204949563674254,-0.17264759274380748,nan
1740797042.1648753,0.09619851208056554,-0.24871203907919187,-0.502938465742448,0.14079213474834718,nan
1740797042.168781,0.22391157990187896,-0.0269372271679535,0.12821345483354604,0.38144331927036584,nan
1740797042.172687,0.3413640049221936,0.1559726160368167,0.4346622072662025,0.3445710822889228,nan
1740797042.1765945,0.3186721357763845,0.3966887864312466,0.4009684332387998,0.1203589213469154,nan
1740797042.1805003,0.13390206818125064,0.6336555506387028,0.21406978914077987,-0.017616083602181237,nan
1740797042.1844063,-0.09324941343094023,0.6361097366636912,0.06827685264520218,0.05111842517322921,nan
1740797042.188312,-0.22729115192304244,0.26042136751269135,0.07165860460200796,0.14972806444156073,nan
1740797042.192218,-0.24711509808242044,-0.30308464229921744,0.21672599296333706,0.03556459222344859,nan
1740797042.196124,-0.23027052192993389,-0.6248449696590007,0.3566933727672369,-0.27951931476831865,nan
1740797042.2000299,-0.22860156725424033,-0.4477416196073498,0.27106847636588316,-0.5191184740255748,nan
1740797042.2039359,-0.2017522940537603,0.013199339287834658,-0.11745116120811604,-0.45399620548515573,nan
1740797042.2078416,-0.08777697044983153,0.2608719882196282,-0.5637307495397816,-0.15163309009126513,nan
1740797042.2117476,0.09267255233885198,0.04398837771093704,-0.6496815746073464,0.12889617389052568,nan
1740797042.2156534,0.24200172637606157,-0.35586336581194605,-0.2246940685086628,0.24131198770179574,nan
1740797042.2195594,0.29423558863853233,-0.4332150382976211,0.33369109187755036,0.27114453531353977,nan
1740797042.2234685,0.28050286810513236,-0.037734873976989054,0.4348853694440446,0.34964993351234813,nan
1740797042.2273743,0.26299539751652695,0.44895303351353066,-0.07593600571836502,0.43792132083202523,nan
1740797042.2312803,0.228373825372898,0.5604347906921333,-0.658774859576429,0.3703082661658251,nan
1740797042.235186,0.09363754780783687,0.28594890316846944,-0.5919338184168979,0.08514618933182978,nan
1740797042.239092,-0.16781643438310984,0.03942051560140769,0.23320835234821446,-0.2727438270371859,nan
1740797042.2429981,-0.4407344050992705,0.08991371904340487,1.119523490406601,-0.5061411150279163,nan
1740797042.246904,-0.5502425266432777,0.18353034505457394,1.2391687490875243,-0.5586517672173461,nan
1740797042.25081,-0.43240354639006523,-0.11618236954117683,0.47105200275597187,-0.4977023094973062,nan
1740797042.2547157,-0.19309370940386508,-0.7576876649043567,-0.5036180913678038,-0.3490125288784468,nan
1740797042.2586217,0.017705863257373257,-1.0858268067721548,-0.9281088395345639,-0.053713780532181114,nan
1740797042.2625275,0.16378625441831698,-0.5479005777341089,-0.6983886473766453,0.37170949170571027,nan
1740797042.2664335,0.3193724788822686,0.5618860318357398,-0.3226595292851741,0.7162105903780367,nan
1740797042.2703424,0.5137710941854058,1.2714455323710168,-0.24702420266290775,0.7245174454492864,nan
1740797042.2742481,0.6305443905922213,0.9365850286194533,-0.36539182166484924,0.3798310411771293,nan
1740797042.2781541,0.5077822182413453,-0.03909120656567947,-0.23700184300566238,-0.04214356375742409,nan
1740797042.28206,0.13353491408805526,-0.6456215465090187,0.31735308016023145,-0.2532428921509925,nan
1740797042.285966,-0.3024170492472676,-0.40406401950443327,0.9587083616639941,-0.242949878710327,nan
1740797042.2898717,-0.577530821855118,0.12577969492444116,1.1700863098402834,-0.223826095776844,nan
1740797042.2937777,-0.6355864623568556,0.0871027956572084,0.7647325226050004,-0.31410857024355693,nan
1740797042.2976835,-0.5828472851119124,-0.5571081185174196,0.020143594683278667,-0.38095884595007046,nan
1740797042.3015895,-0.49575389539594633,-0.9027851805120147,-0.617324430562227,-0.25122937651715294,nan
1740797042.3054955,-0.2954929467573075,-0.19385086550494385,-0.8775226354910222,0.006195010967835979,nan
1740797042.3094013,0.12774780159557908,1.14088739158958,-0.7580952288303711,0.1357151418161394,nan
1740797042.3133073,0.677569950486174,1.7867279654713377,-0.41659304639704886,0.043413277196970274,nan
1740797042.3172157,1.0197917813099369,0.9372080352161766,-0.06060814180744004,-0.033654712240265304,nan
1740797042.3211217,0.8681667814748778,-0.7667343440891279,0.12299214221420983,0.18780340018584651,nan
1740797042.3250275,0.30999181840778756,-1.8422848615158762,0.07525559012195714,0.6277724294410628,nan
1740797042.3289335,-0.21769314557114022,-1.4734102057119767,-0.04015193725145097,0.8535237426246299,nan
1740797042.3328393,-0.3437359409268352,-0.2667055413335203,0.06712437262888182,0.5524903342705485,nan
1740797042.3367453,-0.15523105836859039,0.5384528375140614,0.5093878665642315,-0.09472567450541997,nan
1740797042.3406513,-0.1121241202879569,0.46130148720230024,1.000481641177678,-0.611595484631171,nan
1740797042.344557,-0.5170506552876327,0.19706673123892957,1.0346955809769405,-0.7553797823142437,nan
1740797042.348463,-1.094954960429571,0.6354370299740076,0.3770596659390167,-0.7175963400772889,nan
1740797042.3523688,-1.1916059189973713,1.6429253195002895,-0.6223565943017345,-0.7590122161335423,nan
1740797042.3562748,-0.4585632519776837,2.021891745575691,-1.2687287784987669,-0.7822008812577759,nan
1740797042.3601806,0.6905054793358603,0.7505805829427857,-1.1369143322773627,-0.42923612035491066,nan
1740797042.364089,1.4092997932313267,-1.7832477324327956,-0.46602504593652744,0.4055949538298629,nan
1740797042.367995,1.265623300172591,-3.8523819738814065,0.06993031038909404,1.3246683831697008,nan
1740797042.3719008,0.6997399968291429,-3.7636213969840804,0.016082951173205795,1.7848813147271132,nan
1740797042.3758068,0.5106198803076836,-1.2991135316523645,-0.3947242415558266,1.6093008903531167,nan
1740797042.3797126,0.845410998080883,2.0319355796285,-0.4122220610525777,1.0036554825197612,nan
1740797042.3836186,0.8455281991279692,4.11375193093283,0.5201920419161984,0.13017915152937953,nan
1740797042.3875246,-0.4636691414218704,3.7736429565135365,2.0878036175675807,-1.0650712291414857,nan
1740797042.3914304,-2.8254757799228187,1.5458168641704184,3.0833557310418795,-2.4326432516707377,nan
1740797042.3953364,-4.459665478716006,-0.8859080415452923,2.2322019886488196,-3.217562867965582,nan
1740797042.3992422,-3.4600648999126427,-2.0603795053007925,-0.6312698233369946,-2.4885949204722593,nan
1740797042.4031482,0.2542430096567157,-1.7943765750950942,-4.002420804753717,-0.19898676134394558,nan
1740797042.407054,4.398759632876289,-1.0623568651575204,-5.482024529821552,2.3518843080116287,nan
1740797042.410962,5.992992659401252,-0.8614100896195191,-3.5835358663044774,3.468704895653974,nan
1740797042.4148679,3.8774494053835236,-1.168252450082033,0.8158710807654642,2.6228064013562666,nan
1740797042.418774,-0.2558070422621186,-1.0465180437938921,4.801960403391098,0.9265500441499498,nan
1740797042.42268,-3.3330591902882487,0.18118218551669446,5.569969094484079,-0.10197870015035423,nan
1740797042.4265857,-3.509903373661088,1.9568061409929027,2.7080733756729667,-0.15054436208253805,nan
1740797042.4304917,-1.514378888643387,2.8671642147123215,-1.4266239066713295,-0.26509926410021456,nan
1740797042.4343975,0.375039450660151,2.0975149157298034,-3.68849516989875,-1.3785124462631149,nan
1740797042.4383035,0.5328619753398404,0.380285907427679,-2.7578495948459567,-2.9784463342477787,nan
1740797042.4422092,-0.7501330111348621,-0.7327246106869806,-0.05147407474204518,-3.5276380957692277,nan
1740797042.4461153,-1.8781627268965586,-0.5933728818488893,1.7943594652272956,-2.151789777520894,nan
1740797042.450021,-1.5086767108849561,-0.22380115393011074,1.327207979317349,0.4070287945558232,nan
1740797042.453927,0.4676737812215282,-1.087026473361055,-0.6562195195455218,2.6451652695316046,nan
1740797042.457835,3.0726243319196525,-3.0978074273652867,-2.14394245980793,3.8048125852012893,nan
1740797042.4617407,4.914470357005253,-4.199867631774779,-1.8049446386314916,4.143201856404368,nan
1740797042.4656467,4.745152226102898,-2.306877452556484,0.043601377806642846,3.783847213917049,nan
1740797042.4695528,1.9510141652770003,2.2441442196020636,2.0044434400317166,1.9546218638603636,nan
1740797042.4734585,-2.8028321291401626,6.405341757498223,2.841970818295697,-1.9690255594013588,nan
1740797042.4773645,-7.253275310525407,6.888655495524221,2.2259963536863556,-6.666752111485162,nan
1740797042.4812703,-8.447490424810969,3.109752534238594,0.6235693599037166,-8.849011487370005,nan
1740797042.4851763,-4.8563626533139725,-2.2581797236683534,-1.1971108689874814,-5.874391195915149,nan
1740797042.489082,1.9146179200209403,-5.615286980710237,-2.535776217578564,1.2951907777627807,nan
1740797042.492988,7.718794232162006,-5.34097073534432,-2.915838587515015,8.07120314039506,nan
1740797042.496894,8.809389250892655,-2.6216228760947424,-2.174404305119487,9.723711633320473,nan
1740797042.5008,4.780134761153698,0.17653096970855559,-0.5220354251019327,5.315491538195479,nan
1740797042.5047076,-1.1734430881163866,1.6373208941308244,1.4987995931173645,-1.6048316250892825,nan
1740797042.5086133,-4.979293432242595,1.9309229717050362,3.147861614844029,-6.121509969430074,nan
1740797042.5125194,-4.90341248572995,1.8614356139193202,3.6574380607610144,-5.866365520077279,nan
1740797042.5164251,-2.3909210952586704,1.7741399354655158,2.4992755655396537,-2.290507044883847,nan
1740797042.5203311,-0.10227964141331018,1.4474728833653843,-0.18497293897464226,1.3007877642537369,nan
1740797042.524237,0.6230759434554614,0.6907312977220432,-3.2550634290510834,2.628015898364474,nan
1740797042.528143,0.44148161931359914,-0.3128880676460908,-4.902197335555027,1.6994835362968344,nan
1740797042.532049,0.6023693446800277,-1.245392517372858,-3.8106065154326756,0.001316397023430231,nan
1740797042.5359547,1.3437035089168416,-1.9428980645866818,-0.3703015910887787,-1.01939118167998,nan
1740797042.5398607,1.7948051671329808,-2.274303584112123,3.2938436176105856,-0.8318719740602873,nan
1740797042.5437665,1.1858586962549789,-1.909959511152748,4.829543767089129,0.17446521504027435,nan
1740797042.5476725,-0.1966215511718817,-0.5539667881057284,3.4973803978411695,1.1261479521570237,nan
1740797042.5515797,-1.3182190960457612,1.4535534957919036,0.6189360425081918,1.240649756308516,nan
1740797042.5554857,-1.4417156539403315,2.971164132517088,-1.7851476094489633,0.39068346094102185,nan
1740797042.5593917,-0.7057746244359235,2.8338786001320058,-2.7350080890533697,-0.7120230785842119,nan
1740797042.5632975,0.21295209198388065,0.9762006988739356,-2.6548276515719342,-1.0787500182062344,nan
1740797042.5672035,0.7555645880254815,-1.2913672645660765,-2.232135380317748,-0.4240970921237668,nan
1740797042.5711093,0.7443334092294195,-2.3062136709096848,-1.3589164473491708,0.4466065308769819,nan
1740797042.5750153,0.24693624581457235,-1.4833002353249494,0.485250529283891,0.442534749211357,nan
1740797042.578921,-0.5196435120838796,0.22201042714384478,2.9484307949507,-0.5523657066272628,nan
1740797042.582827,-1.1272739536917327,1.2488709152904518,4.420134493438677,-1.4106264408629698,nan
1740797042.586733,-1.0530839450870533,0.8295315100057468,3.360698888364417,-0.9459389625917005,nan
1740797042.5906389,-0.13002299526320713,-0.4582189809251075,0.041654477685249415,0.6917969209148799,nan
1740797042.594545,1.109451169426709,-1.3777371747039073,-3.315289262420356,2.035760109607988,nan
1740797042.598454,1.7418512887539361,-1.1721646078375378,-4.36799067418523,1.812374142679714,nan
1740797042.6023598,1.2643670169252863,-0.0908730234363543,-2.664894953875231,0.28165587631209077,nan
1740797042.6062658,0.08253443801696361,1.0176579244204573,0.1521311815990718,-1.0953137537707183,nan
1740797042.6101716,-0.8928233420039078,1.4859827947584863,2.001914994593482,-1.245774819688314,nan
1740797042.6140776,-1.121140757546646,1.2385744782420751,2.0794779257037384,-0.4995656623577289,nan
1740797042.6179833,-0.8233436633023635,0.61165800482422,1.0667006609414256,0.04507968003881959,nan
1740797042.6218894,-0.5185284079281857,-0.0647356084911182,0.059178051225638115,-0.09788988434273987,nan
1740797042.6257951,-0.3477934336321241,-0.6727975851979966,-0.39636148898003076,-0.3690184028225077,nan
1740797042.6297011,-0.026312089051106012,-1.1902870279541695,-0.3409212708454328,-0.08469074957258836,nan
1740797042.6336071,0.5806032967640008,-1.4896484940465342,0.022882221890546162,0.5742974720380729,nan
1740797042.637513,1.0771296487037219,-1.3279576035747698,0.4615300557033409,0.7920672175428015,nan
1740797042.641419,0.9203933784356295,-0.5613327051177254,0.5783991729161865,0.22778326221873935,nan
1740797042.6453276,0.12914044963013468,0.6293078770984987,-0.0056681965771529395,-0.4707875997404996,nan
1740797042.6492336,-0.6014918324712617,1.737807479499385,-1.1174842130872675,-0.44732024646341945,nan
1740797042.6531396,-0.6111238961760271,2.1942514618321423,-1.8806204214667404,0.2691837711444595,nan
1740797042.6570454,-0.012917974557661705,1.7004277578291562,-1.4371128206390855,0.7597062029515201,nan
1740797042.6609514,0.4277809180611235,0.40628605390245465,0.09813866590812599,0.33525352798733093,nan
1740797042.6648571,0.16459362927808927,-1.1559729673043395,1.5980052241277205,-0.6029432493819403,nan
1740797042.6687632,-0.512465070230954,-2.2962468026997658,1.9903349374206614,-1.028148993426942,nan
1740797042.672669,-0.824115866623628,-2.4391134487030333,1.2782151660047634,-0.49860461536830986,nan
1740797042.676575,-0.3945663015614308,-1.3978240212877109,0.349411597913303,0.3649019241520484,nan
1740797042.680481,0.34707694200289824,0.4198163857429848,-0.14649294010669764,0.6688819090278076,nan
1740797042.6843867,0.6857364007929981,2.0644389548241944,-0.443179655383318,0.27753396668600233,nan
1740797042.6882927,0.4123440040172009,2.5252989532273618,-1.0492869606438238,-0.1657298929799549,nan
1740797042.6922011,-0.024243980974179354,1.4622839739628126,-1.750291929141102,-0.1448136379706625,nan
1740797042.6961071,-0.11223895859134025,-0.39308955622402786,-1.6356032882861065,0.11878605032973191,nan
1740797042.700013,0.13945539526949513,-1.6805879495050007,-0.26019062716950353,0.10056699220385851,nan
1740797042.703919,0.29654394012035273,-1.500823187387028,1.5025268315770468,-0.21161873047104465,nan
1740797042.7078247,0.08048508791090021,-0.21704962239805098,2.1404734084401182,-0.27084423320531925,nan
1740797042.7117307,-0.3065376587528413,0.8637595506243091,1.1009893086789002,0.21926470000920048,nan
1740797042.7156365,-0.46958596100598526,0.7286092839040836,-0.5314258613514742,0.7469011043239324,nan
1740797042.7195425,-0.30554459715151355,-0.366976589872337,-1.150045411959901,0.5267560378977952,nan
1740797042.7234485,-0.07413387406303382,-1.188960005390464,-0.33026553090768634,-0.46141086258159925,nan
1740797042.7273543,-0.015519506236023793,-0.8057319138568817,0.789211940178852,-1.266194227872232,nan
1740797042.7312603,-0.045020797867377664,0.4656821317287105,0.8413864678704616,-0.9707190371774972,nan
1740797042.735166,0.08332172668413548,1.4286852635496483,-0.27183764915696285,0.22423955252421363,nan
1740797042.7390745,0.38270883330872707,1.2609339969742561,-1.3727831291130412,1.1521173811426277,nan
1740797042.7429805,0.5479209231311856,0.2888098845150855,-1.3655190635970471,0.9430121037893452,nan
1740797042.7468863,0.3155127674763884,-0.5023179714961579,-0.33903962605530075,-0.04963486081546475,nan
1740797042.7507923,-0.17356347456572968,-0.5837363489425613,0.7260692983851573,-0.7084984195102199,nan
1740797042.754698,-0.4772650017508108,-0.340343415846804,1.089874394962878,-0.4207665173130976,nan
1740797042.758604,-0.32813392709709216,-0.42074310400410353,0.841959841951036,0.3215389692592096,nan
1740797042.7625098,0.06853308255095776,-0.8374250640461155,0.4530884683560231,0.6059614225646006,nan
1740797042.7664158,0.26282525707756466,-0.9207081360565013,0.10056202693510173,0.16727815347999017,nan
1740797042.7703218,0.054040077691269665,-0.16950596487402245,-0.3372205794678844,-0.41605341184666145,nan
1740797042.7742276,-0.305237569627732,1.037687230867648,-0.7850860252390333,-0.5125053044223032,nan
1740797042.7781336,-0.4045319604751534,1.735581620884506,-0.8356141173218766,-0.16766718493343535,nan
1740797042.7820394,-0.12017686151230385,1.3472382521620012,-0.2619467861559346,0.07958447787412881,nan
1740797042.7859476,0.2759411830394134,0.24123358927468042,0.5229903665762521,-0.045927168452355616,nan
1740797042.7898536,0.42663441257001666,-0.7128355260738924,0.7834351445159229,-0.22888715644622817,nan
1740797042.7937596,0.2519565090029851,-1.0227932905489023,0.26995849697585006,-0.04093241971440701,nan
1740797042.7976654,-0.01309628669995856,-0.8954250315600577,-0.46360487235216563,0.445167378896007,nan
1740797042.8015714,-0.09969711334684955,-0.7489141677876162,-0.662811384813551,0.7065268015794082,nan
1740797042.8054771,0.022314778829814773,-0.6176661697383118,-0.19405344774844333,0.40983269674940975,nan
1740797042.8093832,0.1485436756154526,-0.19099809792488903,0.38049787175935607,-0.1744876751592103,nan
1740797042.813289,0.07487827098223837,0.6199124232457501,0.5109258664222448,-0.4888245377895765,nan
1740797042.817195,-0.19445955396988526,1.354842754310203,0.24962123329465455,-0.3264557097792728,nan
1740797042.821101,-0.4526968548159815,1.3800968642386697,0.0406004995737499,-0.01766541136298785,nan
1740797042.8250067,-0.4745683012180639,0.5669242085419686,0.07022758465373544,0.018210847418467863,nan
1740797042.8289127,-0.20167909602629672,-0.5042173627086018,0.05849746626019744,-0.226219976008638,nan
1740797042.8328207,0.2143653540613349,-1.0617145331702051,-0.2658734350627774,-0.3809187191350102,nan
1740797042.8367267,0.5238000950157978,-0.8392426618984746,-0.682567263778688,-0.17078821142874354,nan
1740797042.8406324,0.5499181644128958,-0.24358679446018028,-0.6701057728840343,0.26775755466423784,nan
1740797042.8445385,0.2986072077100992,0.12195537671288645,-0.05932886017204207,0.5644439763001964,nan
1740797042.8484442,-0.06126441420827499,0.044298197914280364,0.678789475077125,0.5154820627947803,nan
1740797042.8523502,-0.32146724250260794,-0.1759460952944351,0.8956735166771544,0.23335945575762757,nan
1740797042.856256,-0.366434834416458,-0.11478936369899545,0.43947877811242486,-0.052215953842306435,nan
1740797042.860162,-0.2228485738923869,0.31059293504575164,-0.23375380978743965,-0.2310128394827995,nan
1740797042.864068,-0.011007470362023517,0.7499129296098574,-0.5814609000928419,-0.3209714638301617,nan
1740797042.8679738,0.14320635187474187,0.7550853219685251,-0.47498743034378643,-0.3331437689825077,nan
1740797042.8718798,0.16965606635340963,0.21434549629826302,-0.15816956185080844,-0.2328324306421132,nan
1740797042.8757856,0.0711285482338944,-0.5090432818635305,0.1339083423264541,-0.03748487931717053,nan
1740797042.8796933,-0.08545090336623798,-0.8658242964093075,0.34975823432991693,0.13134959416367026,nan
1740797042.883599,-0.19632680617269013,-0.598896565095585,0.45458720288059545,0.15475383233420448,nan
1740797042.887505,-0.17478421425386692,0.01734899359652209,0.30467365727406265,0.054084985904141666,nan
1740797042.891411,-0.014296306924897183,0.4249639130200155,-0.1583007816484226,-0.027347539512181936,nan
1740797042.8953168,0.193232244758548,0.316498449317487,-0.6597225638158408,0.016435392354596047,nan
1740797042.8992229,0.31803539228941846,-0.06579463514779266,-0.7345214796794741,0.1476571526444896,nan
1740797042.9031286,0.2881769711605562,-0.20215046234109912,-0.2114377359490765,0.24427802448636304,nan
1740797042.9070346,0.13202177894895492,0.11256689752480374,0.523272870239507,0.22643083684530455,nan
1740797042.9109404,-0.06615027258268716,0.5007064241735554,0.8563506798850713,0.09785036362604027,nan
1740797042.9148464,-0.23581289389469606,0.40379241592655796,0.5436090408433845,-0.10014525444944698,nan
1740797042.9187522,-0.3377913177723493,-0.24517590625527727,-0.08759843627017086,-0.31221568762848734,nan
1740797042.9226582,-0.3366680765040699,-0.8475250795912622,-0.5208490936096265,-0.4426925062170808,nan
1740797042.9265656,-0.20231392911117013,-0.7308197850781197,-0.5363393244918079,-0.37791296620826953,nan
1740797042.9304714,0.03487052516990772,0.09912563068675474,-0.27608476209184896,-0.1021664576637802,nan
1740797042.9343774,0.25382021021015433,0.8960861577947667,0.04997920177010663,0.22343771728127743,nan
1740797042.9382832,0.3183527914539443,0.9195117308304899,0.3471238214234236,0.37015263350250766,nan
1740797042.9421892,0.2080774222415605,0.19301540101723497,0.5174268734696547,0.2672364836934773,nan
1740797042.9460952,0.05281871894021745,-0.555885067147893,0.3622999276933464,0.0833399645506144,nan
1740797042.950001,0.0028113851052297867,-0.6903682317271093,-0.19272258659333175,0.035962828684390394,nan
1740797042.953907,0.06319699849056055,-0.2903504898770619,-0.8012215292456095,0.13442760506295473,nan
1740797042.9578128,0.08783963753384633,0.06370224396414949,-0.8521302503059774,0.1715022157784558,nan
1740797042.9617188,-0.04427301499865967,0.027753531980538634,-0.10096146577994701,-0.010645505058253716,nan
1740797042.9656246,-0.26833144035167905,-0.1461272838780733,0.9084118286433471,-0.3021400868292652,nan
1740797042.9695306,-0.3839765646353263,-0.017808942259712333,1.2478042814064656,-0.43374388337378045,nan
1740797042.9734395,-0.2692452271074107,0.42085730515082787,0.5365265701196648,-0.2884772193448659,nan
1740797042.9773455,-0.013495938121132742,0.6992905545464674,-0.6014721254007502,-0.03272524898412524,nan
1740797042.9812512,0.18363029663021058,0.44111596682620313,-1.1263691165308845,0.09545284797956016,nan
1740797042.9851573,0.22405070192034046,-0.16661534819938045,-0.6319352399799739,0.07117667668885,nan
1740797042.9890633,0.18473388149409506,-0.5837021928209207,0.2753400520325326,0.07963856089669245,nan
1740797042.992969,0.18041119927345226,-0.5281926548546618,0.6655472405480387,0.2356772913768036,nan
1740797042.996875,0.20155370612173198,-0.23138759059836658,0.26006636751877094,0.3973758220584516,nan
1740797043.0007808,0.13404465766647788,-0.06021279114348773,-0.3646145760449187,0.32717601040223426,nan
1740797043.0046868,-0.07009492667662094,-0.038416159783594805,-0.48852031621839226,0.0035900029893109306,nan
1740797043.0085926,-0.2941381576912461,0.1018431249106228,-0.0171301182194513,-0.3171365644168725,nan
1740797043.0124986,-0.36154887020625903,0.43142890041044474,0.5141513855709006,-0.3796708008791978,nan
1740797043.0164046,-0.22123820476183206,0.5961688734048682,0.5886698322208258,-0.2081710170655696,nan
1740797043.0203135,0.005050828857941234,0.22888391468960628,0.2147704071351712,-0.04498565983007377,nan
1740797043.0242193,0.15642939279084542,-0.47900972758474025,-0.2106754918301182,-0.03999854257356643,nan
1740797043.0281253,0.1774442933429122,-0.8239331733676952,-0.3878725861737237,-0.08863920668227804,nan
1740797043.032031,0.11771752849115301,-0.32887706829839325,-0.34423860916148247,-0.010856768301164202,nan
1740797043.035937,0.0325079979010997,0.6359768697662618,-0.24238834604670878,0.18174830544875464,nan
1740797043.039843,-0.058986432547227456,1.1251486036017744,-0.12823351526102586,0.2890546506543479,nan
1740797043.0437489,-0.11893417662569639,0.573035874677146,0.04922653288097494,0.1888821937051713,nan
1740797043.0476549,-0.06599104506471302,-0.5847612786955013,0.255353590770223,0.0072325764587940706,nan
1740797043.0515606,0.12899614147548194,-1.3171526856418174,0.3424850939104489,-0.04208869715589723,nan
1740797043.0554667,0.3348352483222229,-1.012403362150954,0.22988414017065129,0.057425629032163444,nan
1740797043.0593724,0.3245136241996115,-0.03442931765935196,0.025134667998603744,0.09653398334126714,nan
1740797043.0632784,0.006401850236084727,0.7243644055944748,-0.09712084807963732,-0.07863876833148743,nan
1740797043.0671868,-0.4240401231682965,0.7575280066596202,-0.09714163031344686,-0.33483295689965564,nan
1740797043.0710928,-0.6216208129485008,0.3486245353419632,-0.0792862264489624,-0.3830980712223233,nan
1740797043.0749989,-0.4127335399060162,0.11293927034387656,-0.11100942757944572,-0.12894403000207533,nan
1740797043.0789046,0.0344079243893873,0.2635288818885348,-0.12187212738995815,0.19325183402256063,nan
1740797043.0828106,0.37841995914695076,0.41700377736024985,-0.031268584098905275,0.2801566398217189,nan
1740797043.0867164,0.4289359804752438,0.10083173074654712,0.08710253333765958,0.10480652914632618,nan
1740797043.0906224,0.27934422264130754,-0.6396935590435696,0.06911154840561828,-0.06942933156658648,nan
1740797043.0945282,0.13459348291269782,-1.2057867210597604,-0.09999981862165602,-0.01626153529203682,nan
1740797043.0984342,0.0676581548794856,-1.0208107080196518,-0.20141174116165175,0.18748349533362946,nan
1740797043.1023402,-0.010847059861895764,-0.12546649281122207,-0.02020766975491929,0.2710576700439699,nan
1740797043.106246,-0.17054420182580568,0.8079907590954427,0.3550644107023593,0.10258560778328064,nan
1740797043.110152,-0.324738255537487,1.0678884961649466,0.558353367622206,-0.16438182076698155,nan
1740797043.1140602,-0.3186994599005733,0.5468438462702693,0.31664779991012704,-0.28814792997331495,nan
1740797043.1179662,-0.125947789081054,-0.16887014761642885,-0.23922933793753248,-0.21382501168725612,nan
1740797043.121872,0.09959443691639078,-0.3609520137033888,-0.6771728934609045,-0.09307667909317593,nan
1740797043.125778,0.18332946127698413,0.12043887926712636,-0.6661860087186474,-0.059579346423954085,nan
1740797043.129684,0.10899124721351058,0.6862208995593508,-0.24811321523214236,-0.06827471309190287,nan
1740797043.1335897,0.010993280300901943,0.569379981151639,0.26191439249849313,0.00742911704405214,nan
1740797043.1374958,0.007711230064995494,-0.3818141850305854,0.5669701700142541,0.17386250709774767,nan
1740797043.1414015,0.0825757395450887,-1.453102443283583,0.5569881874095706,0.2871868624071763,nan
1740797043.1453075,0.13539217201385004,-1.6597696573167724,0.28124579040474146,0.23041345851981176,nan
1740797043.1492133,0.1100264310400991,-0.6691405983393792,-0.11774518679812515,0.0604274481087534,nan
1740797043.1531193,0.03511732378552588,0.8368558385656396,-0.4245890574539007,-0.06324974683999532,nan
1740797043.1570253,-0.04426964570843817,1.7386170076507976,-0.42875827553148654,-0.06874090636472704,nan
1740797043.1609333,-0.12326919343799166,1.4572995151934687,-0.11261865741494206,-0.03798179853672108,nan
1740797043.1648393,-0.20330757424100712,0.4003629715417729,0.24453230806404108,-0.0789718091765599,nan
1740797043.168745,-0.23730682962493319,-0.5138094737811782,0.2748936379592258,-0.1814892830161779,nan
1740797043.172651,-0.1601519135231953,-0.7208015905381508,-0.07864094348621915,-0.2356552064480779,nan
1740797043.176557,0.017474321525642576,-0.4037118815302834,-0.4237924161599201,-0.16996571771848948,nan
1740797043.1804628,0.1833514787580122,-0.12202976229006468,-0.296642413051103,-0.023952348592391592,nan
1740797043.1843688,0.22506662516737994,-0.1803002654840286,0.289647635441875,0.11829725015053491,nan
1740797043.1882746,0.14864185786210177,-0.4076660334623698,0.7650864663582898,0.21891825841118312,nan
1740797043.1921806,0.06615699499410473,-0.463503984183824,0.5717778764766958,0.279397827149755,nan
1740797043.1960864,0.059513412274172665,-0.21753450049245798,-0.19735213544392421,0.2763284932680945,nan
1740797043.1999924,0.08420751207588464,0.20131349356701966,-0.8258048839814285,0.16495499741870343,nan
1740797043.2038982,0.03204005208364916,0.6079187365648132,-0.6987648213083285,-0.03872515705923317,nan
1740797043.207806,-0.12330799296605034,0.8767591922451287,0.04112376727490644,-0.22585124140405824,nan
1740797043.2117121,-0.27573122684592477,0.8770040729853731,0.6359696699393099,-0.2888003484065969,nan
1740797043.215618,-0.29245963859298046,0.4646999987185007,0.5116039741644361,-0.23438706253892078,nan
1740797043.219524,-0.15087083704759693,-0.3175212421949239,-0.13333645060079838,-0.15969415887270486,nan
1740797043.2234297,0.04675837419903965,-1.0723710108238644,-0.574790685118992,-0.11175441950568052,nan
1740797043.2273357,0.18119857672113468,-1.2551612587625447,-0.3495034679446516,-0.02391199720526723,nan
1740797043.2312417,0.21322546811989052,-0.6773638700472455,0.2812580232028304,0.1660766959058052,nan
1740797043.2351475,0.17590117573440361,0.22658104557207434,0.6541228897560708,0.36661234512698543,nan
1740797043.2390535,0.10789237905772463,0.7505940759506434,0.4108320751311456,0.3792461014918897,nan
1740797043.2429593,0.025650980455860867,0.5893293961735294,-0.17449499212782435,0.1303223934996724,nan
1740797043.2468653,-0.05109448581370593,0.11473039338566621,-0.5365067926085236,-0.19183476929057416,nan
1740797043.250771,-0.08875567146705009,-0.0668221334048357,-0.39941346989515486,-0.301236190175348,nan
1740797043.2546787,-0.07687850105368464,0.20411597444473592,0.010054799524808101,-0.12435762708170776,nan
1740797043.2585847,-0.05486546578887267,0.48463156604630875,0.2631043221498488,0.10829970802578871,nan
1740797043.2624905,-0.06975156142517899,0.2721937047903219,0.16390227043792963,0.11934624481250801,nan
1740797043.2663965,-0.10712603841666064,-0.3792594600293935,-0.11277410987685182,-0.09738574361248144,nan
1740797043.2703023,-0.09449318496108158,-0.8756230225185301,-0.24604480418807634,-0.27350474996273677,nan
1740797043.2742083,0.007452245501946487,-0.7137786579633261,-0.0825203624182546,-0.1847116964073076,nan
1740797043.278114,0.13504415235400663,-0.022115009973758475,0.24444664956493803,0.08736797456805569,nan
1740797043.28202,0.17452197842080314,0.5732163930475739,0.4488806314921245,0.25915129386777075,nan
1740797043.285926,0.08924533715811085,0.5837193194457877,0.3367368359621128,0.18067371130171336,nan
1740797043.2898319,-0.031130753020589038,0.10668811502387678,-0.03233958102149299,-0.005123344364510324,nan
1740797043.293738,-0.0670727559965944,-0.34044591547188363,-0.38521893990516953,-0.05995853275642976,nan
1740797043.2976437,-0.0013890570921140462,-0.35232366913787455,-0.4560778908756899,0.054097164745086086,nan
1740797043.301551,0.06930310710046012,0.03092986831496942,-0.21863374984730688,0.14636617525870624,nan
1740797043.3054569,0.05345813432004358,0.4472805768211372,0.08354197278524865,0.0559837013294614,nan
1740797043.309363,-0.033725506109442326,0.5637064881523153,0.16810763362373418,-0.13961740770471506,nan
1740797043.313269,-0.10364806138129672,0.2968908549807864,0.0035369992806049285,-0.2258998818375324,nan
1740797043.3171747,-0.10678296381464156,-0.2011889219037721,-0.14711543365730234,-0.12303385326890828,nan
1740797043.3210807,-0.07633350084148001,-0.6615060118601207,-0.00849671635827987,0.02121795160893377,nan
1740797043.3249865,-0.058270321598911906,-0.8142131761505409,0.37530371571110355,0.03016827601168702,nan
1740797043.3288925,-0.03731295247976949,-0.519165298689539,0.6291335937695383,-0.07218931066500454,nan
1740797043.3327982,0.03317245945491075,0.10280329008981016,0.4076527155666692,-0.0957416311725604,nan
1740797043.3367043,0.1409105590883648,0.6772217082762729,-0.22659084402028312,0.06250926800483449,nan
1740797043.3406103,0.1992428802070022,0.820134872344835,-0.8073931026538603,0.2699545746112655,nan
1740797043.344516,0.14345800407585754,0.46260943008030364,-0.8662973168980487,0.3041526485397838,nan
1740797043.3484251,0.01747498246736117,-0.06783955425098677,-0.3441824368221166,0.11316639273441284,nan
1740797043.3523312,-0.07052120811262036,-0.34056559303282324,0.3692442232980168,-0.1270289221273873,nan
1740797043.356237,-0.07549781578963535,-0.2262173370825611,0.7722650254359585,-0.21794868881521287,nan
1740797043.360143,-0.06159146520058285,0.0019281155476766777,0.6350371284649755,-0.14751040543539237,nan
1740797043.3640487,-0.10225856865926929,-0.016972379641532552,0.12314949010842471,-0.058852998288327144,nan
1740797043.3679547,-0.16474706949400944,-0.32851100332558375,-0.3719961313033613,-0.04764045211237441,nan
1740797043.3718605,-0.1398779366715017,-0.5970482254476752,-0.5164429415523525,-0.059140428438754535,nan
1740797043.3757665,0.008541795679173219,-0.4452546347553053,-0.24338531279338188,-0.00260243268699833,nan
1740797043.3796723,0.16812775740627917,0.1501721526163714,0.20861617086883977,0.09315784508912042,nan
1740797043.3835783,0.19090341730285593,0.7986957173925036,0.4549548615675347,0.10653090594689699,nan
1740797043.3874843,0.06979282239378,1.017788946148263,0.2594564268129931,0.0017771567971970482,nan
1740797043.39139,-0.04273238832169453,0.6274571640140781,-0.2345656130781143,-0.0874938688165542,nan
1740797043.395299,-0.011515734718827041,-0.11979251260412525,-0.57663153953646,-0.0064618469928541655,nan
1740797043.3992047,0.11597478953570227,-0.745078975089039,-0.40518205622764947,0.2081123094538558,nan
1740797043.4031107,0.15996337883956424,-0.8870548102619309,0.16716939520290414,0.32462693207676274,nan
1740797043.4070168,0.02087260496187028,-0.5259661544552104,0.602937073210825,0.1588141176089507,nan
1740797043.4109225,-0.19783446147484507,0.03976624223543278,0.4567744091615469,-0.203779171284707,nan
1740797043.4148285,-0.3015654158519285,0.418676047089945,-0.13551953911437517,-0.46603751545563155,nan
1740797043.4187343,-0.2148507541534368,0.3957333788832678,-0.5482790322781469,-0.4073829171345912,nan
1740797043.4226403,-0.04285395199543833,0.07074903005726571,-0.311396835943616,-0.09445935237864767,nan
1740797043.426546,0.07252803798289971,-0.22954362179342025,0.3508288611444881,0.20185914325628357,nan
1740797043.430452,0.11037015315520814,-0.20869678846011694,0.7036510748512654,0.27722177273973714,nan
1740797043.4343581,0.15127021588750472,0.16116938232148148,0.272772776205313,0.16207111871833052,nan
1740797043.438264,0.22657250559018388,0.6040668218258847,-0.6011986860801264,0.037325395451755145,nan
1740797043.4421725,0.24810422393205275,0.7377341549707969,-1.0487057071875967,0.025192350539497067,nan
1740797043.4460783,0.11795699338104126,0.3561313015178542,-0.543333989986338,0.08598084098919852,nan
1740797043.4499843,-0.12228022924545988,-0.40430879068271064,0.5336103547264921,0.10005913813633459,nan
1740797043.45389,-0.3016352742287814,-1.120732689577293,1.2288438664247003,0.011479165140831953,nan
1740797043.457796,-0.29060010467644015,-1.3254935319421086,0.920020593998383,-0.1236496415488717,nan
1740797043.461702,-0.13228323566561104,-0.8009658755386398,-0.11469623547860648,-0.20801197049364312,nan
