timestamps,TP9,AF7,AF8,TP10,Right AUX
1740795684.202441,0.1720481391974235,-0.16131243572213888,0.10086625290283062,0.25230750334472846,nan
1740795684.206347,0.06226653709965189,-0.33575476585908903,0.43975446049925626,0.03288407274242365,nan
1740795684.2102528,-0.040820065726339255,-0.16528525333436744,0.43199512750936825,-0.16054862399458056,nan
1740795684.2141588,-0.020070250161937822,0.14147645055906502,0.07930340445168095,-0.16200148144002594,nan
1740795684.2180645,0.057101075250601076,0.2663557050106954,-0.3323837738542378,-0.041767373470168255,nan
1740795684.2219706,0.052251822474726276,0.09879736492897999,-0.5020180105999457,0.013746283615923737,nan
1740795684.2258763,-0.0534600863237312,-0.18057922979154692,-0.3219343389434812,-0.055808351760445775,nan
1740795684.2297823,-0.138601872502802,-0.30765237760748637,0.09927024244734961,-0.12223923304046047,nan
1740795684.233688,-0.10287667184955407,-0.19167410018004089,0.5153733553070494,-0.04978283840004813,nan
1740795684.237594,0.009605300848460582,0.03554315319457274,0.6443177316395614,0.12049124587126965,nan
1740795684.2415,0.07910231526207702,0.18451011830232583,0.3190502028794909,0.2156058974213617,nan
1740795684.2454057,0.06534668231420178,0.18075088332478886,-0.3357277698172864,0.14198145107926616,nan
1740795684.2493167,0.03979784773381514,0.08292760125414565,-0.8842887124291359,-0.0049229209289640904,nan
1740795684.2532227,0.0646089884072686,-0.0150771613302901,-0.8668894482925238,-0.06436939311560856,nan
1740795684.2571285,0.09640257896017156,-0.0585962817203917,-0.21991260641357033,-0.005564712449494976,nan
1740795684.2610345,0.05020696039273358,-0.03109280185432436,0.5949871631564565,0.047609836421783056,nan
1740795684.2649403,-0.06862197096600317,0.05767024558599222,0.963443521463578,-0.017482380401210976,nan
1740795684.2688463,-0.15352041733201174,0.14892166722928607,0.6701459634837642,-0.15914256176497862,nan
1740795684.272752,-0.12914341287150127,0.13569605818483468,0.06393457498759023,-0.23228753010580755,nan
1740795684.276658,-0.04815672629418347,-0.048688237664121975,-0.33815630090285403,-0.15746770641330543,nan
1740795684.2805638,-0.01634230931257225,-0.3195601102320709,-0.3642775539193273,0.0018454224618903372,nan
1740795684.2844698,-0.04389802247998959,-0.45822954432704127,-0.25647115527344855,0.1303775581267717,nan
1740795684.2883756,-0.0282994678601301,-0.29615723221784424,-0.27031940696155926,0.1862793778440586,nan
1740795684.2922814,0.0981043125588286,0.10211727361245142,-0.3333364089521129,0.20573713824444295,nan
1740795684.2961917,0.2497133714942916,0.4646550831010502,-0.18439981255577165,0.20742407610863986,nan
1740795684.3000977,0.2665602727333286,0.543904626265125,0.21041495953636016,0.1457699503901549,nan
1740795684.3040035,0.10334867732392937,0.32340518054783096,0.5289833928016153,-0.017747999845877088,nan
1740795684.3079095,-0.10937302714111939,-0.0046747914438997965,0.4482134728606299,-0.22481504659321083,nan
1740795684.3118153,-0.21232289168542434,-0.23951532577846849,0.04919744093964113,-0.34241161898238415,nan
1740795684.3157213,-0.18796796151507997,-0.31873734063075476,-0.2500099710646988,-0.2849303076822837,nan
1740795684.319627,-0.1432044436968174,-0.2852242589903199,-0.17492343467407742,-0.09764410394300345,nan
1740795684.323533,-0.14104865429624971,-0.17971681372196377,0.09488079919980369,0.09016876416928696,nan
1740795684.3274388,-0.11385481248657102,-0.023849358196852858,0.16700562891196735,0.18265616315696803,nan
1740795684.3313448,0.024694226135356868,0.11543272492692305,-0.07271935173061297,0.17906901448293897,nan
1740795684.3352506,0.2245709021894234,0.1333211129059414,-0.32877610616019765,0.13605084219182817,nan
1740795684.3391566,0.32252850151139745,0.014673457137612343,-0.27737691218772437,0.09737534409433643,nan
1740795684.3430665,0.2298086064900763,-0.08584753652068887,0.028255275998779545,0.06677090307366465,nan
1740795684.3469722,0.04447568904522222,0.020940993075741255,0.23581144496393555,0.02692819190632681,nan
1740795684.3508782,-0.06443192572961988,0.3112973104863236,0.14156197248928437,-0.03579862635912421,nan
1740795684.354784,-0.05879394062175244,0.4966265158234494,-0.06926856267370932,-0.11833071137614526,nan
1740795684.35869,-0.06017211942969434,0.29796601438941994,-0.08678616042334371,-0.1913864583771962,nan
1740795684.3625958,-0.16735084241798173,-0.22122638614201223,0.11074099133072543,-0.2027141231094334,nan
1740795684.3665018,-0.3011589747328976,-0.6603323986317411,0.23539071484727384,-0.11502656723440875,nan
1740795684.3704076,-0.28514381781457276,-0.6656267527602622,0.08259292312000828,0.04124080130191482,nan
1740795684.3743136,-0.06706600418998349,-0.2825447404666558,-0.1809900288097615,0.16749057541444376,nan
1740795684.3782194,0.19989134879205017,0.12470463399690782,-0.2189510542546085,0.17829237192348096,nan
1740795684.3821251,0.32249569170727366,0.289506847249089,0.036996799419243595,0.08986457212363981,nan
1740795684.3860312,0.27303079970658295,0.29784838254961515,0.27856333818204615,0.006650435756409797,nan
1740795684.3899405,0.1810618984790854,0.3827276500108103,0.19008951071711408,0.005153859080096517,nan
1740795684.3938465,0.13586205609854776,0.5347035014396729,-0.16588738003254994,0.04709133077266568,nan
1740795684.3977523,0.06768009054080716,0.4506981181460828,-0.4259578704290118,0.03276489781024154,nan
1740795684.4016583,-0.13091189454702098,-0.07042308332274493,-0.35513499412838595,-0.06507270147667987,nan
1740795684.405564,-0.4024233379883935,-0.7614460650135274,-0.08388733598195856,-0.1560573873606877,nan
1740795684.40947,-0.518899074300851,-1.0473796231059975,0.11797313093611579,-0.14006493684031893,nan
1740795684.4133759,-0.3125377555135432,-0.6213645122590992,0.19470540291866206,-0.03429686339527095,nan
1740795684.4172819,0.11751196112029222,0.19926128890321962,0.3072750430118301,0.0471481578118186,nan
1740795684.4211876,0.46782802834233056,0.7608712776368497,0.5046272002230066,0.03945466884161844,nan
1740795684.4250934,0.5012632105900251,0.7063187625876088,0.5484839619607674,0.006768863306900417,nan
1740795684.4289994,0.23920452056258856,0.2657134332178614,0.18136279991500462,0.043766886251408406,nan
1740795684.4329052,-0.09898247453641273,-0.07748332038090354,-0.4793666568951227,0.12734579002750226,nan
1740795684.4368143,-0.3012594973611074,-0.11815294961466659,-0.9513826799085592,0.12814963559668702,nan
1740795684.44072,-0.29405102199096833,-0.054617111919856604,-0.8479765067596186,-0.012322243485825005,nan
1740795684.444626,-0.12684553149172262,-0.13458567526492868,-0.2664040110498352,-0.16856247255060056,nan
1740795684.4485319,0.09354769136091144,-0.3152003246292598,0.34073281007492245,-0.15585836817813462,nan
1740795684.4524379,0.23948908062763288,-0.35139582688325977,0.62899646568932,0.0363331505833653,nan
1740795684.4563437,0.20578260652333052,-0.1482330800682915,0.6056768845699311,0.198747627030516,nan
1740795684.4602497,-0.003358838119393762,0.11083967871518165,0.4372943304975263,0.13156244692376803,nan
1740795684.4641554,-0.22821466810655852,0.21958042190641117,0.17715417297501615,-0.11133711797955988,nan
1740795684.4680614,-0.2621909865280203,0.2203216383112148,-0.19082854241255062,-0.26706144079144006,nan
1740795684.4719672,-0.05891952448676609,0.3002738559680869,-0.5140631780036481,-0.1618376973844643,nan
1740795684.4758732,0.1882350142465548,0.4431193769042876,-0.4910979174567571,0.08808348038517562,nan
1740795684.479779,0.22705227942850345,0.3423073058437627,-0.04540612279609048,0.2153337036208553,nan
1740795684.483691,0.02096089785009691,-0.21766163649205705,0.42898014598394696,0.11263324011973941,nan
1740795684.487597,-0.19560454544908917,-0.9430195170838295,0.39398338786305676,-0.05867353938028612,nan
1740795684.4915028,-0.16881894519897703,-1.1602460257742906,-0.20287757488510705,-0.08379519270839796,nan
1740795684.4954088,0.08736012925559684,-0.4793811978137564,-0.7582071577391908,0.04351886087878581,nan
1740795684.4993145,0.2996104581708664,0.7004090805854144,-0.6154381998976736,0.13441831917594843,nan
1740795684.5032206,0.2368026986967709,1.4551017738390997,0.18253104453482685,0.059736855042644754,nan
1740795684.5071263,-0.03863920736062624,1.1707802456372594,0.8808775391655869,-0.08850784331069178,nan
1740795684.5110323,-0.2530585162359203,0.10926250603733928,0.8148778847639951,-0.12993308391192956,nan
1740795684.514938,-0.23052361601530955,-0.8682037577954846,0.13037937152995302,-0.037766212933860635,nan
1740795684.5188441,-0.0664568302474436,-1.1072443749719667,-0.4117029567004754,0.032099972621477874,nan
1740795684.52275,0.019560987219082025,-0.6660079511578747,-0.31726016057383233,-0.038525207384826565,nan
1740795684.526656,-0.044535893889743085,-0.07919476225411216,0.10851969282238288,-0.15573074179584231,nan
1740795684.5305712,-0.11221309113264623,0.25157626831023294,0.1884221527867665,-0.12399417213892838,nan
1740795684.534477,-0.014926406301737534,0.3554464787979019,-0.2762372808167323,0.09254254791552066,nan
1740795684.538383,0.22145265367937633,0.44948837045031853,-0.7559195317971892,0.29653124441246925,nan
1740795684.5422888,0.3907140718700815,0.5567354712771241,-0.6254559320284524,0.2771831342812933,nan
1740795684.5461948,0.3197774232249605,0.4683358034850315,0.09382485135750776,0.055623393080402,nan
1740795684.5501006,0.03709623173295607,0.052518771527881675,0.7542735250798581,-0.14628742874843328,nan
1740795684.5540066,-0.26594726503835636,-0.5051269206444876,0.8030979958088112,-0.16827215475966378,nan
1740795684.5579123,-0.4057984796151005,-0.8284006404569806,0.33712051285865186,-0.07624941233313481,nan
1740795684.5618184,-0.3299797069556265,-0.6927056265289404,-0.11105239376199182,-0.038472409307228644,nan
1740795684.5657241,-0.1147203575262427,-0.20656403223642839,-0.2143030551650031,-0.09401623906426972,nan
1740795684.5696301,0.1073480749015415,0.321151828817191,-0.13065891864489676,-0.11798647732858783,nan
1740795684.573536,0.21940359238400567,0.6346374028716338,-0.16396566020226855,-0.014336293459473903,nan
1740795684.5774472,0.17826681650238407,0.6492422430658074,-0.3216212279492547,0.13491888885665845,nan
1740795684.5813532,0.0480667532080862,0.40453297187132964,-0.33819703290305847,0.16963941722903886,nan
1740795684.585259,-0.036029177667752335,0.00231488249327037,-0.07751715597829546,0.06646844744559409,nan
1740795684.589165,0.01448930777637574,-0.3930887410025586,0.2511567937908217,-0.024722510954777337,nan
1740795684.5930707,0.13958728443924684,-0.5784457058117859,0.34056177393706355,0.019013362141584517,nan
1740795684.5969768,0.17350875660309967,-0.43596284911471583,0.1540130858559282,0.11929287331799135,nan
1740795684.6008825,0.021140824682107637,-0.06176777742152928,-0.06041341235571469,0.08871633846410584,nan
1740795684.6047885,-0.21589517181934134,0.27488103033847117,-0.09691223713817994,-0.11455005085241059,nan
1740795684.6086943,-0.32310394167336925,0.3510321245066685,-0.013597439365415026,-0.29796439834707283,nan
1740795684.6126,-0.19569823203706613,0.17836659335607602,0.016728512094039978,-0.24393572618709006,nan
1740795684.616506,0.04506631131014563,-0.038585920162908814,-0.02236736994919405,0.02572299136582581,nan
1740795684.6204119,0.17899151113977693,-0.1229929221062565,0.010463177811872603,0.25402586486374407,nan
1740795684.624323,0.11719862639883147,-0.07801411903960193,0.15780623906555863,0.22600222570189793,nan
1740795684.6282287,-0.022008716263490047,-0.018904027646158002,0.23765314403918042,-0.002262278924488666,nan
1740795684.6321344,-0.06431906934315734,-0.0003640970779130194,0.0619641241238462,-0.17991548867092516,nan
1740795684.6360404,0.030435417376807435,0.03368675745355116,-0.27743512860248304,-0.13837282493180736,nan
1740795684.6399462,0.15103429736022736,0.12594723708193695,-0.4611306145349711,0.05068765589201258,nan
1740795684.6438522,0.17889390678886585,0.19077877940673718,-0.3059308408138728,0.18714704720390019,nan
1740795684.647758,0.10181493005685194,0.0871960099923721,0.014278479264839196,0.15961167191595885,nan
1740795684.651664,-0.018498739897754336,-0.1862808995995275,0.18499699586801177,0.023032486484455796,nan
1740795684.6555698,-0.13815645676259486,-0.4206712302795513,0.13726367628922942,-0.10217003585574524,nan
1740795684.6594758,-0.2423030546653778,-0.37420970381265234,0.104757804352354,-0.14966693283267393,nan
1740795684.6633816,-0.2854106762474164,-0.030103854423010643,0.2726426489422333,-0.12252958573577696,nan
1740795684.6672876,-0.1914842112112859,0.35238499934090617,0.47836213594341725,-0.047320315753581414,nan
1740795684.671198,0.04422761614040547,0.47030470781979616,0.3773300992295558,0.03976866567088139,nan
1740795684.675104,0.2855109262212896,0.26034847458847565,-0.10716489759968809,0.08232196871814115,nan
1740795684.6790097,0.34954918948526825,-0.058245403459595266,-0.6164422476474635,0.03881116820368609,nan
1740795684.6829157,0.19146429745384783,-0.2144627121168875,-0.7104105575181463,-0.050997597404245296,nan
1740795684.6868215,-0.03816716047172505,-0.13821421333714412,-0.3400150418770149,-0.07546286451185313,nan
1740795684.6907275,-0.1492331180571566,0.017042534653212406,0.11735846001528702,0.02897121376628347,nan
1740795684.6946332,-0.10767934251124775,0.06799363177480515,0.2872259519653367,0.178119208161833,nan
1740795684.6985393,-0.04047789256635151,-0.02210888672511669,0.17218692318535694,0.20802768924407303,nan
1740795684.702445,-0.053017701791085114,-0.15589714928309936,0.054288557881724556,0.06035909114839492,nan
1740795684.706351,-0.09546757829225401,-0.23525998822404368,0.10515944871250421,-0.1349612659094906,nan
1740795684.7102568,-0.047418777699195815,-0.2301225642514861,0.21127613677030815,-0.19822052036957385,nan
1740795684.7141626,0.09565312456180619,-0.12764635198837473,0.19413442764672303,-0.10484968924621928,nan
1740795684.7180727,0.1864425425368716,0.10760325970291475,0.08077630466854079,-0.004738888800371515,nan
1740795684.7219784,0.09917927747986129,0.4509831886775084,0.04396275893445242,-0.026707783116265114,nan
1740795684.7258844,-0.10428345134732478,0.7100341344925812,0.10737342832993689,-0.11219472002542379,nan
1740795684.7297902,-0.23106273567707283,0.5999895808293488,0.051702115428523085,-0.09237881792435165,nan
1740795684.7336962,-0.17130938742131738,0.02579293022302349,-0.29921135071357974,0.08461183088746997,nan
1740795684.737602,-0.005485009165257809,-0.7060520282117754,-0.758181539149359,0.2663335915781509,nan
1740795684.741508,0.1189283092054331,-1.0498540928970457,-0.867022348670308,0.26681599943704754,nan
1740795684.7454138,0.1676526827406866,-0.6973960467798305,-0.36513348310381905,0.08694742681885557,nan
1740795684.7493198,0.2171862929793785,0.08442866885379649,0.48041589381408734,-0.0894014355935447,nan
1740795684.7532256,0.28328464300706846,0.6514975706930848,1.0744561730608595,-0.11620787392149136,nan
1740795684.7571316,0.2336068719950739,0.5826377779833976,1.0265779514202285,-0.04636886565845086,nan
1740795684.7610373,-0.059678867943824716,0.08693857465183423,0.46397902297761207,-0.039280414312018466,nan
1740795684.7649472,-0.49481385275584266,-0.22807183588412522,-0.1585318315284103,-0.1437370974810146,nan
1740795684.768853,-0.7441607449056941,-0.010493757942161003,-0.4900023251505488,-0.2332599287188498,nan
1740795684.772759,-0.5410246369761728,0.45321201495256,-0.5063234686009455,-0.16603937529698054,nan
1740795684.7766647,0.03835577420227777,0.5555869483254405,-0.3875506974032508,0.040673500475837024,nan
1740795684.7805707,0.6076908762596047,0.05420627397220718,-0.28591204592178476,0.23269911856814016,nan
1740795684.7844765,0.7956975298685363,-0.630681213415628,-0.23494187245921772,0.28861867273157876,nan
1740795684.7883825,0.537751479921218,-0.853718839096561,-0.19595261600750277,0.21823177948696557,nan
1740795684.7922883,0.07046457637414116,-0.4437202175103124,-0.10276846463850413,0.09661206195488244,nan
1740795684.7961943,-0.30935162025285895,0.12083997644136904,0.12050466372847522,-0.03599380826156483,nan
1740795684.8001,-0.45407559823742877,0.2695186617862388,0.484385108860089,-0.1656385024109832,nan
1740795684.804006,-0.38376643605516564,0.001146358317311107,0.8244951343127513,-0.23684707470152486,nan
1740795684.8079119,-0.1891419063822483,-0.1247098735781252,0.8375830038938237,-0.17524514367832258,nan
1740795684.8118212,0.03246376183372457,0.31161882277383024,0.3456578143746759,-0.0036978708066765526,nan
1740795684.815727,0.18118525073610597,0.9931994058052627,-0.43946306976210575,0.1236258984035999,nan
1740795684.819633,0.17751079960812338,1.1075798134562824,-0.9941334465910018,0.07135380200030872,nan
1740795684.8235388,0.030157321951643647,0.23639429456698774,-0.924663087487639,-0.09947602203159209,nan
1740795684.8274446,-0.13465366183963418,-1.0682708107974959,-0.3513412559124338,-0.16917015353345932,nan
1740795684.8313506,-0.15662940484823928,-1.7117252201245285,0.20010650023315324,-0.009151268075725623,nan
1740795684.8352563,0.017805193754229943,-1.1123847300582492,0.325094047812549,0.245461163517055,nan
1740795684.8391623,0.274055855040749,0.20161143652999514,0.12924989729248212,0.3283374214094661,nan
1740795684.8430681,0.41179958870234823,1.0965346085915495,0.05009093054580881,0.14178045630675254,nan
1740795684.8469741,0.2981166370945905,0.9311010684590864,0.3109877170377207,-0.13096493777144783,nan
1740795684.85088,-0.033176606865888,0.12002672140733718,0.6322054567036688,-0.23639846855494207,nan
1740795684.854786,-0.39732413438293973,-0.3902790311373274,0.5418385002748428,-0.12821023154359468,nan
1740795684.8586943,-0.5673738358571077,-0.13802025458322545,-0.055337633258094925,0.01657882903751668,nan
1740795684.8626003,-0.4162699299813347,0.43045076882726957,-0.7018705919838503,0.036100557333575374,nan
1740795684.866506,-0.018924495124691788,0.5373444591903052,-0.8272654078159186,-0.03820910406432306,nan
1740795684.870412,0.36647564383496506,-0.028177254176958766,-0.3373138151112613,-0.07138581075716309,nan
1740795684.874318,0.46832547519303486,-0.6845739349553405,0.2879963215645415,-0.027095797559708475,nan
1740795684.878224,0.22272329903875948,-0.7285222486567056,0.4937299776519074,0.004096781916473106,nan
1740795684.8821297,-0.15032054924685181,-0.13287607865755272,0.2031935567349959,-0.027831324848655643,nan
1740795684.8860357,-0.3221975494010343,0.4221318421595342,-0.16377838845618484,-0.03126596390564595,nan
1740795684.8899415,-0.14785990892941242,0.316812522210963,-0.19756646074179102,0.09500692045926205,nan
1740795684.8938475,0.20336073917205744,-0.29841254981933324,0.05283953604055319,0.27513424760733535,nan
1740795684.8977532,0.4122802040596109,-0.6487262822529791,0.18887643244739588,0.300513358142521,nan
1740795684.9016593,0.30269477350432833,-0.19161627183722174,-0.014069074382057404,0.08594233799631512,nan
1740795684.9055707,-0.028756940762913952,0.7481034287875815,-0.2922475849207246,-0.1945704769852856,nan
1740795684.9094768,-0.3435950781094061,1.2688112285121447,-0.18485243155077635,-0.2975999666790169,nan
1740795684.9133825,-0.47385696193054766,0.8132024304518796,0.3716625787375713,-0.20044247274093333,nan
1740795684.9172885,-0.39782943990528574,-0.2571212081538891,0.8426031740459312,-0.10799436858378487,nan
1740795684.9211943,-0.17207795413146226,-1.0363294254058353,0.59709892958724,-0.15276576041232653,nan
1740795684.9251003,0.1257674800125769,-0.9821032815117812,-0.36579590795370887,-0.1889837077216192,nan
1740795684.929006,0.3773486284978164,-0.3870988848391467,-1.2718582431106604,0.013195071419780723,nan
1740795684.932912,0.4351796997239301,0.05038809905119737,-1.2580962612665625,0.40049183478961325,nan
1740795684.936818,0.2477399425113012,0.029297288175854155,-0.24468762973007066,0.601253813483506,nan
1740795684.940724,-0.02981347058620087,-0.08627171167522521,0.9223757352199511,0.3384528350095393,nan
1740795684.9446297,-0.1384134054071733,0.19480308561501264,1.2605548406107696,-0.19123073344539537,nan
1740795684.9485357,0.009194499985401733,0.8022332645520467,0.5929885752604748,-0.4780188469717371,nan
1740795684.9524472,0.1931947878571975,1.091602901602563,-0.32568461311142854,-0.2634906390085573,nan
1740795684.956353,0.10865155509891128,0.5572697428627987,-0.6218943019695122,0.15442087819078595,nan
1740795684.960259,-0.2637054894615709,-0.5234659707316404,-0.18232157743780134,0.2631740956148433,nan
1740795684.9641647,-0.5829742435766392,-1.2650622530064262,0.32601152045198606,-0.06605534567886598,nan
1740795684.9680705,-0.5070836095915904,-1.026193907456949,0.26638981218329755,-0.4363680570233895,nan
1740795684.9719765,-0.09026487015541701,-0.05045155499670234,-0.2595078089407256,-0.4044308585375459,nan
1740795684.9758823,0.26762845850940353,0.774821407009523,-0.5859283523104521,0.00500149305726452,nan
1740795684.9797883,0.28723143702098664,0.7781531155878723,-0.29549552553269365,0.36158153431017237,nan
1740795684.983694,0.13424796165421415,0.09624581646203946,0.29127943304135795,0.35942049831497674,nan
1740795684.9876,0.18744421649491924,-0.5539717677938999,0.505876022718878,0.14460541495747622,nan
1740795684.9915059,0.5151085588458546,-0.6068019251463292,0.12165417134447587,0.060202234722852084,nan
1740795684.9954119,0.7159724732295896,-0.1147285534260383,-0.3879759473349801,0.1759327440764219,nan
1740795684.9993227,0.3656182494781545,0.43444747174388176,-0.4108446510116558,0.2175117310130893,nan
1740795685.0032287,-0.43758356538926196,0.6341010100362522,0.09668565880523408,-0.034049919471058156,nan
1740795685.0071344,-1.0922329297212345,0.44871916338274836,0.5768313126292539,-0.4147569329541375,nan
1740795685.0110404,-1.0905685382137107,0.09101775716283728,0.5206510151837686,-0.5543694621116853,nan
1740795685.0149462,-0.5159580139460859,-0.23997170842678905,0.02441846524446113,-0.3244136501714874,nan
1740795685.0188522,0.1146941765929308,-0.453229548780839,-0.37083517574025954,0.020618706688692996,nan
1740795685.022758,0.43655232380438047,-0.4989536767914009,-0.31667405255690495,0.17386719725993063,nan
1740795685.026664,0.5386062664484407,-0.34138946256565134,-0.008355168883965576,0.13291090295145186,nan
1740795685.0305698,0.6677870365862653,-0.03367897747902496,0.11434254831872771,0.13026859808964636,nan
1740795685.0344758,0.7843658269993955,0.25277566290846476,-0.09937629101013053,0.26808129826902194,nan
1740795685.0383816,0.5809052065418897,0.3512451753467891,-0.376731608035383,0.36999478856403595,nan
1740795685.0422873,-0.05282726660651323,0.2544231258553811,-0.38002858009817275,0.2427394056016913,nan
1740795685.0461977,-0.7440598507570021,0.1041343309796618,-0.0771261749890664,-0.03265071239372563,nan
1740795685.0501037,-0.9549769731260864,0.019821981487100754,0.2888265020004349,-0.19829687690236966,nan
1740795685.0540094,-0.5647423232148283,-0.018846176427839288,0.5032995319841724,-0.17492383294100586,nan
1740795685.0579154,-0.014081066280605922,-0.0908384188122804,0.5419133429484665,-0.16675697116355226,nan
1740795685.0618212,0.18123396651637455,-0.17644689564302252,0.4499367657817925,-0.34073356640225916,nan
1740795685.0657272,-0.014757613091338022,-0.151523515754881,0.2015220333828938,-0.515631317672417,nan
1740795685.069633,-0.17408714353715712,0.04200568117145397,-0.2208361043395008,-0.33615465748499374,nan
1740795685.073539,0.055025259790845785,0.26976146857500455,-0.6566146081596861,0.2319300172950095,nan
1740795685.0774448,0.532677292374459,0.3033805848025944,-0.8089396622939412,0.7356887585563399,nan
1740795685.0813508,0.7960116084232782,0.04801260894806264,-0.5221152895820615,0.6904186082210184,nan
1740795685.0852566,0.5694796947980084,-0.35326957432303785,0.024043499365359912,0.15085926132301516,nan
1740795685.0891626,0.02298644133444059,-0.6361404689508949,0.45465673670514933,-0.31587659474130403,nan
1740795685.0930724,-0.45088965997897873,-0.6045673598563698,0.5286453976712926,-0.2668125922008862,nan
1740795685.0969784,-0.6106175708734297,-0.2203013231976073,0.30120909704289023,0.12032240883617841,nan
1740795685.1008842,-0.48391976704834383,0.4019455058549097,-0.0027736359359869203,0.2881384884330091,nan
1740795685.1047902,-0.22018946992366667,1.0011772313239125,-0.1921817185216999,-0.022034332385049836,nan
1740795685.108696,0.04565265379726382,1.2114124234627215,-0.1754711306985183,-0.4808262338836797,nan
1740795685.112602,0.1913734682972234,0.7605354704035994,0.060311672187538315,-0.5959022303652621,nan
1740795685.1165078,0.11576875869786225,-0.23310790593073807,0.40730015558173055,-0.29175143494463995,nan
1740795685.1204138,-0.13692428141389085,-1.1886300073259686,0.5905375161033452,0.0681499179051859,nan
1740795685.1243196,-0.306305163736416,-1.4457084541903213,0.3230679785826868,0.1865549576066323,nan
1740795685.1282256,-0.10888927276909864,-0.8449453986874199,-0.3693017558406177,0.1754264749524491,nan
1740795685.1321313,0.4311541314065388,0.08925282796619105,-1.0279086990936452,0.30893468449330486,nan
1740795685.1360373,0.9079910991556742,0.6328257797369508,-1.1142257738749632,0.5630512010528904,nan
1740795685.139947,0.880664283802061,0.554057264949391,-0.5442775464975131,0.5924032486825045,nan
1740795685.143853,0.3007497661130978,0.26680516575521096,0.20835631522912654,0.19022858953167895,nan
1740795685.1477587,-0.4503864215541049,0.27287200333461337,0.617969102237561,-0.38595537072902086,nan
1740795685.1516647,-0.9399160314086393,0.5451037136292549,0.6515218981957027,-0.6737665582286059,nan
1740795685.1555705,-1.0256513656238275,0.5860517884475656,0.685048893164221,-0.5288272080873107,nan
1740795685.1594765,-0.8095080263691972,0.09051332167005109,0.8915471990347907,-0.24242819161197665,nan
1740795685.1633823,-0.3801212990724093,-0.6064483850293122,0.9075932901845047,-0.12411624204940883,nan
1740795685.1672883,0.23601817026769617,-0.8718493606638041,0.2774490520573134,-0.12047776808410847,nan
1740795685.171194,0.8663345910863423,-0.5135190744945531,-0.8415384757549655,0.031754451543880034,nan
1740795685.1751,1.1284164671586083,-0.009777179390920076,-1.6544240043878233,0.36014023043248183,nan
1740795685.1790059,0.765059683722081,0.0706485716835319,-1.5286388576307781,0.5596438291387017,nan
1740795685.1829119,0.029678009628623776,-0.2407321941923382,-0.6863283510084474,0.39742496244418885,nan
1740795685.186821,-0.44523561870572564,-0.3636632641834736,0.0863675786769755,0.06072676323986729,nan
1740795685.190727,-0.2890838495019475,0.0911921394941859,0.37631115217371197,-0.0604006462708319,nan
1740795685.1946328,0.1666949978741866,0.8030084060890381,0.5395126985408137,0.10670562666931313,nan
1740795685.1985388,0.23498258526262084,1.084955294897012,1.038081872484404,0.20278898459514674,nan
1740795685.2024446,-0.3243237857048967,0.6706807139530534,1.6036764905795933,-0.08241933528356937,nan
1740795685.2063506,-0.9816716926835507,-0.014799790353526016,1.4178225017721418,-0.5599253227779968,nan
1740795685.2102563,-1.0141340842227118,-0.40027970384715744,0.19826724600078013,-0.7445153933441936,nan
1740795685.2141623,-0.32544582228500724,-0.41589359632134226,-1.205971423021309,-0.4683211637333069,nan
1740795685.2180681,0.4585412425037223,-0.44112143949682375,-1.6252061775468742,-0.08372938417944203,nan
1740795685.2219741,0.7198775471074776,-0.682669663247149,-0.9127395592928774,0.037140767028849234,nan
1740795685.22588,0.5106249627932874,-0.8465066584045754,-0.13034524772469977,0.029876700953890757,nan
1740795685.229786,0.36648659626902147,-0.5498929652165343,-0.23436594509554742,0.33067928449144635,nan
1740795685.2336943,0.5620423266626715,0.09913762540039064,-0.8558615225210895,0.962318328323722,nan
1740795685.2376003,0.7694183490661939,0.5839109121600236,-0.7705415113879691,1.3058959559813483,nan
1740795685.241506,0.5188670625407588,0.6633147193036691,0.4548238931409576,0.7895113716648423,nan
1740795685.245412,-0.18251581756527313,0.7178429687379174,1.7564733248970252,-0.3198969580190007,nan
1740795685.249318,-0.8777208650161018,1.1735900542416284,1.837475034566804,-1.1007447657787215,nan
1740795685.253224,-1.2319975681360782,1.6662279619361755,0.8557219030919296,-1.0205532344926258,nan
1740795685.2571297,-1.3202759268257935,1.1431822901453152,0.2494797147503468,-0.5464184716184045,nan
1740795685.2610357,-1.249418299636788,-0.9161801343805671,0.7174880858847187,-0.4828974623717229,nan
1740795685.2649415,-0.7505804185776478,-3.4552391891085117,0.962078765608017,-0.8363979156540264,nan
1740795685.2688475,0.4943781997410926,-4.360763654597028,-0.8133827475151214,-0.7262915455987657,nan
1740795685.2727532,2.086689894836695,-2.3432536339698204,-4.137049654938776,0.4097076288024875,nan
1740795685.2766593,2.844065749764686,1.6159792908322808,-5.815606079771254,1.826207006758197,nan
1740795685.2805707,1.8902941195958756,4.798415992299382,-3.0656495745527583,2.1223896264421334,nan
1740795685.2844768,-0.1987265347036425,4.905399991958927,2.9293955174439734,0.9272919030343344,nan
1740795685.2883825,-1.7031631198767148,1.907281734205575,7.367354225928489,-0.4801053816265768,nan
1740795685.2922885,-1.4831453861995325,-2.006360574543801,6.360753171015803,-0.6024847751007438,nan
1740795685.2961943,-0.2617793409188681,-4.188880270287437,0.9906551234153411,0.3732728398392968,nan
1740795685.3001003,0.14872803681581714,-3.4405176735774234,-3.711260848509843,0.6201594531688328,nan
1740795685.304006,-1.014039339922207,-0.6423429853057405,-3.972427233351176,-1.1080710732910855,nan
1740795685.307912,-2.400967634089559,2.0904478530766197,-1.007741402024907,-3.604401663324085,nan
1740795685.311818,-1.962730065308753,2.933892452409457,0.8520482132169824,-4.105649227460602,nan
1740795685.315724,0.6200469350720161,1.5360217059847134,-0.6007661941856465,-1.2590913443407956,nan
1740795685.3196297,3.295171308990179,-0.8297690123007334,-2.948740500943026,3.110796095010913,nan
1740795685.3235357,3.694447078122915,-2.2474076759214356,-2.287378956688057,5.570385490994477,nan
1740795685.327447,1.6820755345167655,-1.671992251615503,1.7425469981538886,4.410774687266575,nan
1740795685.331353,-0.5142642379244873,0.1844134365760189,5.0949943230404084,1.1534364015685834,nan
1740795685.3352587,-0.8334618404082227,1.4906358280559344,3.859006665452885,-1.324803634516611,nan
1740795685.3391647,0.258631633294919,1.0704320429959353,-0.9999653537534978,-1.8265804078513748,nan
1740795685.3430705,0.32868462981736035,-0.3516110552264431,-4.353211689471323,-1.642103478636057,nan
1740795685.3469765,-2.0521639143759485,-0.8538684632764633,-2.532692196961934,-2.444384158595034,nan
1740795685.3508823,-5.231066880512654,0.5303172136396402,2.4298219460591732,-3.924451230305715,nan
1740795685.3547883,-5.752535175756083,2.451265570939636,4.855175581289101,-3.962033159815315,nan
1740795685.358694,-1.8436556311033916,2.374841009988451,1.6274696239963566,-1.0856715769035725,nan
1740795685.3626,4.470793486969242,-0.6779215345366035,-4.278730657855578,3.604910349305726,nan
1740795685.3665059,8.831487018459008,-4.622739309157516,-6.852505826277392,7.139019594031112,nan
1740795685.3704119,8.173797096684233,-5.87668073847888,-3.3436885502734475,7.145957780739419,nan
1740795685.3743227,3.0858528578776783,-2.7013291537500157,2.97090751095607,3.577494282012492,nan
1740795685.3782287,-3.0455047977982335,2.9444825296567223,6.3150479534734485,-1.6339499263993467,nan
1740795685.3821344,-6.876156676311776,6.930850962112433,4.220560350969643,-6.063001947914345,nan
1740795685.3860404,-7.192025347876045,6.4198387578764295,-0.4912410058605378,-7.887392484948074,nan
1740795685.3899462,-4.821080545000653,2.032436741994084,-3.1654236131876226,-6.2630446590224444,nan
1740795685.3938522,-1.2582617172221295,-3.028631948637148,-2.0637693244434843,-1.6293002367697453,nan
1740795685.397758,2.29607829457939,-5.681579069734711,0.5453239338613338,3.9740045613556565,nan
1740795685.401664,4.904746082757983,-4.943708919135924,1.4768804441976837,7.47543088258914,nan
1740795685.4055698,5.660140086080233,-1.9196430231749602,0.0485636680538382,6.658602358457453,nan
1740795685.4094758,4.061422673775282,1.4390470515402543,-1.7360006604014597,2.0782123474249885,nan
1740795685.4133816,0.717097504785546,3.4599933938373293,-1.833388855671944,-3.0216194251711235,nan
1740795685.4172876,-2.622700584627403,3.3143193824533985,-0.3342426749239335,-5.182193316486345,nan
1740795685.421198,-4.11867702621933,1.3050054501199022,1.0479889474039505,-3.503842562900203,nan
1740795685.4251037,-3.1920591474206823,-1.1424862258026134,1.1237011128829186,-0.11584313317289761,nan
1740795685.4290097,-0.9311216303504188,-2.2391117343648,0.387453283845481,2.0208419460074385,nan
1740795685.4329154,0.8653138896506548,-1.2140385970391259,0.10307208860898111,1.716561092780221,nan
1740795685.4368215,1.1617235740715828,0.868651029755438,0.6802216147258666,0.11001474589910695,nan
1740795685.4407272,0.374775582268782,1.9573433284058765,1.2644789050221532,-0.9646694797530666,nan
1740795685.4446332,-0.2583597302403412,0.9807124249794598,0.83194302995419,-0.7928533627806896,nan
1740795685.448539,0.05388493892673857,-1.0468992794177778,-0.6040252824143147,-0.006669799541145567,nan
1740795685.452445,0.9659091866840844,-2.0797205457668975,-1.981813306752009,0.5356065320350228,nan
1740795685.4563508,1.4623295358014903,-1.2180756653230724,-2.235014937509311,0.6550058120308286,nan
1740795685.4602568,0.9355352908895237,0.38120229257496946,-1.2124883211517095,0.6490262576529243,nan
1740795685.4641626,-0.222242505125392,0.9068954171216211,0.343392713764892,0.5988844733235703,nan
1740795685.4680727,-1.0622737657841694,0.01707029155811574,1.5075026696632128,0.24266147190251164,nan
1740795685.4719784,-1.0408133732615683,-0.7832678345095255,1.7873259680923752,-0.49055429471817846,nan
1740795685.4758844,-0.4830924763241125,0.010282695566667163,1.230399194681132,-1.1315832548928422,nan
1740795685.4797902,-0.10881235729068099,1.9546800254803576,0.21436556390982173,-1.0755837621102282,nan
1740795685.4836962,-0.2007530215199879,2.9241996324193056,-0.7538956735719625,-0.2805921333609488,nan
1740795685.487602,-0.3566541386535784,1.4005125292256588,-1.184654945510665,0.6068944733827921,nan
1740795685.491508,-0.06896660226728106,-1.7279427686570652,-0.8233500903742884,0.8744776203851277,nan
1740795685.4954138,0.5830200919263802,-3.875452761499693,0.11183103854525182,0.41576795462693433,nan
1740795685.4993196,0.9668665446300524,-3.2529540501218293,0.948399029116315,-0.24978298871946608,nan
1740795685.5032256,0.631628735772813,-0.5274964514828977,0.9891435168741876,-0.536328391268635,nan
1740795685.5071313,-0.1251950325372453,1.9819471466014815,0.0928357223803869,-0.28768878208846654,nan
1740795685.5110373,-0.5494983091132727,2.562512845038811,-1.1122812911812898,0.2159454890223293,nan
1740795685.514947,-0.2658930957284804,1.4548451393092798,-1.6602919112384749,0.5837167251959416,nan
1740795685.5188527,0.30877306244041064,0.14838726150326606,-1.0288834476828814,0.58798051428169,nan
1740795685.5227587,0.4541847690638499,-0.3032992234343303,0.39431476964876777,0.23764578918856666,nan
1740795685.5266645,-0.03410432786112021,-0.10391175431069691,1.5978380030199248,-0.26085249477353045,nan
1740795685.5305703,-0.6399726456047271,-0.06789777224563559,1.7627707428280703,-0.6038999358102869,nan
1740795685.5344763,-0.7429846255440493,-0.518259119924892,0.8974906949657979,-0.5824998895404533,nan
1740795685.538382,-0.305059666651999,-0.9890217808868312,-0.2582950765026434,-0.2715321186880275,nan
1740795685.542288,0.16220815035971528,-0.8818212220512446,-0.925928277563948,0.014673421234842327,nan
1740795685.5461938,0.24964691232899874,-0.1873322186218266,-0.8994386087110169,0.04703334017170579,nan
1740795685.5500998,0.10127138055146567,0.5182960175828926,-0.5376453607988946,-0.04493454976033735,nan
1740795685.5540056,0.14300165543591623,0.693903911968453,-0.2602621819065653,0.07687189430999694,nan
1740795685.5579116,0.4769054786685073,0.35041801404243855,-0.14574724309594103,0.4957543901916569,nan
1740795685.5618207,0.7164731049908649,-0.033133086308026895,-0.019347182604810536,0.8274060371927492,nan
1740795685.5657265,0.4603999516387303,-0.033946831353101004,0.19126622281880484,0.6013230933473132,nan
1740795685.5696325,-0.19231249840301345,0.2974383682354532,0.3345336056028856,-0.14793039349203924,nan
1740795685.5735383,-0.7169434542135715,0.5089441558622184,0.2837511489635252,-0.806800251342992,nan
1740795685.577444,-0.7267934429178835,0.21890440025288663,0.17152100422399277,-0.7989336985143227,nan
1740795685.58135,-0.35203208041505146,-0.45755176185222507,0.23582452150392372,-0.21894191900379828,nan
1740795685.5852559,-0.021696159479587324,-0.9474194639723443,0.4471112208646726,0.27263581439999734,nan
1740795685.5891619,0.038374349810878436,-0.7402419410433927,0.4454721094403368,0.20033684776456726,nan
1740795685.5930676,-0.010504702118595687,0.07169213447935044,-0.032969543759293604,-0.20394900160590865,nan
1740795685.5969737,0.08850193076153935,0.794960562005602,-0.7279537151635036,-0.3232116237109863,nan
1740795685.6008794,0.33555919339976265,0.7631536077206811,-1.0198119188317758,0.07645362528129347,nan
1740795685.6047854,0.48553248430721113,0.011713032814959936,-0.5967042678518533,0.5660885820988458,nan
1740795685.6086938,0.3577152601838068,-0.7168251463648141,0.14229704580222588,0.590615948416997,nan
1740795685.6125998,0.04201239037010261,-0.7030459424172348,0.48939845437697715,0.14625626816438778,nan
1740795685.6165056,-0.21246840027829586,0.023297146272967573,0.22727886296266575,-0.2377890244116304,nan
1740795685.6204116,-0.24517264443359793,0.7407092364382896,-0.12108359618055252,-0.17397409482802192,nan
1740795685.6243174,-0.0907063871434157,0.8099421285125891,0.060811500691570895,0.10823539965267792,nan
1740795685.6282234,0.09457182177732634,0.2987039844285013,0.6787101788325021,0.08252019063185109,nan
1740795685.6321292,0.1386592085848083,-0.21585493243449508,0.9587249767637105,-0.3663326186439992,nan
1740795685.6360352,-0.07358383346798993,-0.3635515967989073,0.34827791808315606,-0.7451568057562553,nan
1740795685.639941,-0.5035133523175763,-0.3249840004720866,-0.7482849639976463,-0.5309676865417687,nan
1740795685.643847,-0.8687033043681265,-0.4287538016093472,-1.3086517404079638,0.17581769173220174,nan
1740795685.6477528,-0.7474992058111152,-0.5968640148462857,-0.7822868079939176,0.7257083693798138,nan
1740795685.6516588,0.054447581949520256,-0.4163672222077816,0.2949226579628099,0.6414029361030283,nan
1740795685.6555707,1.1738238931561633,0.23449619887800144,0.8706633372068793,0.12918890044637357,nan
1740795685.6594765,1.8241115900024059,0.8627577173473184,0.49033741588560337,-0.20716003117576948,nan
1740795685.6633825,1.4152904307376584,0.8582932213464006,-0.2895359123329146,-0.07712441284451901,nan
1740795685.6672883,0.11306734968700963,0.2494773022363815,-0.59874927157887,0.2104057070011995,nan
1740795685.6711943,-1.2432952332658485,-0.2695152039289743,-0.20536281151672087,0.18284526309020824,nan
1740795685.6751,-1.821422711685106,-0.16367030868561963,0.3500422724172946,-0.20795089964319388,nan
1740795685.679006,-1.4192602082498325,0.25711274013221735,0.48492286739354734,-0.5483237235931387,nan
1740795685.6829119,-0.47334632677553545,0.1992919233129337,0.22553483527200707,-0.4737396084669846,nan
1740795685.6868176,0.4295440396385246,-0.5755854175218902,0.03375447619570112,-0.08109094456986768,nan
1740795685.6907237,0.963079245460543,-1.3149720785858505,0.12846787002506674,0.22898679259129126,nan
1740795685.6946294,1.0677286839152822,-1.066383612601087,0.20567741993613564,0.2351808777064754,nan
1740795685.6985354,0.773698115963851,0.17748809357733292,-0.10658859272806255,0.10262792002476663,nan
1740795685.7024467,0.1873924555944055,1.354901349696099,-0.6755716652346399,0.10554830884186203,nan
1740795685.7063525,-0.39940052173259166,1.4387328525611798,-0.9298061868510826,0.25752070789266046,nan
1740795685.7102585,-0.6027334708220912,0.512906141309874,-0.5069387744474292,0.3111020073395498,nan
1740795685.7141643,-0.2985479508762451,-0.4082730237726926,0.3002182553944817,0.09567287382350026,nan
1740795685.7180703,0.16929435756521802,-0.5562501380362431,0.8336035878570264,-0.24675540861019715,nan
1740795685.721976,0.28230285988841747,-0.17133625671831434,0.7459971988147406,-0.4113378813982921,nan
1740795685.725882,-0.09745266102989684,-0.016320488337533034,0.28774364437185457,-0.2688137872428734,nan
1740795685.7297878,-0.55003898886601,-0.3467312154430588,-0.06264466627829242,0.007951361108299618,nan
1740795685.7336938,-0.5556630225903078,-0.6426098426821156,-0.12276991396075099,0.1494905824821318,nan
1740795685.7375996,-0.08263283483488756,-0.37027280960237013,-0.08489003356847993,0.06642506785754407,nan
1740795685.7415056,0.3912358296631174,0.2707585782141025,-0.1586341656334623,-0.0993834521644754,nan
1740795685.7454114,0.4512035760305554,0.592647501617327,-0.29415911316396975,-0.15463725323061794,nan
1740795685.7493222,0.21163214082549558,0.3163384702541158,-0.3078990580901082,-0.03665159259737397,nan
1740795685.7532282,0.10647356380428408,-0.06856926143165562,-0.17023803564396464,0.16790807482134928,nan
1740795685.757134,0.28477868443439963,0.035321054694101274,-0.03784895972391853,0.32240340969246983,nan
1740795685.76104,0.396871666957139,0.5083434855357898,-0.008870314104568554,0.32865815116561364,nan
1740795685.7649457,0.06446841774617741,0.619215057871893,0.027133516112598125,0.16135945571237056,nan
1740795685.7688518,-0.5566483770765697,-0.030772678419628365,0.21387991447318142,-0.11640911979896792,nan
1740795685.7727575,-0.8653926326310615,-0.9151105285857132,0.46566996285461,-0.3569641014980578,nan
1740795685.7766633,-0.49976087504372785,-1.1275999007924558,0.5031016750591483,-0.40051613885796067,nan
1740795685.7805693,0.2036712436168635,-0.4352260821453931,0.18666193091232608,-0.20504910912027274,nan
1740795685.784475,0.5562145815133476,0.44266675374088155,-0.26709712800001845,0.08581154078794713,nan
1740795685.788381,0.28120243202960993,0.6703753075922531,-0.48687427360965396,0.24140021421436833,nan
1740795685.7922869,-0.20179465605611924,0.22987544981126695,-0.3470641773240482,0.14776320937043053,nan
1740795685.7961974,-0.29294650402271244,-0.15744344227582102,-0.0858866762142333,-0.07885039424056821,nan
1740795685.8001032,0.10236011716599927,0.03049485352310844,0.0021631520451450646,-0.19407708897645062,nan
1740795685.8040092,0.5163247254825656,0.49915620341421807,-0.08108990003084514,-0.054390474258243865,nan
1740795685.807915,0.5005531126993255,0.5666149900456624,-0.07459795882327956,0.24417313804890792,nan
1740795685.811821,0.11153109538675945,0.04431882850105222,0.16707145196233253,0.4445964465196161,nan
1740795685.8157268,-0.2463602701908553,-0.5440465742420443,0.4375202568451552,0.3473983773204905,nan
1740795685.8196325,-0.3408985822816992,-0.6348879706021127,0.3934677079404053,-0.022217905353034615,nan
1740795685.8235385,-0.31335176175557516,-0.2974187458855599,-0.020002266902047452,-0.4278987915440404,nan
1740795685.8274443,-0.36202758390829326,-0.06661557766731033,-0.44500811343155716,-0.5940058655990802,nan
1740795685.8313503,-0.3989481802264784,-0.19809913669424214,-0.45950321196360344,-0.4040145634347143,nan
1740795685.835256,-0.16948320517046184,-0.3289792299294794,-0.02574282819133333,0.014244197323760257,nan
1740795685.839162,0.32992758078623274,0.021534032488677357,0.45245820164021355,0.3777533779841721,nan
1740795685.843072,0.7237620084192937,0.7598343196556865,0.5241628240337336,0.4537443261027819,nan
1740795685.846978,0.6389554472990013,1.2193488208977525,0.12064016600483765,0.23030904940677144,nan
1740795685.8508837,0.14276858793751065,0.8709648913092481,-0.404480925806733,-0.0863310834129832,nan
1740795685.8547897,-0.3132211469842009,-0.09773315622391172,-0.623249672745045,-0.24963273198130584,nan
1740795685.8586955,-0.38500280332852505,-0.9772662114380051,-0.39950331899613223,-0.17101362873297987,nan
1740795685.8626015,-0.17184778610595164,-1.2178836519783203,0.0512556135026002,0.03562945642501603,nan
1740795685.8665073,-0.0170324935968448,-0.8249206048362521,0.3943466765674614,0.18579515679850514,nan
1740795685.8704133,-0.06514835187646402,-0.1622539349554105,0.44162234970459185,0.185693819320244,nan
1740795685.874319,-0.1373972627293087,0.43336956062989135,0.2394428813470275,0.07069959067480705,nan
1740795685.878225,-0.038595410260696246,0.7717898380209377,-0.02508467343665301,-0.07680734723858852,nan
1740795685.8821309,0.1488760360659266,0.7281833627257198,-0.17412429559292888,-0.20345923268599908,nan
1740795685.8860369,0.17893859222857678,0.29325392547049167,-0.14021968084157996,-0.2757296658316176,nan
1740795685.8899465,-0.005251145662526881,-0.25875638706248183,0.012370251137324303,-0.24438112179194052,nan
1740795685.8938522,-0.16839407764490097,-0.4608307779326167,0.1377641816461442,-0.07565465997541296,nan
1740795685.8977582,-0.08066432884517703,-0.1102657169445761,0.10745265274737666,0.17242413689488295,nan
1740795685.901664,0.17316418692496982,0.4029071724361795,-0.09161294854925885,0.3480846413590305,nan
1740795685.90557,0.2867691518367833,0.4238867472493893,-0.3304099478469083,0.3259522789952502,nan
1740795685.9094758,0.11772298556025797,-0.2154198984829095,-0.41865168555787097,0.13357563626042024,nan
1740795685.9133818,-0.1302421905106934,-0.8964018494442662,-0.24581353076223447,-0.06792849344953725,nan
1740795685.9172876,-0.16675631635453617,-0.8345732145783448,0.12323143014395005,-0.14228585489396733,nan
1740795685.9211934,0.013645553605776833,0.00928708124573266,0.4769729272094649,-0.10209219277621241,nan
1740795685.9250994,0.12407292105048179,0.8104944869648646,0.5959994016736685,-0.06307512145974213,nan
1740795685.9290051,-0.04479231143567697,0.7749319615777528,0.40312442312719615,-0.09470647653357286,nan
1740795685.9329112,-0.3427990248587111,0.04555769764749718,0.01582047812169925,-0.1487949006052235,nan
1740795685.9368203,-0.42067654407010935,-0.46223962954229025,-0.337754447590152,-0.13762629555201156,nan
1740795685.9407263,-0.13607619046151054,-0.14125490215583145,-0.4760671774815405,-0.04586436365632827,nan
1740795685.944632,0.28446148607741356,0.5753987697174366,-0.37463234179299987,0.06457008509304514,nan
1740795685.948538,0.5021363121643344,0.7154481833944994,-0.148915785892914,0.14163921126897183,nan
1740795685.9524438,0.4110751110283318,-0.0687665186351319,0.059391347939903305,0.18927577676927482,nan
1740795685.9563498,0.17582165257976548,-1.043867119286394,0.17937656239037764,0.2152383176366504,nan
1740795685.9602556,-0.020634913972685028,-1.1927662912643604,0.21133193995847943,0.17734997604943625,nan
1740795685.9641616,-0.16092498099337116,-0.3429523879747581,0.16736841191845242,0.031865012822638546,nan
1740795685.9680674,-0.3014145027959765,0.6671733767482014,0.05246566709501909,-0.16918341673476234,nan
1740795685.9719734,-0.3922391005730557,0.9335515722931784,-0.08679630081509929,-0.28285093627125424,nan
1740795685.9758792,-0.2998844309901614,0.42174502236558953,-0.13828637775773173,-0.21567815655797615,nan
1740795685.979785,-0.014407262211492201,-0.1413708325964482,-0.013380594117627626,-0.040188346294707564,nan
1740795685.9836936,0.25955081060231583,-0.18413789180673068,0.21720965120045607,0.07238230525672947,nan
1740795685.9875996,0.2939169977485084,0.11559104888119777,0.3226135482751252,0.04242640000103132,nan
1740795685.9915054,0.09806465328304591,0.19429926541615547,0.11784793607256444,-0.0324974930800056,nan
1740795685.9954114,-0.08079046109367934,-0.12884852141957293,-0.30503320971841963,-0.00853354506810705,nan
1740795685.9993172,-0.03802031499962762,-0.4521321402553816,-0.5960305232928718,0.11571935301647453,nan
1740795686.0032232,0.15546553317997755,-0.34886150852859205,-0.45940803154553933,0.1918713361459631,nan
1740795686.007129,0.2427465166268256,0.07248816436379849,0.035622080312679744,0.11076861288736023,nan
1740795686.011035,0.08124617859726554,0.3085918842911172,0.48723019770241105,-0.04987947096827919,nan
1740795686.0149407,-0.1985636771044009,0.09477452523353767,0.5346588908515367,-0.11226069808724712,nan
1740795686.0188468,-0.3433157653002625,-0.2729843486190443,0.19752254359465896,-0.017838535430009045,nan
1740795686.0227525,-0.2414609194375197,-0.3087390705715942,-0.17101910896812866,0.09538855693828906,nan
1740795686.0266585,-0.007874006416539604,0.07945734426827436,-0.2561081248422052,0.05923775171069293,nan
1740795686.03057,0.16406985980941455,0.4964746459938455,-0.07437964618984907,-0.11771265007567916,nan
1740795686.0344758,0.1809861989281735,0.5282689267492517,0.10504281001100263,-0.2565624530409403,nan
1740795686.0383818,0.08085512112345467,0.1806429898409768,0.08271697233769902,-0.21558319429383557,nan
1740795686.0422876,-0.049585871490278134,-0.1994702372189274,-0.07926356880656524,-0.041442918100071606,nan
1740795686.0461936,-0.13632023695830894,-0.34595976041642634,-0.1773205922625183,0.1102646101183314,nan
1740795686.0500994,-0.1219493315624402,-0.29895080424273185,-0.11267189473187443,0.16445754554427858,nan
1740795686.0540054,0.017074843398540707,-0.225647344397422,0.02739648793912403,0.17976490657686697,nan
1740795686.0579112,0.21814467577105376,-0.1582415367403477,0.10465519065514832,0.2159209415359761,nan
1740795686.0618172,0.33233004037799385,-0.011804225675339468,0.08002162939891548,0.21630484278725695,nan
1740795686.065723,0.2359745730052625,0.19424044519184774,0.011574783118660179,0.07946289217673153,nan
1740795686.069629,-0.03973574612383359,0.2783327748275306,-0.04158553438028051,-0.1713114443460305,nan
1740795686.0735347,-0.3162641292041817,0.1252773417459161,-0.05734036840919723,-0.35818781531252575,nan
1740795686.0774462,-0.4231552113413894,-0.10580379726427565,-0.01396974414181152,-0.32473201157382825,nan
1740795686.0813522,-0.3343451843917945,-0.11741893368179682,0.10566752149709138,-0.11256886428742706,nan
1740795686.085258,-0.14311763454610876,0.16372831312299566,0.23718302919809978,0.08141610453644145,nan
1740795686.089164,0.06437315146753175,0.4427117298322602,0.2225084270193154,0.12074498709810438,nan
1740795686.0930698,0.2629845883795217,0.3482291646570272,-0.03369474012385714,0.060465901687661874,nan
1740795686.0969758,0.4194656560600765,-0.14553079831476384,-0.38361274897126973,0.046974248907539255,nan
1740795686.1008816,0.4371498012323944,-0.6497772018794914,-0.49932872702267256,0.125955580405132,nan
1740795686.1047876,0.2369256367999782,-0.7350763476597094,-0.2025298658496089,0.19686173629211648,nan
1740795686.1086934,-0.10837399479711128,-0.34255381889052317,0.28250355987641546,0.1521203502207398,nan
1740795686.1125994,-0.3809309632393413,0.19606723093404763,0.4975423693217355,0.009857371355115115,nan
1740795686.1165051,-0.40479657411293685,0.5073664313406859,0.22856917160524326,-0.12047728182518319,nan
1740795686.1204112,-0.21417945722783005,0.4912256671180665,-0.22789655485083168,-0.17165099626681563,nan
1740795686.124322,-0.003372899397156504,0.3026654690009074,-0.3575546312669317,-0.16840231566610125,nan
1740795686.128228,0.08505709887593434,0.10928464829435076,1.993176820512403e-06,-0.14816842990287657,nan
1740795686.1321337,0.08268555365797611,-0.055558198722448875,0.44321488223438366,-0.09126476733620383,nan
1740795686.1360397,0.09635542364014221,-0.21415891389150163,0.4342589803361876,0.028475988137667833,nan
1740795686.1399455,0.1383627231970899,-0.3133282314875105,-0.0927898072750492,0.15379021540641186,nan
1740795686.1438515,0.11654197616184198,-0.24957104160792348,-0.6277621679766202,0.17174634754078835,nan
1740795686.1477573,-0.009142236507007033,-0.021929413971472977,-0.6186173598331292,0.054640832948060665,nan
1740795686.1516633,-0.12838078729129315,0.20079781522446077,-0.05858073489584744,-0.07160149344423168,nan
1740795686.155569,-0.09441058521191235,0.2145257603835346,0.5170049625036105,-0.05254022042837247,nan
1740795686.159475,0.08195559764687191,-0.013742277910948068,0.5992024428274629,0.10551246704097318,nan
1740795686.1633809,0.2137801927422007,-0.2911899431449707,0.19806189914110237,0.22014271300613697,nan
1740795686.1672869,0.1399053967568702,-0.360976477642926,-0.2499349606267878,0.13228744499189876,nan
1740795686.1711972,-0.08883871574335923,-0.125432349369358,-0.3827988072524704,-0.10750992577008181,nan
1740795686.175103,-0.2644934391469439,0.2720769984118351,-0.22704276900613338,-0.2897833414561355,nan
1740795686.179009,-0.24993126794356377,0.5628548359582731,-0.031022873170411906,-0.27368825721903434,nan
1740795686.1829147,-0.10678090195717221,0.552010974769687,0.08078541681964034,-0.12040454061312866,nan
1740795686.1868207,0.012649594470174146,0.2437637111114068,0.17866057829990284,0.012745095989279923,nan
1740795686.1907265,0.051270922506281555,-0.18087956986711182,0.2966839193031771,0.06427175631897537,nan
1740795686.1946325,0.07777683451470946,-0.49555224073706405,0.2871149045366388,0.10293886846820544,nan
1740795686.1985383,0.151512878341547,-0.5684354507693976,0.009022406944354364,0.1838151592364758,nan
1740795686.202444,0.22440116280552394,-0.41872661505401493,-0.3922319380838583,0.24067471407416652,nan
1740795686.20635,0.20970326375999487,-0.16362885968281757,-0.5375196533809772,0.16908431356256148,nan
1740795686.2102559,0.10550104046508164,0.08578238232381766,-0.22053612087479704,-0.013965150988473032,nan
1740795686.2141619,-0.010281227439630725,0.2832683510381576,0.29787336709710033,-0.16069303019416356,nan
1740795686.218072,-0.10161221755655783,0.417234730249478,0.5081018053367865,-0.1621274477088924,nan
1740795686.2219777,-0.2203146515714656,0.45017932136421446,0.1932814066378765,-0.07912960686607526,nan
1740795686.2258835,-0.38535295785985846,0.32455693465973967,-0.3109177189498391,-0.05670060670140536,nan
1740795686.2297895,-0.46301219499047697,0.04792090581355091,-0.4586635095199394,-0.12653790192176353,nan
1740795686.2336953,-0.26255554782099083,-0.24793116187510447,-0.07905201668839616,-0.15821012996397738,nan
1740795686.2376013,0.20976332180658547,-0.3795404464238949,0.4414315614642725,-0.033011455883356876,nan
1740795686.241507,0.6503570976792434,-0.2767564577487478,0.5766059299415041,0.17975054796555293,nan
1740795686.245413,0.6982172336152965,-0.06829321832171045,0.20899224760109078,0.28067405730465234,nan
1740795686.2493188,0.29945672843984006,0.030253192741876826,-0.28523465306881973,0.17415078282639312,nan
1740795686.2532248,-0.21178799465325124,-0.06517913573525065,-0.4697953814775841,-0.012323253418295424,nan
1740795686.2571306,-0.43607955267889287,-0.20995485583831722,-0.28949630398566967,-0.07952795283676652,nan
1740795686.2610366,-0.2967334537314661,-0.17429134010218492,-0.048566518781808246,0.004166805221576951,nan
1740795686.264946,-0.06991712917803733,0.10818552301695493,-0.010666686350163703,0.07276641170933924,nan
1740795686.268852,-0.037657441288209116,0.4470954503328112,-0.11074290553943396,-0.01999956020718199,nan
1740795686.2727578,-0.17060345984358824,0.5634926253132473,-0.08589522563869186,-0.20677118026102284,nan
1740795686.2766638,-0.19783423267187036,0.35197848491167827,0.17383282747304693,-0.2779359219881655,nan
1740795686.2805696,0.038083667203455,-0.02862344417242143,0.4791413358402505,-0.131107827291461,nan
1740795686.2844756,0.3672178304206534,-0.3176344290361243,0.5461633553028541,0.10550605344052609,nan
1740795686.2883813,0.4663353554896748,-0.3870283549797736,0.29075628606639087,0.22004262008491401,nan
1740795686.292287,0.21384423503921332,-0.3095982544054832,-0.11133199431911395,0.14943814298688596,nan
1740795686.2961931,-0.17606579895126165,-0.22041668596116817,-0.41801545761343856,0.022671769214741035,nan
1740795686.300099,-0.37451411409748353,-0.15451618715745044,-0.5171634983598179,-0.015099500461394593,nan
1740795686.304005,-0.25570444861059116,-0.04552980591663522,-0.43741556732610926,0.03328785857872014,nan
1740795686.3079107,0.020210548821156294,0.13711256329362367,-0.24298367454716577,0.05506464828298763,nan
1740795686.31182,0.20302474982408084,0.3020466845124833,0.012783729137363855,-0.007499224567269157,nan
1740795686.315726,0.18391486631686108,0.3221082321630641,0.24719760386416328,-0.08589012900073818,nan
1740795686.3196318,0.038183642483733744,0.19326573536066308,0.34920255574327647,-0.08627913448176168,nan
1740795686.3235378,-0.10141222209519586,0.06085569538896303,0.2825888053072769,-0.015992310997761727,nan
1740795686.3274436,-0.16324548176674092,0.05536344701462348,0.16232235763966238,0.02920034796441457,nan
1740795686.3313496,-0.14415617151126753,0.11953354052834117,0.15251318837845215,-0.009925724313520424,nan
1740795686.3352554,-0.06134310173611103,0.05054962461412485,0.2554801724560623,-0.08494320225447186,nan
1740795686.3391612,0.059441082382153766,-0.2527958888706868,0.25190229996230534,-0.10468500678772637,nan
1740795686.3430672,0.16245882885676322,-0.6076985426176396,-0.07270905973540281,-0.04079590553106224,nan
1740795686.346973,0.17661368301160224,-0.6707677504375401,-0.6237532792192169,0.056753592282366996,nan
1740795686.350879,0.08079891087733994,-0.2832171238085782,-0.9788009413982952,0.13099155083677624,nan
1740795686.3547847,-0.05450446398870268,0.321438015372843,-0.7496099298653176,0.16612665974531923,nan
1740795686.3586934,-0.11644513101157926,0.6996043241287156,0.010176442094508884,0.16066087420333258,nan
1740795686.3625994,-0.054593348650971374,0.6114351284177498,0.7878685183144563,0.09470773332785255,nan
1740795686.3665051,0.06526261475575355,0.2366390517972523,1.041259595255893,-0.03733203116407168,nan
1740795686.3704112,0.11812819750468674,-0.04339697394245185,0.6633860350152666,-0.17453971001484056,nan
1740795686.374317,0.035347863789381484,-0.060105807793606,0.029725854842351594,-0.21839496268080194,nan
1740795686.378223,-0.130281935909742,-0.006426131204476412,-0.38929747187763725,-0.13859545460411565,nan
1740795686.3821287,-0.2479912769501217,-0.15433528183720277,-0.4319624642808363,-0.024428229552508018,nan
1740795686.3860347,-0.21905426559175362,-0.4759732807815377,-0.2778646678110042,0.0073634138175383244,nan
1740795686.3899405,-0.055923871318639164,-0.6281676966261774,-0.15538628422971998,-0.04488466222640942,nan
1740795686.3938465,0.13505028139284578,-0.3431248523991695,-0.10008890749438089,-0.05478245998655278,nan
1740795686.3977523,0.2465210302079391,0.22188420263512443,-0.013813382268297017,0.07854916647399163,nan
1740795686.4016583,0.25105168769447683,0.6030083556063287,0.1174563407203812,0.2845463838652683,nan
1740795686.4055698,0.19552696384795684,0.5100808309427828,0.16371101951034442,0.36773736110932626,nan
1740795686.4094756,0.12296680690421093,0.128030860978132,0.03182069563770923,0.21107560439919038,nan
1740795686.4133816,0.0169859227274372,-0.11147418786711973,-0.16033348717526552,-0.09009317932671565,nan
1740795686.4172873,-0.1561166382792791,-0.025887121234908744,-0.17143261332387888,-0.3160264923918213,nan
1740795686.4211934,-0.3513207864734864,0.13551470671889312,0.0859229234150219,-0.3330555406720295,nan
1740795686.4250991,-0.42653540695358366,0.03487697408353997,0.40518034492019667,-0.19673714447151852,nan
1740795686.4290051,-0.2657868408241423,-0.30378735865507756,0.4712836181408306,-0.055223953498716845,nan
1740795686.432911,0.0679635239609849,-0.4943848875599124,0.18368383061067314,0.012612228013142324,nan
1740795686.436817,0.3400641161882647,-0.257550735098147,-0.2369470568559093,0.04227824888563739,nan
1740795686.4407227,0.350923715002398,0.20457220572845886,-0.47062001556865013,0.09377394199346224,nan
1740795686.4446287,0.14241348410846572,0.4044200327986721,-0.39818681288387253,0.16314979941388413,nan
1740795686.4485345,-0.037005370284527064,0.13482955338699043,-0.16534141493430146,0.1978327804537368,nan
1740795686.4524457,-0.00048637089908145937,-0.2638982889152808,0.016130028780087454,0.16941043747234494,nan
1740795686.4563515,0.16262542130257332,-0.2805913413715657,0.07430250333725552,0.09761875081571743,nan
1740795686.4602575,0.1822963599310474,0.16069806680945556,0.07839939444569327,0.008098109698387531,nan
1740795686.4641633,-0.07289324873517446,0.5771305041763255,0.09838138423801339,-0.09758193317080335,nan
1740795686.4680693,-0.4122417221682227,0.45843801101619885,0.1316718419036974,-0.21134941923136852,nan
1740795686.471975,-0.5025676774401492,-0.1397856295611745,0.16294296824817317,-0.28126417598286113,nan
1740795686.475881,-0.2274941019738712,-0.627351156878875,0.21729442152876174,-0.24127932058584925,nan
1740795686.4797869,0.17515626598014478,-0.5175712960453716,0.2917399756685836,-0.0873940294188437,nan
1740795686.483693,0.35833538179979246,0.04098507720293503,0.2664107307990819,0.0970094328942933,nan
1740795686.4875987,0.2225151702845416,0.43570644664923797,-0.015767281045766284,0.20995314461898207,nan
1740795686.4915047,-0.008424574649736177,0.26660808407303693,-0.5191190457517327,0.21908190716719259,nan
1740795686.4954104,-0.05891649117552223,-0.22991992496789335,-0.909707967599712,0.1692066359710546,nan
1740795686.4993217,0.10029249455017161,-0.46701472214760187,-0.788220514656084,0.1110572789203658,nan
1740795686.5032275,0.25267870123196146,-0.16025669967857736,-0.09777905101924222,0.04811359761195377,nan
1740795686.5071332,0.1988502310251425,0.37982825938489934,0.7237153988423125,-0.03652654763326427,nan
1740795686.5110393,-0.03813655538746241,0.6074846118485746,1.0728734807430946,-0.12408644736508385,nan
1740795686.514945,-0.2745213506152927,0.32069092881884975,0.7141534107243174,-0.16269846006226688,nan
1740795686.518851,-0.3728178658581318,-0.1710239846349324,-0.010406708471741372,-0.13023559023830591,nan
1740795686.5227568,-0.3353706034904436,-0.4194542341744176,-0.5130285725425097,-0.06994426237081672,nan
1740795686.5266628,-0.2173987155974458,-0.29413410635702397,-0.49753835232279214,-0.04287845520798795,nan
1740795686.5305686,-0.029285773231267152,-0.03841216328562463,-0.1671591054586073,-0.052457348271304736,nan
1740795686.5344746,0.22610865000151345,0.06414429341529025,0.06599389185452105,-0.03847421840427843,nan
1740795686.5383804,0.457569448470578,-0.008850188430801025,0.018775469834767786,0.04717152472636323,nan
1740795686.5422864,0.5069455188667532,-0.06431429545230277,-0.1392649802283957,0.17332707432134242,nan
1740795686.5461967,0.30228153290804977,0.02963298034356419,-0.1523063219637227,0.250812941273038,nan
1740795686.5501025,-0.04069095490484145,0.18531550534350696,0.012949403272941631,0.21571661512025642,nan
1740795686.5540085,-0.30959637263813594,0.21567723315602708,0.16315365115983355,0.08228465191606943,nan
1740795686.5579143,-0.384335807797992,0.0593892853031762,0.14296972771812042,-0.07963250150101414,nan
1740795686.5618203,-0.3092699119679188,-0.15058425510040835,0.028479289835234685,-0.20071744604011088,nan
1740795686.565726,-0.1869388965746542,-0.22687235600665462,0.019144364220360588,-0.24314853799683572,nan
1740795686.569632,-0.05349270837880661,-0.10417736457301154,0.16808226929924808,-0.2010159593158292,nan
1740795686.5735378,0.1046789036217553,0.11828204351783332,0.2838116410883558,-0.0984069357715046,nan
1740795686.5774438,0.2464265452140109,0.2714992042125822,0.13808120492461565,0.013368903510558017,nan
1740795686.5813496,0.26531926305729836,0.23722460038321969,-0.24363353071046523,0.08344899663175771,nan
1740795686.5852556,0.11891188047744056,0.01338738593448997,-0.5455934009978453,0.10487696979501636,nan
1740795686.5891614,-0.07305685018551432,-0.2816393849071314,-0.4541752222203221,0.11965073725765323,nan
1740795686.5930712,-0.12395747696026607,-0.4581164770621035,0.0057513117680175795,0.1602933889201154,nan
1740795686.5969772,0.012990418906145622,-0.3629591057975443,0.4491191562846815,0.1901459484359669,nan
1740795686.600883,0.17447818399012754,-0.00816555373499016,0.4789606613544436,0.12946759645474418,nan
1740795686.604789,0.15691369779162856,0.39092288559023225,0.07758296604650128,-0.04252663627399864,nan
1740795686.6086948,-0.05929501573492196,0.5508852089661733,-0.35646222303782904,-0.2294147266018744,nan
1740795686.6126008,-0.2883350171336961,0.35280124465776985,-0.3880880524369226,-0.29215641336295883,nan
1740795686.6165066,-0.33794347262395846,-0.03911067856679754,0.018620895748477972,-0.18878717195529868,nan
1740795686.6204126,-0.1923235269697858,-0.31200098217704264,0.4511981833021314,-0.01909103504231272,nan
1740795686.6243184,0.015599410261441567,-0.2854506800882988,0.45747604217276305,0.08379508218432034,nan
1740795686.6282244,0.1697525673539661,-0.06677151942119956,0.011275343555489209,0.08975796750081895,nan
1740795686.6321301,0.2554343568001593,0.07837968530532224,-0.4489819689655466,0.076191645209974,nan
1740795686.6360362,0.28861480074550144,0.006585462778907821,-0.4675087439880524,0.10536205471661024,nan
1740795686.6399457,0.2348752096615636,-0.16511168603432702,-0.04783646741948423,0.1379844026170249,nan
1740795686.6438515,0.05730327193305934,-0.20394708629516858,0.3499359997916625,0.09419413171726874,nan
1740795686.6477575,-0.17660380044434545,-0.024622783887483658,0.3017004790722939,-0.024027782656423125,nan
1740795686.6516633,-0.3083142843800118,0.21779394809151262,-0.1216290217065499,-0.11842796089539269,nan
1740795686.655569,-0.24550305962779564,0.3010585218384811,-0.43102565943366616,-0.11347717731941648,nan
1740795686.659475,-0.07319142045533078,0.17557866419030857,-0.25625031810021986,-0.05092822686589416,nan
1740795686.6633809,0.039044782336719784,0.002513251148387432,0.24381323331524757,-0.028171605572773335,nan
1740795686.6672869,0.03376007824684553,-0.04547577306617021,0.5512602068620311,-0.05885381402189487,nan
1740795686.6711926,0.01885380661070872,0.014532063578772736,0.35167750105192414,-0.0493783344293005,nan
1740795686.6750987,0.10355319817979759,0.009164658778573998,-0.13413100480855936,0.06210886242191883,nan
1740795686.6790044,0.22755710798061188,-0.15923176300484626,-0.40858212821516215,0.18546010530252743,nan
1740795686.6829104,0.21577391598460702,-0.3562999265038542,-0.2426968785752483,0.15836102848996209,nan
1740795686.686823,0.0057343081845426,-0.3355685205093049,0.10282723772066979,-0.0453834630280162,nan
1740795686.690729,-0.23900452032165154,-0.021210056094138313,0.20604886937801992,-0.24045799722119443,nan
1740795686.6946347,-0.2895281598352193,0.36244722094211107,-0.03463071232218477,-0.21238692642717924,nan
1740795686.6985407,-0.10652235960602738,0.4826803132190366,-0.3082147411521115,0.03505453566530115,nan
1740795686.7024465,0.11611201207470817,0.22967857676370054,-0.26276810027231884,0.26364940464328557,nan
