timestamps,TP9,AF7,AF8,TP10,Right AUX
1740795715.4679801,-0.007786230391792022,0.24515831872702543,-0.8244077432537588,0.17934760041366496,nan
1740795715.471886,0.32172540999222443,0.44635352305367465,-0.8860845003635017,0.24696553035170998,nan
1740795715.475792,0.4402206916362328,0.5063152624805992,-0.42257957688643694,0.20708627625392953,nan
1740795715.4796977,0.23508971345545585,0.40963759975470776,0.08810351715423798,0.06713510454173119,nan
1740795715.4836037,-0.10335378726272139,0.1396745078137623,0.3034937158531777,-0.07703487112711316,nan
1740795715.4875097,-0.28358217339643754,-0.24272803620613895,0.3053783481416161,-0.12977662245634253,nan
1740795715.4914155,-0.21647925246842256,-0.5437622718112651,0.3221997828570919,-0.09821608050885791,nan
1740795715.4953215,-0.071835226531342,-0.5569734134353221,0.3439715846911823,-0.07754240059493543,nan
1740795715.4992273,-0.03763243610344118,-0.27599528662209677,0.17649162629277987,-0.12436833077815733,nan
1740795715.5031333,-0.09089148812134062,0.05974011998984474,-0.1739653208496957,-0.17162911875906436,nan
1740795715.507039,-0.06131118343016744,0.18955027766987387,-0.38124385505386077,-0.10288468707401519,nan
1740795715.510945,0.10979594326821993,0.09940911591689186,-0.18348523182999782,0.09031728036085283,nan
1740795715.5148544,0.2622314603752021,0.020053549363055253,0.21763155247142935,0.26250338378368265,nan
1740795715.5187602,0.2097710042726644,0.14175783892923902,0.3252141576503294,0.25611152728773295,nan
1740795715.5226662,-0.011707501518857343,0.3736519499820162,-0.05303955338816858,0.07963627784490734,nan
1740795715.5265722,-0.16718446072042062,0.43640251456473794,-0.5181200511939056,-0.09025190293141874,nan
1740795715.530478,-0.10133840923670001,0.18701397695465105,-0.5151265326652184,-0.09920638458190847,nan
1740795715.534384,0.07327185550955195,-0.2036877195889107,0.0025863239933117295,0.015016016960619966,nan
1740795715.5382898,0.118695875429274,-0.4294542009360722,0.49670043031636685,0.07271150482744522,nan
1740795715.5421958,-0.030985408539749466,-0.3735458293619084,0.46884305658150677,-0.031626055231361604,nan
1740795715.5461016,-0.19069007346938838,-0.20406339238270105,0.034076827232615195,-0.19851868532329292,nan
1740795715.5500076,-0.16208653505049236,-0.14132558743070084,-0.2504416596332309,-0.23359006415400593,nan
1740795715.5539134,0.014885715887248904,-0.1843374460688154,-0.07542454071999556,-0.07284864629561684,nan
1740795715.5578194,0.11700825132967314,-0.12204611588331579,0.26737280939105523,0.1385040779836294,nan
1740795715.5617282,0.029181800734304698,0.1865747831708445,0.2837846589751234,0.20517795336933847,nan
1740795715.5656343,-0.10111040794941362,0.5932236220273996,-0.09660970425642205,0.09445235895198344,nan
1740795715.56954,-0.049583380295030406,0.7607067421418644,-0.4476962335832727,-0.03993218432308836,nan
1740795715.573446,0.18628754253195245,0.48505673547228717,-0.387377597388701,-0.04196414779261017,nan
1740795715.5773518,0.35255578062903237,-0.09413613051813087,-0.030394283384036658,0.07256537283346517,nan
1740795715.5812578,0.22375119198680998,-0.60152128567595,0.1976258101292489,0.14742958547710644,nan
1740795715.5851636,-0.12858637263120917,-0.7351760482274198,0.10711497419016931,0.07326066525119529,nan
1740795715.5890696,-0.4006723590307194,-0.48622514228037905,-0.057416070093909574,-0.09171525107927377,nan
1740795715.5929756,-0.373563470286546,-0.09600824429690233,0.009966205488248,-0.19690287279382523,nan
1740795715.5968814,-0.11655465250838754,0.1720532557166772,0.25255784013499427,-0.16690392782607757,nan
1740795715.6007874,0.1295985207231856,0.23107410009886342,0.3317212805328738,-0.06429355662119836,nan
1740795715.6046932,0.2145458308864088,0.18759992628248257,0.08806071931747342,0.0075561870575117955,nan
1740795715.6086018,0.17705665028472006,0.19329616127022864,-0.23288188849101352,0.026001374759142385,nan
1740795715.6125076,0.11595265464778674,0.27812489547379654,-0.2839055139214335,0.04834644918744597,nan
1740795715.6164136,0.0484523566367531,0.3173425629196697,-0.05102566315155923,0.10755275907262339,nan
1740795715.6203194,-0.059971710552521616,0.16638803458747525,0.1366501458160736,0.15104341572485533,nan
1740795715.6242254,-0.17303621879996198,-0.16040261580862103,0.02405717753937801,0.10561854972753361,nan
1740795715.6281314,-0.1748233859559765,-0.45316404250481385,-0.2570607224891826,-0.015176993539704935,nan
1740795715.6320372,-0.012305961478554608,-0.4785721775526064,-0.35420502341272914,-0.10396463086473105,nan
1740795715.6359432,0.1977770895211307,-0.21096824493217523,-0.10776461426114173,-0.07451017175451534,nan
1740795715.639849,0.2584397636540188,0.11964534282711091,0.2887337746492015,0.032008088778268044,nan
1740795715.643755,0.09411347752468502,0.24008920669004005,0.5217360890257011,0.07954330174453314,nan
1740795715.6476607,-0.16555296673232903,0.10458220384085998,0.4538302868970768,-0.016708032643279094,nan
1740795715.6515667,-0.3126634979688932,-0.06590302500006269,0.16368156573197845,-0.18724992840594984,nan
1740795715.655475,-0.2507613528965433,-0.031007515262597915,-0.20156339329134199,-0.2637888186041172,nan
1740795715.6593807,-0.04996875326165562,0.1973629801478571,-0.5030085211247589,-0.1419713183840629,nan
1740795715.6632867,0.15194587137496743,0.3614187673519196,-0.5807171519206823,0.11138338940078607,nan
1740795715.6671925,0.26050858750199163,0.24099553128573495,-0.3119554729461679,0.31181620707295865,nan
1740795715.6710985,0.2458634290685929,-0.09890257593126889,0.20308901514500355,0.3175581277663933,nan
1740795715.6750042,0.11741517641406227,-0.37110679116964523,0.5944786131579353,0.1449752798288813,nan
1740795715.6789103,-0.0707946539070288,-0.36491543329896936,0.5162860397167007,-0.06064202896395006,nan
1740795715.682816,-0.2077652539424003,-0.14647322962186213,0.031213076819917317,-0.15993809751189614,nan
1740795715.686722,-0.18581427448843893,0.04752820740736649,-0.39551708993568524,-0.13101318589909283,nan
1740795715.690628,-0.01429285205122313,0.07846018569754153,-0.3737685482717749,-0.0628963471321259,nan
1740795715.6945338,0.15036339216441272,0.025844368857502582,-0.016303618593765726,-0.051179161622234466,nan
1740795715.6984398,0.1380400600076508,0.04569386170067656,0.2118839852596538,-0.10200071993672838,nan
1740795715.7023475,-0.055149237361226434,0.16177698998313766,0.06776201019148995,-0.13366622447709867,nan
1740795715.7062533,-0.24477856664113934,0.23993883385144682,-0.17562234784392525,-0.06761981874191965,nan
1740795715.7101593,-0.23809592539948918,0.15815635770724107,-0.09948791533154046,0.08428229585061549,nan
1740795715.7140653,-0.02783646770734494,-0.04281919530868497,0.2801045220674921,0.22228682015842088,nan
1740795715.717971,0.20953723351038273,-0.200372617948434,0.4764699428883422,0.24707646321335114,nan
1740795715.721877,0.29810171043005024,-0.20079958808710313,0.1327809560603314,0.14615255957925163,nan
1740795715.7257829,0.21720658121760394,-0.0827660645356724,-0.4749259972509378,-0.0036536006148933176,nan
1740795715.729689,0.07248760827633302,0.023560864464633933,-0.6945579603314974,-0.11193972293737894,nan
1740795715.7335947,-0.04455121796361043,0.03246627833105481,-0.2515716360902647,-0.1468226828603629,nan
1740795715.7375007,-0.1266003924418525,-0.030661630631189138,0.4043255611509386,-0.13554482696722026,nan
1740795715.7414064,-0.19251462497486682,-0.07426914398617361,0.5982004273184299,-0.10957996158225543,nan
1740795715.7453125,-0.21626913669604567,-0.02939702752546372,0.19228353760547787,-0.06710717673294352,nan
1740795715.7492232,-0.15318190236664064,0.094639747871919,-0.2912444527019806,0.005911029428203622,nan
1740795715.753129,-0.018772044807161502,0.21269857971545367,-0.31245733169737144,0.09174108570324745,nan
1740795715.757035,0.10400125891041162,0.2176811780475452,0.06901597510494922,0.1377388047853775,nan
1740795715.7609408,0.14999318717997617,0.06609544889131205,0.3265825542994082,0.10522080220969988,nan
1740795715.7648468,0.1357959223236276,-0.15894450074705713,0.13906317557700199,0.014943862869178533,nan
1740795715.7687526,0.1156935755185736,-0.2841733681602817,-0.24042561092635273,-0.06526892754843955,nan
1740795715.7726586,0.09546054227684496,-0.19156216224265937,-0.3387257089872264,-0.0795666182920698,nan
1740795715.7765646,0.03133663072742693,0.04879985380120612,-0.05484783908589273,-0.028298634301234558,nan
1740795715.7804704,-0.08062372266037433,0.21575741983381416,0.24671945078498794,0.042221277258358295,nan
1740795715.7843764,-0.15826403151020685,0.14632142278207505,0.21320235433621096,0.08301803038970211,nan
1740795715.7882822,-0.11722526935473204,-0.08667424483431756,-0.0773908860489473,0.07181827835489327,nan
1740795715.7921882,0.010012185765037235,-0.23518959910362444,-0.25620434187046964,0.012795929835775583,nan
1740795715.7960982,0.08530487930609432,-0.13359197622542698,-0.1334795655689142,-0.07184676787352735,nan
1740795715.8000042,0.01721132424117311,0.12122574744368014,0.10809392441801852,-0.14286625199781464,nan
1740795715.80391,-0.12379833884269313,0.2731599824159046,0.19374920011773453,-0.15243282540030156,nan
1740795715.807816,-0.17606905967029957,0.18376041163877405,0.099384914345943,-0.07594647562231804,nan
1740795715.8117218,-0.0666252859738886,-0.028084970219839873,0.0215964168095423,0.054317960532627545,nan
1740795715.8156278,0.11364549242806753,-0.13664183734040708,0.06931932916054907,0.1577866451964936,nan
1740795715.8195336,0.22234409130769514,-0.06727933806945861,0.11883952895625399,0.16544207977949452,nan
1740795715.8234396,0.21570167661357426,0.03749377585473207,0.009016099551487616,0.08023067077678589,nan
1740795715.8273456,0.15297184947002748,0.007246907896381639,-0.2167907427605973,-0.023799978050621663,nan
1740795715.8312514,0.07615971583571518,-0.14730024350105278,-0.35153937370553034,-0.06691985752640901,nan
1740795715.8351574,-0.04763297313344983,-0.24786419491280445,-0.2718760352052713,-0.03146381413598775,nan
1740795715.8390632,-0.23259959917171483,-0.15315577773241712,-0.05333852678463261,0.030273960418846967,nan
1740795715.842973,-0.3715866542209706,0.08984924828855592,0.16363770065920272,0.04809154906418055,nan
1740795715.846879,-0.306502856566574,0.3028266153194762,0.321426780860001,-0.007331503460865815,nan
1740795715.8507848,-0.025289925179004382,0.3468199813233425,0.3997298944249735,-0.10575095952289006,nan
1740795715.8546908,0.2642342352705711,0.21525136116623234,0.3110902186509509,-0.18147029435847067,nan
1740795715.8585966,0.3198152248652524,-0.005842638124458435,-0.013568307490212579,-0.17456010373823974,nan
1740795715.8625026,0.1254579696363397,-0.21164744042788017,-0.41794322199410633,-0.06687250110378595,nan
1740795715.8664083,-0.08204790461098976,-0.3091205275563219,-0.5439643964528595,0.10047889660287466,nan
1740795715.8703144,-0.0747699631842194,-0.24111781579780597,-0.1992151896262771,0.24184175414892203,nan
1740795715.8742201,0.10874572730303746,-0.04483161080679694,0.3339574466428618,0.27749141052924553,nan
1740795715.8781261,0.2125257979225203,0.12735987655696596,0.510822303717012,0.19063356121803965,nan
1740795715.8820322,0.06617761145978694,0.11997649175288433,0.12030567339080124,0.040022103441263744,nan
1740795715.885938,-0.21155527976794375,-0.04832411083624256,-0.4234359330403248,-0.0910654499382605,nan
1740795715.8898475,-0.34485277756551586,-0.15775412235960168,-0.5095896440523793,-0.1627994705283389,nan
1740795715.8937535,-0.20949051316869854,-0.007148295226984228,-0.03385666878422762,-0.19327495281799462,nan
1740795715.8976593,0.04075172842559654,0.32699888171098607,0.46281728693222485,-0.20756146430474207,nan
1740795715.9015653,0.16282913962818596,0.5104550605233644,0.4238531649389184,-0.18835545990226704,nan
1740795715.905471,0.09244111809059205,0.28624616288698906,-0.061107880310934816,-0.09544205647697737,nan
1740795715.909377,-0.016702322604795487,-0.22252778426854056,-0.3705378110178203,0.0662685350976863,nan
1740795715.9132829,-0.0014373486158373646,-0.5995324985137296,-0.11613103227043665,0.21953143385238966,nan
1740795715.917189,0.12027081671046712,-0.5457305150600504,0.374944965413164,0.2752583616601865,nan
1740795715.9210947,0.19178742759696732,-0.16906290950437328,0.45938873573244743,0.21797895534991887,nan
1740795715.9250007,0.11470663624874464,0.16405529126981747,-0.028265910734793516,0.11442021050937838,nan
1740795715.9289067,-0.04569307529372842,0.23260776809820521,-0.5656459647939278,0.03227071678298621,nan
1740795715.9328125,-0.1528250744491303,0.15384631394169596,-0.5730642056103648,-0.03200843187444732,nan
1740795715.9367216,-0.1521353830284034,0.16733822290111464,-0.10130500333021876,-0.12584165237021552,nan
1740795715.9406273,-0.10168235011317647,0.30221567238124486,0.26754466705574875,-0.24854631099495306,nan
1740795715.9445333,-0.0717857597661918,0.3391494501669541,0.1625158623100263,-0.3167566421355435,nan
1740795715.9484391,-0.05991618122135895,0.09954263341206926,-0.12918961639940504,-0.24324926230302948,nan
1740795715.9523451,-0.0187777451653707,-0.3040988704884469,-0.06259949933959663,-0.04206756899332092,nan
1740795715.9562511,0.06205137254299237,-0.5598841995509825,0.432877026784922,0.1681247760980644,nan
1740795715.960157,0.13516212350211113,-0.4728777417187308,0.8127428609734225,0.2727474050499299,nan
1740795715.964063,0.15151474772020737,-0.13896520241835492,0.5467897071062737,0.25864541565410265,nan
1740795715.9679687,0.11054115111931993,0.1885238343184473,-0.24888630591566258,0.19326090851529226,nan
1740795715.9718747,0.04630187900733028,0.3409992060313913,-0.9239124718634554,0.1248748301352096,nan
1740795715.9757805,-0.014673486015413618,0.3156972338384523,-0.9790848135345127,0.035013822757026275,nan
1740795715.9796865,-0.06363560014267991,0.18170405810462512,-0.5065275646602709,-0.10222691153057112,nan
1740795715.9835951,-0.09142009869672746,0.0013424830524785747,0.05263263817373336,-0.2428810333601568,nan
1740795715.987501,-0.08837462042319756,-0.14460314875628827,0.41983461746868395,-0.2915234050431576,nan
1740795715.991407,-0.06696605281816768,-0.1491341676521189,0.6164998279653482,-0.20292204243712125,nan
1740795715.9953127,-0.05909715445123204,0.0109252371423407,0.6837245992590909,-0.04113888432216541,nan
1740795715.9992187,-0.07143204269311604,0.17572720315373844,0.5025063966327974,0.08203421165792507,nan
1740795716.0031247,-0.058668671361748984,0.11628792726030118,0.013093636853283222,0.11819546847826974,nan
1740795716.0070305,0.027477333837831224,-0.1923934208678516,-0.5136681977291008,0.11184126602466216,nan
1740795716.0109365,0.15805083094567532,-0.46506870350512225,-0.6399456370563783,0.12185238640417248,nan
1740795716.0148423,0.22627631349510013,-0.3681097787558775,-0.2555106905659299,0.14189249127532044,nan
1740795716.0187483,0.1551136089794633,0.09257639336967154,0.22303485765335435,0.11860472318940087,nan
1740795716.022654,-0.004140600189879433,0.5164806823349891,0.27768557354313206,0.033537757198950476,nan
1740795716.02656,-0.11305691640060453,0.5048439624088678,-0.11880917349136494,-0.06548724021036383,nan
1740795716.0304682,-0.09638559276857556,0.09005879602176323,-0.4629093774378326,-0.12258938349421328,nan
1740795716.0343742,-0.025723007493305493,-0.29616963557490955,-0.3068858804871768,-0.13648232449852118,nan
1740795716.03828,-0.02735964015016512,-0.2927220253067998,0.22060972189530553,-0.13993146115843003,nan
1740795716.042186,-0.11904876540230942,0.01620412741417464,0.5779927083003132,-0.13041673246521976,nan
1740795716.0460918,-0.17776701222968835,0.23911639973515555,0.4443521980415529,-0.06193285024095609,nan
1740795716.0499978,-0.08756432920142013,0.13881152738455108,0.0534432519591646,0.07555198918162366,nan
1740795716.0539036,0.10738659083930527,-0.13437675817344275,-0.1447407652930949,0.19751712344790642,nan
1740795716.0578096,0.23497117460547015,-0.2786275576573625,-0.03716159158769322,0.19062748276520386,nan
1740795716.0617156,0.1825005290246762,-0.2079104173467045,0.06922219799961798,0.04715827253962639,nan
1740795716.0656214,0.020249002576743804,-0.08891051146698548,-0.1038488974724589,-0.09881747888308268,nan
1740795716.0695274,-0.08259489274572952,-0.047971479819824574,-0.4227656373906742,-0.10222989392234479,nan
1740795716.0734332,-0.04639800751662589,0.018929810284614823,-0.5021274126383022,0.031314955940382014,nan
1740795716.0773442,0.046073004372101746,0.2584135470580557,-0.1847111461489535,0.14463093069515903,nan
1740795716.0812502,0.06399124894618025,0.5533482113002448,0.26211434483986046,0.10088767609492935,nan
1740795716.085156,-0.020262144139581984,0.5546037611120753,0.4529086278603731,-0.06565192579658233,nan
1740795716.089062,-0.11844925423349836,0.08535245723979883,0.29595928628231805,-0.19299620721500432,nan
1740795716.0929677,-0.14397708132238146,-0.5618820889717692,0.03295409597126605,-0.17330686143037158,nan
1740795716.0968738,-0.10049760559069754,-0.8458679895977189,-0.07663519012719393,-0.05830908416487208,nan
1740795716.1007795,-0.044552190044246744,-0.5194056642959411,-0.00940539951801587,0.025045970788124355,nan
1740795716.1046855,0.002468351150967702,0.1094740790815328,0.0867621511622711,0.03009196717293872,nan
1740795716.1085916,0.06598230774327407,0.4985156221866481,0.10369064091730561,0.024354327113030667,nan
1740795716.1124973,0.14894057480856207,0.41332273592053137,0.04001481001132234,0.07560072987788365,nan
1740795716.1164033,0.19449091279619432,0.0963970616423303,-0.08659433297714446,0.15083429580654983,nan
1740795716.120309,0.14535124611334418,-0.07525007007571718,-0.2718273047647577,0.15976617300908963,nan
1740795716.12422,0.02326410717409149,-0.004345497957288826,-0.4367219171490986,0.07695842781385676,nan
1740795716.128126,-0.08390490553118961,0.10198651209325146,-0.4059719851968673,-0.025152396965107817,nan
1740795716.1320317,-0.11826473929909959,0.051379533419069624,-0.08074342327249068,-0.07489834611410724,nan
1740795716.1359377,-0.10811328818040997,-0.10316428370077099,0.3778543354091518,-0.09271774147456432,nan
1740795716.1398437,-0.111874115372959,-0.17747261231471162,0.6360182152476717,-0.14465475061496344,nan
1740795716.1437495,-0.1274067660958337,-0.11345480221129192,0.5093811516166101,-0.21894951810936658,nan
1740795716.1476555,-0.09213519266077691,-0.030938527441629827,0.15088020619798787,-0.2045879861199493,nan
1740795716.1515613,0.022225718512555,-0.03542600809716119,-0.13620376018218106,-0.02630333368723217,nan
1740795716.1554673,0.14767896566100408,-0.06765542778675339,-0.23414855365974022,0.2251317745128775,nan
1740795716.159373,0.18210084608301486,-0.0006967479031829903,-0.274052922346647,0.3494870194949237,nan
1740795716.163279,0.10629793041823075,0.15842413809853456,-0.3641143461293563,0.24165588716341171,nan
1740795716.1671848,0.00983388780157568,0.24657667915252804,-0.37638476585242314,0.011008531312469825,nan
1740795716.1710951,-0.011068099847301931,0.1416133300746468,-0.11705838989223022,-0.13286520471357166,nan
1740795716.175001,0.03785509526438608,-0.07514914645067947,0.3272454740975259,-0.10265331330963964,nan
1740795716.178907,0.062299223654103474,-0.20131633634264628,0.565684209247862,-0.008472657240118309,nan
1740795716.1828127,-0.0062702473680263816,-0.13767714516702484,0.319361526573952,-0.006165316840547255,nan
1740795716.1867187,-0.1328356788737969,0.019185510851825394,-0.20313739740578732,-0.10813410759465625,nan
1740795716.1906247,-0.21975568040010096,0.10960007969484994,-0.47422159434943867,-0.1808107791854951,nan
1740795716.1945305,-0.2040733289091586,0.08396898365420317,-0.22030057738271375,-0.117695190061809,nan
1740795716.1984365,-0.09883201295069699,0.011827812658814746,0.26522104474105623,0.03266717311833218,nan
1740795716.2023423,0.04413787365918977,-0.04245549734219795,0.45572802774544413,0.1342046943341107,nan
1740795716.2062483,0.17793837465477705,-0.08695846192401212,0.18640299690053064,0.1272124691444529,nan
1740795716.210154,0.2604199109312936,-0.13654867318934072,-0.1927221797875622,0.07889654198571244,nan
1740795716.21406,0.2458129532230445,-0.14150130804063066,-0.26917787735041854,0.0698912438374687,nan
1740795716.2179701,0.11791341380538074,-0.03838010226596485,-0.05609773108616908,0.07993973698090485,nan
1740795716.221876,-0.0647870145465354,0.14117456706626513,0.07509454939632945,0.0278699407739292,nan
1740795716.225782,-0.19014222589633945,0.2691621038325226,-0.09638526553661413,-0.09211543336579295,nan
1740795716.2296877,-0.18692281024459328,0.25076222203254245,-0.34605191918593026,-0.17065744090425572,nan
1740795716.2335937,-0.094369113901342,0.12059830747579253,-0.291045572384514,-0.10937112363727011,nan
1740795716.2374995,-0.017912400764182296,-0.020618222967309856,0.11228393633167809,0.04159191177678706,nan
1740795716.2414055,-0.013968420530325132,-0.13535633303694314,0.4876862934233726,0.11991272221921587,nan
1740795716.2453113,-0.037612008813471806,-0.2568351961418194,0.4731960951501744,0.03474877555589128,nan
1740795716.2492173,-0.013618149727011407,-0.3644501114435276,0.132871003309146,-0.12033149598796697,nan
1740795716.253123,0.06081495938413192,-0.3265434614109222,-0.14580681966449108,-0.16791638762342587,nan
1740795716.257029,0.11178632570419106,-0.043493501580058644,-0.11972125137330736,-0.04733267758888886,nan
1740795716.260935,0.08634413567589949,0.361121110290454,0.05202150684657534,0.12099430019798277,nan
1740795716.2648447,0.024413927980874005,0.5757238752885359,0.04489724404175828,0.18009293223770365,nan
1740795716.2687504,0.0098115302356771,0.3918406540900694,-0.22047269224256505,0.11237934291104329,nan
1740795716.2726564,0.06021871525691095,-0.054203418656450814,-0.48665798734911264,0.03764710203435882,nan
1740795716.2765622,0.095929319926141,-0.38537595733096874,-0.45776468486195043,0.04567183146068119,nan
1740795716.2804682,0.030844748124808648,-0.34942135452904755,-0.10928815687425077,0.07732646687321758,nan
1740795716.284374,-0.12105026260628766,-0.053973172756839834,0.31928008891387477,0.004431763212677132,nan
1740795716.28828,-0.24829499284586398,0.17734167329647008,0.569757082792874,-0.18860835236681514,nan
1740795716.2921858,-0.24786233670770785,0.14881141916797577,0.5446024900974333,-0.3471779736929752,nan
1740795716.2960918,-0.11515023706965725,-0.045925656365235275,0.2924692782598641,-0.2950378460619611,nan
1740795716.2999978,0.06742371268295216,-0.1828677193821689,-0.07033038038582727,-0.028622930014148642,nan
1740795716.3039036,0.20756870581623388,-0.15513051293699964,-0.3822210221113505,0.2600733002037178,nan
1740795716.3078096,0.25629150593182687,-0.027140693745868784,-0.46670676693414964,0.3596405162240877,nan
1740795716.311722,0.20696315307794416,0.1016832558634134,-0.2574704290316674,0.2288991206780728,nan
1740795716.3156278,0.08131252586595368,0.19863693284245204,0.08625437654314766,0.01228455260550883,nan
1740795716.3195338,-0.06844469298635093,0.2491858077578615,0.26914138623982364,-0.11402816142780972,nan
1740795716.3234396,-0.1681279943123213,0.19005224154903647,0.13509043737385762,-0.09601708522815652,nan
1740795716.3273456,-0.167569952978821,-0.022436278977626574,-0.1604105907542737,-0.015118281899981772,nan
1740795716.3312514,-0.08792004731387586,-0.2852577339624274,-0.3044503947186728,0.019598588141226694,nan
1740795716.3351574,-0.006636696648001135,-0.37822626961891154,-0.1560956287362795,-0.025966006432461917,nan
1740795716.3390634,0.018311220709101586,-0.18401644802531178,0.12366474006776507,-0.10167374892669724,nan
1740795716.3429692,0.0029676990917500523,0.14702234432962097,0.2833097244967416,-0.13675775000839113,nan
1740795716.3468752,0.0054506077237108635,0.3182244654927553,0.2623058105769112,-0.10032242810479428,nan
1740795716.350781,0.04605518308766915,0.19107211563546764,0.20055445418700932,-0.013506214460243932,nan
1740795716.354687,0.07840778430983361,-0.07279578003323608,0.19508105712074061,0.07634465553046664,nan
1740795716.3585954,0.047958919319189414,-0.20211191821835262,0.14822433988088315,0.12842769822256203,nan
1740795716.3625014,-0.033980776737941254,-0.11341915037606466,-0.08157961857765983,0.12917463970273285,nan
1740795716.3664072,-0.09067154717129591,0.034722222134684434,-0.42876473703433876,0.094857521660281,nan
1740795716.3703132,-0.05504895189659419,0.07374463332561357,-0.6197626389151292,0.05513577372814341,nan
1740795716.374219,0.0626944042651067,0.03291451730828327,-0.45668679782022226,0.026651999680353495,nan
1740795716.378125,0.17890870688196386,0.05959361824834362,-0.04820551131707364,-0.0009057919172129566,nan
1740795716.382031,0.197081487162091,0.17237274100297892,0.29597248901364964,-0.049044872516237646,nan
1740795716.3859367,0.07208472611864852,0.19253697467874473,0.3812449619723433,-0.11729956826104515,nan
1740795716.3898427,-0.1534275556535277,-0.029127144289001698,0.2857705051490287,-0.16902488723431192,nan
1740795716.3937485,-0.3522817365103612,-0.3680787185386636,0.20639090949639685,-0.1581824478299425,nan
1740795716.3976545,-0.3740241833645743,-0.4959100263639839,0.21704981785251037,-0.07532000881309282,nan
1740795716.4015603,-0.15910986263224627,-0.2246565590710652,0.22635298864324024,0.03512422926240913,nan
1740795716.4054718,0.17536093190866445,0.25954522776594346,0.13099778354888295,0.10957005464626349,nan
1740795716.4093778,0.39231464201196115,0.5521208377978354,-0.06861384355377269,0.12192039053716519,nan
1740795716.4132836,0.33415033702695707,0.41825975304556484,-0.3109916076798079,0.10487091073298813,nan
1740795716.4171896,0.08576308837359435,0.0043960518368723,-0.5460365601269797,0.1098163774700278,nan
1740795716.4210954,-0.09600699913604094,-0.3278742128700991,-0.698566774756866,0.1418481210746209,nan
1740795716.4250014,-0.051900801129485294,-0.342947866590937,-0.611098041703502,0.13894240764649218,nan
1740795716.4289072,0.09623318897186936,-0.10293268638264093,-0.15002514651378612,0.028915185835138708,nan
1740795716.4328132,0.0795488168573466,0.14741548475650543,0.5675723706549494,-0.18046458545380112,nan
1740795716.436719,-0.18809648984422983,0.21147450176797716,1.1221100218156825,-0.36990611135320817,nan
1740795716.440625,-0.46510041999923474,0.07042600376973845,1.0893144502455228,-0.38667754303832197,nan
1740795716.444531,-0.42334963218781324,-0.1428441555663506,0.44473351535474703,-0.17879405521122643,nan
1740795716.4484367,-0.026934894748827206,-0.25011116422437324,-0.3654585723118666,0.13862215471070666,nan
1740795716.4523447,0.3926157983922568,-0.1437317209286975,-0.8060333840729137,0.36154371555978815,nan
1740795716.4562507,0.4759618037684032,0.12608680632570404,-0.7082254364365544,0.36055995841389693,nan
1740795716.4601564,0.21406374077015927,0.3535097249418624,-0.3392550450426979,0.17903307906094446,nan
1740795716.4640625,-0.06990928866703129,0.32061606196854714,-0.06147983428645314,-0.02619376202539322,nan
1740795716.4679685,-0.10679216530284619,0.005783566884694495,0.010882182446813516,-0.1344657334311625,nan
1740795716.4718742,0.02828601873240142,-0.3481299681667814,0.01470235493741181,-0.1444460557860863,nan
1740795716.4757802,0.060494820340057924,-0.42801719309895603,0.09031305833346108,-0.11789985799223084,nan
1740795716.479686,-0.10525350981178058,-0.15301008683302866,0.22234745899146327,-0.07622066077900269,nan
1740795716.483592,-0.25747412117154844,0.23062063282764947,0.3144010977516687,0.009257994961745251,nan
1740795716.4874978,-0.16540369001995625,0.3872436342664213,0.32410831176489174,0.12453412523010102,nan
1740795716.4914038,0.0922611668824345,0.22085849885075048,0.2648160768034342,0.16123883951064466,nan
1740795716.4953096,0.1951726374650288,-0.05966867179030798,0.12623011759538585,0.016759348828953802,nan
1740795716.499211,-0.015611906767148803,-0.1967433143025578,-0.11165603687880551,-0.244403276780801,nan
1740795716.503117,-0.3022140465558218,-0.15186530510342489,-0.37228864270685624,-0.3820636893768755,nan
1740795716.5070229,-0.2815083717676184,-0.08116273597527404,-0.4749739032492293,-0.19764617592662753,nan
1740795716.5109289,0.11571201509490922,-0.08568478505677794,-0.3087080889949386,0.22548822957733947,nan
1740795716.5148346,0.5304737979833406,-0.07707252502807775,0.007791754688613841,0.5428561906943008,nan
1740795716.5187407,0.5567414365082627,0.0673155039758127,0.21417371059855236,0.46173582454561657,nan
1740795716.5226464,0.17704001705789132,0.2772796372906067,0.17783227952309877,0.04298507561130436,nan
1740795716.5265524,-0.24679256535060115,0.3174772086426408,0.023827294747688868,-0.3388220428093437,nan
1740795716.5304582,-0.38939608087484906,0.07147539602500677,-0.03845387253219799,-0.3610790617995173,nan
1740795716.5343642,-0.27800579331812997,-0.26775494105835984,0.03127078862496936,-0.07223613842117788,nan
1740795716.5382702,-0.16443296138197053,-0.36885562999045957,0.09643496524089792,0.17286844806149598,nan
1740795716.542176,-0.1679253000602862,-0.12613374675504788,0.07296841059223073,0.09403967980711217,nan
1740795716.5460863,-0.15435463389051293,0.20738611916338887,0.05950599957797531,-0.22071166724095304,nan
1740795716.5499923,0.026706231179966334,0.2881442913694153,0.1687557999627399,-0.41428457580086714,nan
1740795716.553898,0.29276705002726483,0.05304553116382709,0.29397448468176723,-0.23687188612344318,nan
1740795716.557804,0.4052535278163718,-0.2262250787283862,0.17669514089650523,0.19853681536346915,nan
1740795716.56171,0.2654313576435769,-0.2552395004461679,-0.24864684365141243,0.5328164581399155,nan
1740795716.565616,0.03587314955736277,-0.02906451912896923,-0.6728283071316296,0.5071588868792479,nan
1740795716.5695217,-0.067923643589605,0.19756033606204015,-0.6876034922135092,0.18352124802939654,nan
1740795716.5734277,-0.03664910421362704,0.21351371284702877,-0.24058715461931918,-0.15300169250681642,nan
1740795716.5773335,-0.04110950609023213,0.06248142203926569,0.2807010450389761,-0.2735404013374523,nan
1740795716.5812395,-0.1703891209669994,-0.056334900884473744,0.4655111726894192,-0.18392921320625702,nan
1740795716.5851452,-0.29397808000513787,-0.03930376205309104,0.31276311451579225,-0.06341786312796456,nan
1740795716.5890512,-0.23465725498512763,0.025561942258253756,0.1665828043003524,-0.06539158803414315,nan
1740795716.592961,-0.018564212341072053,0.001940373452823284,0.2522359236187421,-0.17941141829704746,nan
1740795716.596867,0.13831706404749985,-0.11475617886113153,0.39776177677683205,-0.25978400136073637,nan
1740795716.6007729,0.09964572674208025,-0.19485825291086986,0.2765919552318573,-0.17018205127165656,nan
1740795716.6046789,-0.01614347928448166,-0.12844759576448733,-0.15488873522718144,0.08733619279475067,nan
1740795716.6085846,0.011165768706873927,0.05627306247096125,-0.5795309826436086,0.36222370622734706,nan
1740795716.6124907,0.2135954893826631,0.2266289604757384,-0.6793961209134016,0.4712443824016396,nan
1740795716.6163967,0.37785813740231905,0.26326749524756154,-0.464809541203836,0.34687584204401606,nan
1740795716.6203024,0.293506410189362,0.13561459920959457,-0.18410772357759217,0.08999376807210505,nan
1740795716.6242085,-0.004725525259710859,-0.09707724650217897,0.011322271145413775,-0.1263312027486231,nan
1740795716.6281142,-0.28917658621369635,-0.31094796631541904,0.18761155919176434,-0.21377137087879516,nan
1740795716.6320202,-0.3935351617019825,-0.35449527386499696,0.4188309699310182,-0.22705944714551787,nan
1740795716.635926,-0.34269987961665793,-0.13379785135145625,0.5958036953878352,-0.2612929165801703,nan
1740795716.6398358,-0.2339219017049712,0.27245651117608416,0.5448637015961694,-0.3084655835963272,nan
1740795716.6437416,-0.08407232324835172,0.590805654347373,0.2765900710554705,-0.2524868808325008,nan
1740795716.6476476,0.13066213284212247,0.5232066571003979,-0.01304462989656516,-0.024068720534558406,nan
1740795716.6515536,0.3295621724074334,0.01820065434982362,-0.2008797082812249,0.26870713949028496,nan
1740795716.6554594,0.34320504201085433,-0.6102937913730552,-0.3676821418652445,0.4137956652224517,nan
1740795716.6593654,0.12958918227548477,-0.8838780923724782,-0.5874999207745296,0.31454101647578664,nan
1740795716.6632712,-0.09849773288328183,-0.5515815750221373,-0.6888030465141514,0.10231879200703611,nan
1740795716.6671772,-0.07085149040799248,0.171222202811166,-0.40849161584359006,-0.0065809695083031165,nan
1740795716.671083,0.20100998550226595,0.7553333793003582,0.18722363704729567,0.04343295849039595,nan
1740795716.674989,0.37084058148820315,0.7899205455225684,0.6139173924575363,0.08965312441052088,nan
1740795716.6788948,0.12187784484424906,0.3171174754870649,0.4697269734163007,-0.04162663530852664,nan
1740795716.6828008,-0.4368805337860765,-0.23002214601752283,-0.028520554808682114,-0.30644216977138317,nan
1740795716.68671,-0.8183678228745864,-0.42693093173164315,-0.215351160786359,-0.4706468127004934,nan
1740795716.690616,-0.6384529106062433,-0.2253679307329667,0.23106007468100173,-0.36593019237125674,nan
1740795716.694522,-0.016326823015804008,0.04916979847159251,0.8178090804005306,-0.07174433134682383,nan
1740795716.6984277,0.5402966422454573,0.05744789042976384,0.750277145194109,0.18506712561292477,nan
1740795716.7023337,0.6310547020843144,-0.19769401640642625,-0.10769674487395628,0.27634320574407795,nan
1740795716.7062395,0.31035973379640425,-0.3830625776286984,-0.9977506102002177,0.2644560385537219,nan
1740795716.7101455,-0.03839121148095132,-0.20789264305301208,-1.104280956606243,0.25575885567964685,nan
1740795716.7140512,-0.1076512715030253,0.2337068659189249,-0.4813072061999494,0.23826040456378214,nan
1740795716.7179573,0.08039965955060571,0.5316573535423884,0.07099776437617572,0.12495868203461065,nan
1740795716.721863,0.26236342522885575,0.39047104716938785,0.030434122951961688,-0.07364554897364638,nan
1740795716.725769,0.1988017781900004,-0.038119781524273894,-0.21547622146991463,-0.2117934444568274,nan
1740795716.7296748,-0.13900097606642794,-0.3023392954730629,0.05921066725534468,-0.18497128067979487,nan
1740795716.7335835,-0.5575864483936938,-0.13904518337377617,0.875438809724916,-0.08713945579853175,nan
1740795716.7374895,-0.7634629677886621,0.23211721002465371,1.4012952835678212,-0.10897786929426807,nan
1740795716.7413952,-0.5562040594332354,0.348342992735184,0.942205980894638,-0.2760848134646269,nan
1740795716.7453012,-0.003927764014297464,0.01794435585040084,-0.16650077357099133,-0.3697537082197621,nan
1740795716.749207,0.5513229960124452,-0.46773170321242824,-0.9171838767520633,-0.1718802944757501,nan
1740795716.753113,0.7433088365411687,-0.6555704146789585,-0.8098232488456224,0.24401841593103835,nan
1740795716.7570188,0.5105493478250185,-0.4028086934901467,-0.367350367875917,0.5483735589147308,nan
1740795716.7609248,0.15570177282961822,0.03416097708939564,-0.34945181715673185,0.5048413352851199,nan
1740795716.7648306,0.014530909304150096,0.3435043548668163,-0.7117160036523701,0.22267715803826885,nan
1740795716.7687366,0.07582594016211906,0.46954600871669716,-0.6858325823914013,0.005846169721830812,nan
1740795716.7726426,0.01773508418995138,0.52490288565212,0.12207031361681112,-0.012595381094364625,nan
1740795716.7765484,-0.3421130942566571,0.4988438641449361,1.0833796823796142,0.002655597671089429,nan
1740795716.7804565,-0.7319904153488928,0.23045609628898633,1.255778076707601,-0.15263832437771688,nan
1740795716.7843626,-0.6940666729368722,-0.2809384190302204,0.5641875844732149,-0.4237915246746555,nan
1740795716.7882683,-0.16221276042658578,-0.6906440744009295,-0.09819035412310217,-0.54737344180168,nan
1740795716.7921743,0.3810409369348012,-0.6169370550580922,-0.01816287014781802,-0.37977067778473855,nan
1740795716.79608,0.437562026400706,-0.1360780675601388,0.4241578226529651,-0.07142166437064544,nan
1740795716.7999861,0.10101522305766217,0.20799382994878932,0.28847121038699947,0.1358832204776445,nan
1740795716.803892,-0.049946231183307925,0.01986479701375645,-0.6292997233806554,0.20779585433732728,nan
1740795716.807798,0.29816788206771444,-0.40750307304553135,-1.4533203556635204,0.3081860640765045,nan
1740795716.811704,0.7333044246779689,-0.3686598211851301,-1.316001694330658,0.5050717341211136,nan
1740795716.8156097,0.5919638324298667,0.38151523271547694,-0.4466191159569377,0.6162092942486597,nan
1740795716.8195157,-0.1673813063619163,1.199826052346746,0.19567435444362125,0.4345233302197389,nan
1740795716.8234215,-0.8167461328256885,1.1895885643801132,0.24321428423681596,0.034577673522521814,nan
1740795716.8273294,-0.7117097018923615,0.23606028731567788,0.3614496981505797,-0.28751323416259394,nan
1740795716.8312352,-0.11403909867153875,-0.7985803107020065,1.1449993247208408,-0.39800002187366673,nan
1740795716.8351412,0.11258209114885129,-1.0226686397548201,1.9910806267018613,-0.5022960925407878,nan
1740795716.839047,-0.3611416036124262,-0.5096061796934449,1.6671850459405788,-0.8087429725477132,nan
1740795716.842953,-0.8020861170972925,-0.12713573404513212,0.01840787890700454,-1.0898441757990438,nan
1740795716.8468587,-0.2837576769892628,-0.38928129553439456,-1.51121188790671,-0.8002678239534126,nan
1740795716.8507648,1.0329351578145967,-0.7563183267883867,-1.5390315822400429,0.24949537454290402,nan
1740795716.8546705,1.8606379218547975,-0.30408458818560913,-0.603230498237002,1.4635848643530707,nan
1740795716.8585765,1.208150560351013,1.0151590409609736,-0.59052608445363,1.9220659919278162,nan
1740795716.8624825,-0.3868473728362269,2.0971409009135944,-2.0771300772776926,1.3200566830588079,nan
1740795716.8663883,-1.3842575565180515,1.8181404770574094,-2.969110062888117,0.28720658168816315,nan
1740795716.8702943,-0.994242628866122,0.27052810408946876,-0.7224898373994677,-0.35626687782860234,nan
1740795716.874205,-0.04277466558164829,-1.3518647208073462,4.047064873356518,-0.5425887649434955,nan
1740795716.878111,0.15328552375873378,-2.0270971715260506,7.137357123076794,-0.9036894442110978,nan
1740795716.882017,-0.4794703103995698,-1.7661434036305286,4.8553262652928115,-1.7227095316225987,nan
1740795716.8859227,-0.6680369639606314,-1.1220514788223528,-1.5666059714639695,-2.227042688821328,nan
1740795716.8898287,0.43109688283115494,-0.219756896309667,-6.5409496111335175,-1.3046437910942013,nan
1740795716.8937345,1.808365989341815,1.2226098697358607,-5.684174246493333,1.0023823515285908,nan
1740795716.8976405,1.541686491652322,2.871470336903438,-0.4567664023970904,3.038166416790913,nan
1740795716.9015462,-0.7686337413054873,3.3484701441403257,3.425020707225878,2.9525745616827628,nan
1740795716.9054523,-3.0226557303218375,1.4577487337506905,2.2321564251545625,0.6719555217642957,nan
1740795716.909358,-2.5981119072997685,-2.091353356264327,-1.827978573026355,-1.7692317599220366,nan
1740795716.913264,0.7072385657704501,-4.703132250704724,-3.389469256447353,-2.108463943281255,nan
1740795716.91717,4.122053202661451,-4.140062460241174,-0.19232088510807416,-0.10759845902714868,nan
1740795716.92108,4.53327573268781,-0.7658050865849473,4.365559900564006,2.160216889388295,nan
1740795716.9249861,1.5061971291593212,2.745570188446269,5.214122215985515,2.3016460584181844,nan
1740795716.928892,-2.513994458954826,4.0155287325474145,1.3915174183464702,-0.14781695969012393,nan
1740795716.932798,-4.7800162043809244,3.0079768835085465,-3.0442687326083337,-3.369157362944662,nan
1740795716.9367037,-4.541488117903014,1.3398326911840168,-3.7993898511257185,-4.903774389530919,nan
1740795716.9406097,-2.7438198288945883,-0.010761269287038794,-1.0680985094293391,-3.5394516673895944,nan
1740795716.9445157,-0.18855951662078643,-1.5761120852164903,1.1968190229178066,0.11579030443494875,nan
1740795716.9484215,3.068405672343364,-3.7773663460024967,0.2533770909382009,4.307425325191444,nan
1740795716.9523275,6.360075932315563,-5.161554426044589,-2.286528203737238,7.030414292880788,nan
1740795716.9562333,7.426336963171287,-3.342216402629096,-2.701318276815312,6.664854058687284,nan
1740795716.9601393,4.034306641224034,1.886419289282667,0.19294414909003746,2.688597161433615,nan
1740795716.964045,-3.014292712582735,7.017762713442787,3.633968891262664,-3.5026950288516616,nan
1740795716.9679549,-9.198541758648405,7.45455568568397,4.225330003416151,-8.621966811717709,nan
1740795716.971861,-9.650778596725344,2.1426126310899485,1.7818864269466015,-9.24126426069555,nan
1740795716.9757667,-3.7143144156769545,-4.758277520923374,-0.8371552501481035,-4.458154697199423,nan
1740795716.9796727,4.066215573913114,-7.436883994422584,-1.3801833990161758,2.8693062974178214,nan
1740795716.9835787,7.883881375992379,-3.9085756702302166,-0.6876863700855169,7.92495927674243,nan
1740795716.9874845,5.751514101266066,2.1729155049353683,-1.0818397842955692,7.614094089896539,nan
1740795716.9913905,0.7369461061305521,5.214545155859632,-2.9219721840616084,2.9344399183234984,nan
1740795716.9952962,-2.5519743937320793,3.0217136096860404,-3.7891953197350814,-2.121946413956478,nan
1740795716.9992023,-2.306852097291838,-1.5865149846767626,-1.419168434836086,-4.070296150380588,nan
1740795717.003108,-0.38328267024019164,-4.086483669012773,3.1594269933848453,-2.58920229174223,nan
1740795717.007014,0.5007350149732692,-2.643698701263816,6.149474535269838,-0.10769050542538777,nan
1740795717.0109198,-0.32020736910378944,0.7997913186508049,4.757082409634868,0.8575190122210252,nan
1740795717.0148294,-1.412190738354555,3.1380431594820726,0.06390093987536681,-0.12161080796117883,nan
1740795717.0187352,-1.4048207728201287,3.074344536023352,-4.0585212733643585,-1.5158112804791095,nan
1740795717.0226412,-0.4674237315038241,1.5236676820330612,-4.6562264361388515,-1.6603332117207166,nan
1740795717.026547,0.37311527471577305,-0.12869725795002152,-2.096931791432632,-0.2746500916542051,nan
1740795717.030453,0.7124934445037917,-1.3909415180167024,0.9304001029889913,1.5583386557817338,nan
1740795717.0343587,1.009561201214613,-2.3398913367597696,2.2138250379378883,2.5249813701546433,nan
1740795717.0382648,1.5141290574378543,-2.702617241016154,1.6129960624728708,2.0958673446412526,nan
1740795717.0421705,1.6032091069571166,-1.9190231116636582,0.36753101158093204,0.7025392704025393,nan
1740795717.0460765,0.5724991069891966,-0.07124129355877071,-0.46415034806246874,-0.7524566952831773,nan
1740795717.0499823,-1.1629456229422837,1.771047413574472,-0.6812973270813377,-1.5186550395307186,nan
1740795717.0538883,-2.1798303948621296,2.4600254213190027,-0.5318734987836321,-1.3914604076304251,nan
1740795717.0577943,-1.5447908176465504,1.882726080938034,-0.19747562289840853,-0.7426769253307236,nan
1740795717.0617034,0.0641940858705989,0.9123194262957863,0.21986662227908602,-0.18220514056298442,nan
1740795717.0656095,1.0325040726063073,0.3083584589348284,0.5307068674876859,-0.04647896651124087,nan
1740795717.0695152,0.5611262544024925,-0.034161592762998835,0.5524685337920545,-0.13143332902639565,nan
1740795717.0734212,-0.5219470277304302,-0.634327370881348,0.313405580855181,0.030731765472452897,nan
1740795717.077327,-0.793907950617079,-1.5043467148863114,-0.011083227547852686,0.5870913808621709,nan
1740795717.081233,0.13529224475348106,-2.0157645084750344,-0.34041029357619296,1.1131011430007554,nan
1740795717.0851388,1.2620980711876588,-1.6727114252003001,-0.6848575478369554,1.0361682214693806,nan
1740795717.0890448,1.397322218268712,-0.7033254920686952,-0.8746991378440357,0.29959398188967445,nan
1740795717.0929506,0.45790866732493923,0.2976873555055634,-0.539017527970021,-0.5086606387350932,nan
1740795717.0968566,-0.5868994921841262,1.0994789639337041,0.40566391402846946,-0.7582224240178878,nan
1740795717.1007626,-0.8821944443332534,1.8711676594989037,1.3291814103785964,-0.43727959566091196,nan
1740795717.1046684,-0.5287768308208793,2.4953987096720947,1.288075775045573,-0.10110861966955337,nan
1740795717.108577,-0.22986056727395626,2.2578534453200585,0.0624449771518157,-0.17391836834367908,nan
1740795717.112483,-0.343907284930783,0.6052581372215544,-1.3494840393419774,-0.44798749202886856,nan
1740795717.1163888,-0.5202726764110749,-1.841119289296161,-1.57220298105298,-0.38282634098425083,nan
1740795717.1202948,-0.24658421899468155,-3.428134290227915,-0.29434193411420584,0.1740510435019199,nan
1740795717.1242006,0.45765310331059217,-2.923291103448458,1.2888720279993926,0.7415717538787517,nan
1740795717.1281066,1.024803352069941,-0.7747181538550911,1.6447814191672718,0.7460841980580146,nan
1740795717.1320124,0.9463382196578708,1.2750357831883001,0.4828185664549856,0.1939761477885986,nan
1740795717.1359184,0.27789999173468233,1.859053463184867,-0.9769408070924752,-0.3350758964252266,nan
1740795717.1398242,-0.45224241723070974,1.1366185981717625,-1.3293251231234287,-0.3521580799073736,nan
1740795717.1437302,-0.7354358804632625,0.2769610438172609,-0.4285402168661022,0.023217531131723413,nan
1740795717.1476362,-0.46227404048045406,0.057897805893354116,0.5938771282982952,0.2773140267822505,nan
1740795717.151542,0.069470092672277,0.23602978233927344,0.6465585965228634,0.12815345635964376,nan
1740795717.15545,0.4123521194671431,0.21599594253837784,-0.18357838025196355,-0.20923621893615976,nan
1740795717.159356,0.2820510279794328,-0.06142938520049335,-0.8480849139682816,-0.371457574621565,nan
1740795717.163262,-0.22808022823632737,-0.18035208559567917,-0.5263174732287421,-0.2890047777016219,nan
1740795717.167168,-0.6691047681428395,-0.028041694726133642,0.5498629926888727,-0.16137049568151052,nan
1740795717.1710737,-0.5702663138177726,-0.08335282755437197,1.4017882962657138,-0.08588952446292296,nan
1740795717.1749797,0.10530822604126704,-0.7250744639068843,1.2637089631069323,0.08001480234038012,nan
1740795717.1788857,0.8237222494773664,-1.485927083490886,0.20583834081577032,0.4148399864905187,nan
1740795717.1827915,0.9179612727154922,-1.3744105172774363,-1.0257047291452908,0.6516061724032882,nan
1740795717.1866975,0.2574828326483211,-0.039682408367029826,-1.6243887238655292,0.41051679325486023,nan
1740795717.1906033,-0.556064912786722,1.6205221082264452,-1.2478221167802486,-0.2647603711303678,nan
1740795717.1945093,-0.7585765018551835,2.2537357291071602,-0.17819207590840205,-0.7812213417244867,nan
1740795717.198415,-0.20822547944874023,1.4244827430173697,0.8814994483401242,-0.5701403110916663,nan
1740795717.2023227,0.4684928164328309,0.009364927508424263,1.2631198661313578,0.23765206516063797,nan
1740795717.2062287,0.5543020555876988,-0.8104043434223449,0.801677391308802,0.8565059247496138,nan
1740795717.2101347,0.002193286831344069,-0.7601692939411687,-0.042270370797655485,0.6405617817223372,nan
1740795717.2140405,-0.5604546182699146,-0.5220318968137306,-0.5819427393497025,-0.23153273296416704,nan
1740795717.2179465,-0.5590343493387054,-0.7004500568634257,-0.5073132947202961,-0.9455242995659853,nan
1740795717.2218523,-0.07993223903908486,-1.0387946339698955,-0.09603847138813491,-0.8906352660856315,nan
1740795717.2257583,0.31011834635046115,-0.8112422688369256,0.18082270078312987,-0.21568847839040933,nan
1740795717.229664,0.2583943092907746,0.1721218972349935,0.18294222733604193,0.4471732870145335,nan
1740795717.23357,-0.01041912264515082,1.2198181426076866,0.1317378745428925,0.6731167952626163,nan
1740795717.2374759,-0.04983812389173002,1.4794200727856979,0.16473189046164585,0.5459871147133442,nan
1740795717.241382,0.22602475417463386,0.8346791252825462,0.06939010519970425,0.3480954284624036,nan
1740795717.245288,0.4537374403384142,-0.05434853633106248,-0.37677561810910737,0.1609771554240141,nan
1740795717.2491987,0.294041543705283,-0.5188499338443328,-0.8955785546600805,-0.10962705949555247,nan
1740795717.2531047,-0.1486200525929745,-0.49619676383759126,-0.8163983055672421,-0.4247399606302544,nan
1740795717.2570105,-0.4643547543099824,-0.3534936539962653,0.13968129317812522,-0.5411662123802919,nan
1740795717.2609165,-0.4238786425900345,-0.3055686829571883,1.3092763883714036,-0.3220363117559233,nan
1740795717.2648222,-0.2007318687733447,-0.21928182959961623,1.5840103582612017,0.01235820078639881,nan
1740795717.2687283,-0.0927186524454224,0.03356174567199541,0.5681700603349918,0.10082615912041204,nan
1740795717.272634,-0.13573325913839604,0.2628902967676276,-0.8881113028785423,-0.09977002825926112,nan
1740795717.27654,-0.0963158993592275,0.16862121739797598,-1.4776835848509935,-0.21839259443834108,nan
1740795717.280446,0.1823261927817853,-0.20623795832403657,-0.75731866335387,0.07761131318098778,nan
1740795717.2843518,0.5410408062990809,-0.42366861405497336,0.43600244090639273,0.6128436617183863,nan
1740795717.2882578,0.6636887139987172,-0.13678333585432867,0.9137933050246788,0.8295064404147147,nan
1740795717.2921636,0.41806248611139146,0.46373688736378327,0.3552871169370709,0.41233419181302133,nan
1740795717.296074,-0.029186098949700454,0.8099865586969439,-0.49646944396505954,-0.31787829923202787,nan
1740795717.29998,-0.4117309430666301,0.5623854525488414,-0.751987077998785,-0.7269692595373148,nan
1740795717.3038857,-0.5919242233459056,-0.03717008830170183,-0.280719662522801,-0.542452442938466,nan
1740795717.3077917,-0.5718974174756485,-0.4552236131791439,0.3460896296021423,-0.09970466019098498,nan
1740795717.3116975,-0.3735024542269584,-0.4380571559931537,0.6112062313549913,0.09986652146296274,nan
1740795717.3156035,-0.018721581420503244,-0.21356524523066578,0.5193491619704432,-0.0375755414748129,nan
1740795717.3195093,0.37101443379027865,-0.14731914066102908,0.33577179454633516,-0.16709407726832906,nan
1740795717.3234153,0.56732368493351,-0.3011639237033271,0.12591557069045367,0.002093015697499391,nan
1740795717.327321,0.4235909425953793,-0.3943791179805848,-0.23499905312296723,0.3335777537962582,nan
1740795717.331227,0.06071244258141599,-0.1599798008454198,-0.6750955628100459,0.4577936494133761,nan
1740795717.3351328,-0.21229852227387427,0.33786459766413623,-0.8138403795048463,0.2492288082304838,nan
1740795717.3390388,-0.20025259779731158,0.7541775040300167,-0.38245837038821123,-0.031120723890615945,nan
1740795717.3429487,-0.010612784325791295,0.7822832828198878,0.3480142347833578,-0.08979658297127056,nan
1740795717.3468547,0.0937914165520536,0.4030596710878867,0.7454455218048688,0.02420591349075413,nan
1740795717.3507605,0.002620057483659,-0.13313082462611311,0.46835459459474277,0.008547339567632548,nan
1740795717.3546665,-0.13878979651894713,-0.5144891451256282,-0.1609457562623257,-0.26259681453668066,nan
1740795717.3585722,-0.1387712185952593,-0.5733070534357789,-0.5018803605594191,-0.5297100591096885,nan
1740795717.3624783,-0.007555182431844333,-0.3642356837568335,-0.25597396488433466,-0.4402385696250485,nan
1740795717.366384,0.06301268623106529,-0.09499901435656276,0.2893219075757366,0.011994314517317686,nan
1740795717.37029,-0.04692535784214164,0.03989420263684651,0.6240458248747585,0.4424194333063801,nan
1740795717.3741958,-0.21789102270914879,0.011569224160745979,0.49949606004512903,0.4871477096239893,nan
1740795717.3781018,-0.21428620755191385,-0.03482426580389508,0.03872311957805086,0.18620295263462525,nan
1740795717.3820078,0.049504978841892575,0.056394114149957736,-0.48012397785742333,-0.09499580586092389,nan
1740795717.3859136,0.4030515350687267,0.2672307350887531,-0.807046646658687,-0.08548549027255206,nan
1740795717.389823,0.5750756097805647,0.4058221872170335,-0.7508456834360122,0.12307043557909984,nan
1740795717.393729,0.42618615788205266,0.31024721352227946,-0.24846713005935414,0.22910992384286172,nan
1740795717.397635,0.0353456656853572,0.03550881317440156,0.4691546864159716,0.06747265132053862,nan
1740795717.4015408,-0.38876849100173105,-0.19573527932342577,0.8962545478943301,-0.2458964929445421,nan
1740795717.4054468,-0.6421453609343626,-0.2275938254646782,0.6551910558410688,-0.4698649692797367,nan
1740795717.4093525,-0.609034433021775,-0.11954723067551264,-0.052754247445965935,-0.45821832210415137,nan
1740795717.4132586,-0.30159228610425104,-0.04638403074668113,-0.5381777095277663,-0.22191739029409202,nan
1740795717.4171643,0.1300034425429002,-0.08993076953322617,-0.3132118705337608,0.135183629072126,nan
1740795717.4210703,0.4578628175382243,-0.1764339367454453,0.33660397853341706,0.4630257158766885,nan
1740795717.424976,0.5189639357166521,-0.20175108136183953,0.6141671104328887,0.5839638807442696,nan
1740795717.4288821,0.3364424362391581,-0.14522458297473417,0.0993816848584166,0.38377682540637637,nan
1740795717.4327881,0.08710070257323613,-0.02819421070197298,-0.7321340730794003,-0.0447738369176322,nan
1740795717.436697,-0.06968749167132589,0.16969476660332128,-0.9988605604542797,-0.39799937607878355,nan
1740795717.440603,-0.1227272736781433,0.45217755161330514,-0.38950751537202344,-0.40192866189947596,nan
1740795717.4445088,-0.16053562811014982,0.66457224286679,0.48883573497527355,-0.09401991317302542,nan
1740795717.4484148,-0.21991762885850483,0.5340577268436667,0.7899613093581314,0.18689718011559148,nan
1740795717.4523208,-0.2304443662524984,-0.02973122717875069,0.3456409831662297,0.14775402564183363,nan
1740795717.4562266,-0.12186029698659184,-0.6966042085732889,-0.21963501959553494,-0.13644729155349355,nan
1740795717.4601326,0.05625593459832982,-0.9191574107237727,-0.2527953584813619,-0.30326370393742047,nan
1740795717.4640384,0.16998782387697442,-0.4764562019052244,0.20966576202805307,-0.11765983184930233,nan
1740795717.4679444,0.1510903279471848,0.22716491560990892,0.5630801578222763,0.24832127476176125,nan
1740795717.4718502,0.06577045417056404,0.5235292902546832,0.36172529095888045,0.4015504554377425,nan
1740795717.4757562,0.014944292974016409,0.1829951133581016,-0.23069033141832637,0.17252391696833683,nan
1740795717.479662,0.006421090354160868,-0.3189702673230768,-0.7080906023162901,-0.19263685710981704,nan
1740795717.4835706,-0.0246283408896656,-0.3184733897703943,-0.7704881321700687,-0.31065043545827026,nan
1740795717.4874766,-0.08180461821295444,0.2787195674448566,-0.49840346423143017,-0.08320030916845651,nan
1740795717.4913826,-0.06595032365790698,0.8555124437281291,-0.09009310591578787,0.21685757465850616,nan
1740795717.4952884,0.08566765784699269,0.7441058081801318,0.3628377674572273,0.2695901193045404,nan
1740795717.4991944,0.2557510977728012,-0.037749212814060566,0.7758257859919923,0.04947627262453347,nan
1740795717.5031002,0.22398781969132955,-0.7948956991448788,0.916880011025733,-0.1929660512268532,nan
1740795717.5070062,-0.07744579063403453,-0.8858278742965838,0.5629405656449037,-0.241543526274285,nan
1740795717.510912,-0.42928439923798967,-0.3544005406570954,-0.1602603602967719,-0.1277809759798675,nan
1740795717.514818,-0.5085862443127388,0.20634290425751972,-0.745961744436977,-0.024309788612769136,nan
1740795717.5187237,-0.21703173688618885,0.334965169526296,-0.748984662585155,-0.0021796091542637557,nan
1740795717.5226297,0.21011635987235897,0.12997105508577683,-0.24647853873068065,0.027896679399697786,nan
1740795717.5265355,0.4413336315757495,0.00011062835694714587,0.23249500181112687,0.14257824300400965,nan
1740795717.5304441,0.36693896678382226,0.12222045026812377,0.2560021946600851,0.25865488769438616,nan
1740795717.53435,0.15322678053061647,0.271581233359391,-0.09338769907531808,0.22002434733384751,nan
1740795717.538256,0.008733997851182916,0.17027679575338325,-0.3694774362308197,0.007875511045495935,nan
1740795717.5421617,-0.036665739384562294,-0.1298775922916949,-0.2525195684793218,-0.20475480590312764,nan
1740795717.5460677,-0.09397112912977762,-0.30285529288360086,0.18037420571178556,-0.236657297134515,nan
1740795717.5499737,-0.21115915499114332,-0.14563572193731902,0.6133633619811256,-0.09962564914090909,nan
1740795717.5538795,-0.28584536818100137,0.1780512777371392,0.782799091097575,0.027955152869863328,nan
1740795717.5577855,-0.20031576374758575,0.3205971066232558,0.5812931326177716,0.019024202054491984,nan
1740795717.5616913,0.009354827742437018,0.1211857746535538,0.02494962450848792,-0.060539150907541465,nan
1740795717.5655973,0.17374246657715606,-0.25088629848473804,-0.7058023547849447,-0.05295349022723027,nan
1740795717.569503,0.17460964613198038,-0.4883341807894073,-1.2065469434851004,0.08136473694541912,nan
1740795717.573409,0.0655810910444512,-0.42005525885142153,-1.0399949925967698,0.20517031028750102,nan
1740795717.577317,-0.007333845941013311,-0.10394231307663655,-0.16943846468314214,0.1658891735963825,nan
1740795717.5812228,0.026287318134478432,0.2685794717503698,0.8318456894252074,-0.01993721507215858,nan
1740795717.5851288,0.10360428829453572,0.5035145072925431,1.1898168791341919,-0.17671531121665862,nan
1740795717.5890346,0.12197579268370358,0.48814681769678847,0.6651275885755933,-0.1576178972823742,nan
1740795717.5929406,0.04796832508361221,0.2457145156758457,-0.17483569117489117,0.005716370009983143,nan
1740795717.5968466,-0.0742357780983549,-0.056104974414879556,-0.524945428400844,0.14763584835435892,nan
1740795717.6007524,-0.1820873582813907,-0.21280142011114886,-0.18154801397525214,0.13927234752181952,nan
1740795717.6046584,-0.22776059380184213,-0.1717434492681066,0.2803951669035152,-0.0017873413926638695,nan
1740795717.6085641,-0.17528178344334908,-0.10375033061009556,0.19963374365246866,-0.15334165479064518,nan
1740795717.6124701,-0.02173001890768639,-0.21567782227446422,-0.40144587136835147,-0.2050226380799365,nan
1740795717.616376,0.1587811848490612,-0.46466650692287625,-0.847999198668567,-0.1283361525221509,nan
1740795717.620282,0.23586160933922073,-0.5246941504487067,-0.5862205680959537,0.03106479115218093,nan
1740795717.6241927,0.1409864158443312,-0.12367132723279567,0.2052452661381744,0.18952720504396328,nan
1740795717.6280987,-0.03600917384646716,0.5815476783944351,0.836060475423751,0.25656049944431786,nan
1740795717.6320047,-0.11611196475585575,1.0472551546252142,0.8402352551941377,0.17589649816004255,nan
1740795717.6359105,-0.024393423425814992,0.8343455558945038,0.3708839656771143,-0.02280854389580446,nan
1740795717.6398165,0.11384064720015553,0.05957639235744543,-0.10749019372776197,-0.2153323298500339,nan
1740795717.6437223,0.11146216223250495,-0.6841269396017968,-0.3483285642539869,-0.26250782338588563,nan
1740795717.6476283,-0.052495224028219496,-0.8712832401498263,-0.4376818140306912,-0.12905977419152442,nan
1740795717.651534,-0.19335326066077968,-0.4909247602800779,-0.48206733753923403,0.07612195462996753,nan
1740795717.65544,-0.13667958909010045,0.034605265080133916,-0.38971846973730473,0.19383138516971093,nan
1740795717.6593459,0.06131074972105602,0.3070865486404475,-0.04844584836301016,0.15656330477252198,nan
1740795717.6632519,0.1647370678084578,0.27323232532964603,0.39528544971663404,0.034822462530387975,nan
1740795717.6671576,0.03531932836991092,0.13210121462834415,0.5993000909486597,-0.054224998449624195,nan
1740795717.671068,-0.19165171664613967,0.043055109632828825,0.39428792206049706,-0.06819303050151264,nan
1740795717.674974,-0.2498321929084653,0.0026151923713083926,-0.012243664820794692,-0.058420544071880506,nan
1740795717.67888,-0.041938178401052434,-0.03852409797423251,-0.26648178959779495,-0.07949061512382909,nan
1740795717.6827857,0.2502707414283283,-0.05605239544931856,-0.24511623668405386,-0.10822067244357422,nan
1740795717.6866918,0.3648959397002184,-0.004369844288337112,-0.11940900218269823,-0.07105564278982028,nan
1740795717.6905975,0.2273074542794558,0.0733763993689638,-0.0728315843410941,0.05638029392952082,nan
1740795717.6945035,-0.01061799202799423,0.0766350143293989,-0.07583139291742033,0.19998010455166276,nan
1740795717.6984093,-0.16518407328695237,-0.0072385369446426265,0.0020101919108174494,0.24898839403883832,nan
1740795717.7023153,-0.1942623871567949,-0.06569827384973699,0.14587097603550817,0.16008151469482693,nan
1740795717.706221,-0.1693329643814152,-0.016787929316719394,0.18946404572583506,-0.008870575329310926,nan
1740795717.710127,-0.1401220568735268,0.048364571493557884,0.05969818146278356,-0.16144522069562953,nan
1740795717.7140331,-0.09063752814929892,-0.034227448001849015,-0.09058648567710254,-0.24147994326018052,nan
1740795717.717943,-0.013981840499882688,-0.24990796874253016,-0.07673225325299192,-0.24581550714307054,nan
1740795717.7218487,0.0449080395083344,-0.34347803166198954,0.05247546268013072,-0.18164877846614333,nan
1740795717.7257547,0.060877178121555735,-0.09372590463188597,0.06440436694314036,-0.0450995864273748,nan
1740795717.7296605,0.0955530610522044,0.3690883460273449,-0.1261773600322603,0.14356285064624774,nan
1740795717.7335665,0.21914233311671857,0.6186878170533395,-0.28910560000577273,0.30294932569218586,nan
1740795717.7374725,0.3617764913349911,0.3688848305096278,-0.14072406157789427,0.3257633304313556,nan
1740795717.7413783,0.3201303578977114,-0.18178494659488323,0.26633963706200037,0.1754235277169954,nan
1740795717.7452843,-0.018803903954420984,-0.5188703249205783,0.5364140191630256,-0.05603738732619561,nan
1740795717.74919,-0.4783611267360067,-0.3459183440969158,0.35901607368509025,-0.2086073740273768,nan
1740795717.753096,-0.6939138501040101,0.10163018389536022,-0.13221009036029654,-0.19210089628110447,nan
1740795717.7570019,-0.4599530655862438,0.3207993625343416,-0.5051729657822092,-0.06776240858942821,nan
1740795717.760908,0.04802848598006405,0.09314009172928675,-0.4960358366148687,0.01456561554972628,nan
1740795717.7648208,0.437615737861729,-0.290563607155665,-0.23305446151843384,-0.032322153300353866,nan
1740795717.7687268,0.47713086509537034,-0.3731990645723375,0.009812689932631685,-0.14365196198896188,nan
1740795717.7726326,0.27264606385289014,-0.0431193636073754,0.157028388123286,-0.1675895245826955,nan
1740795717.7765386,0.0756902376798654,0.3566499003241121,0.320876810566261,-0.022144459354105844,nan
1740795717.7804444,-0.013674675552793406,0.4215120347712732,0.5045109640006961,0.21211947061048148,nan
1740795717.7843504,-0.0909880243355909,0.1216139967724829,0.490258034622806,0.3567624933552247,nan
1740795717.7882562,-0.22774475904482705,-0.196495044810646,0.1192319642605445,0.29505815690037585,nan
1740795717.7921622,-0.3133255224137305,-0.21278277601777523,-0.406209711048131,0.07286496369222714,nan
1740795717.7960682,-0.1858474715097288,0.026593006240227805,-0.6544037985973747,-0.1506976314863193,nan
1740795717.799974,0.11662363135303801,0.1943029036783138,-0.4339828818759695,-0.2461606723042118,nan
1740795717.80388,0.3304369105809019,0.0644604801749696,-0.02604800651817292,-0.20966511127342344,nan
1740795717.8077857,0.23701184435530004,-0.24211581763835566,0.14140838064704925,-0.13018850274304206,nan
1740795717.8116949,-0.08096679262195103,-0.3995792243586734,-0.00036381366443174595,-0.07952631973943033,nan
1740795717.8156009,-0.3112407395797569,-0.22479804847099485,-0.09966627326880388,-0.04611639488123163,nan
1740795717.819507,-0.23930333116621727,0.1451497773506187,0.14801497557656107,0.02508766597478677,nan
1740795717.8234127,0.040540193453049995,0.4064507335276798,0.5807073488107289,0.1422783994827786,nan
1740795717.8273187,0.25501885101951977,0.380926265971754,0.7218990247042743,0.23305108962434393,nan
1740795717.8312244,0.24705296295892454,0.14451976593461655,0.32453779302984553,0.20938893148893936,nan
1740795717.8351305,0.09614979728890898,-0.10038193195336195,-0.3418136789195522,0.06450173884498323,nan
1740795717.8390362,-0.03189610417424552,-0.23008964799887677,-0.7773852598264172,-0.10318843682869722,nan
1740795717.8429422,-0.0802552887479459,-0.25962938291972,-0.741158176325161,-0.1712970166458272,nan
1740795717.846848,-0.10791953623573043,-0.23385964640358,-0.38734898315791627,-0.10443742614593458,nan
1740795717.850754,-0.14896791273039572,-0.12476614492180976,0.012232085680787609,0.014004116014906382,nan
1740795717.85466,-0.145066386106348,0.11472317268764082,0.33372204570647085,0.062456065601808164,nan
1740795717.8585687,-0.04134598324381973,0.40372383366033543,0.5532004059661587,-0.002871541494350514,nan
1740795717.8624744,0.10293953897131515,0.5063137116275721,0.5770450920524872,-0.10892803720535495,nan
1740795717.8663805,0.158097900099065,0.22909025578154976,0.29432409161844475,-0.14062175462954984,nan
1740795717.8702862,0.07681303347655441,-0.32539149441669246,-0.1870716903107747,-0.05429844604862073,nan
1740795717.8741922,-0.042235040552397976,-0.7481920098990328,-0.5040048478088767,0.08253272425073913,nan
1740795717.878098,-0.06659049734380063,-0.6497329255995201,-0.36737917005932885,0.16183763538686285,nan
1740795717.882004,0.019591023961418368,-0.04650331957064123,0.09255863440960672,0.14009964802874153,nan
1740795717.8859098,0.10813602784295745,0.5960037037518952,0.4151353069412101,0.06873435048996454,nan
1740795717.8898158,0.09921664209062046,0.7632479928025736,0.2806014177739213,0.023149790479148908,nan
1740795717.8937218,0.004638386794738215,0.36945568251613853,-0.16740035143053641,0.014630031499230695,nan
1740795717.8976276,-0.08929507073681536,-0.17232475458306293,-0.5093708342483055,-0.012845976509339054,nan
1740795717.9015336,-0.12639798147349274,-0.3749158635400489,-0.49560968609554273,-0.09722558324734427,nan
1740795717.9054418,-0.11557191267448502,-0.16134074035995113,-0.22242648882066937,-0.1878349304475665,nan
1740795717.9093475,-0.07850668799761396,0.09992004197276179,0.09648412994229655,-0.1834480023258744,nan
1740795717.9132535,-0.011359267864422649,0.036536690867644064,0.3835129361745102,-0.04848904841253763,nan
1740795717.9171596,0.08147500131050872,-0.3014285634905547,0.637366312755748,0.12400281630606941,nan
1740795717.9210653,0.14847661908494844,-0.5014221486771563,0.7254769851665859,0.18824809129525213,nan
1740795717.9249713,0.1288914970453074,-0.259639599462919,0.43111368033947856,0.09289667889235893,nan
1740795717.928877,0.030654421975432337,0.2684733756003707,-0.22324119145982632,-0.058362198347328614,nan
1740795717.9327831,-0.06309459338435366,0.6251241139010556,-0.8255779496193261,-0.10703956347932887,nan
1740795717.936689,-0.08200016762997801,0.5273597321798748,-0.9084555210576315,-0.0013839032913319416,nan
1740795717.940595,-0.04093396250378805,0.13325134973477032,-0.44644764460066655,0.15112204160412873,nan
1740795717.9445007,-0.002299360541716819,-0.17116581561623628,0.09587646832992738,0.19476773111343257,nan
1740795717.9484067,0.014118278972720099,-0.1898154365384624,0.2767576216176698,0.07935318063154141,nan
1740795717.9523146,0.040874703639310624,-0.07008144672536787,0.1561864183579599,-0.1029768900860794,nan
1740795717.9562204,0.07802478746966585,-0.06572455303649674,0.1532958933633872,-0.22130698824693487,nan
1740795717.9601264,0.051438865267924044,-0.22711886103236462,0.4561122175687467,-0.22370370124452574,nan
1740795717.9640322,-0.09153117805082295,-0.3699340258528574,0.7300265359422806,-0.14845927198488085,nan
1740795717.9679382,-0.25915482949440316,-0.30890979796561296,0.5113811466256254,-0.04734492731151234,nan
1740795717.971844,-0.2584509282513951,-0.05182586765534287,-0.18882284090205162,0.06493222664592106,nan
