timestamps,TP9,AF7,AF8,TP10,Right AUX
1740797098.7991903,0.0315483614354581,0.19676430025685418,-0.023346671652737315,-0.18850385520130464,nan
1740797098.803096,-0.2744214790203919,-0.598742763567411,0.8297596189485031,-0.148504518677935,nan
1740797098.807002,-0.350278477439683,-0.7518322905256843,0.8489426151548526,0.011301255571990422,nan
1740797098.810908,-0.25439178452081235,-0.002100478566005508,0.12896258009485503,0.011457540678069662,nan
1740797098.8148139,-0.12382696102225808,0.787152405714391,-0.5186892520332512,-0.2039161175389405,nan
1740797098.8187199,-0.0025915503282640216,0.6892389633624569,-0.4882057049182529,-0.37174749708644594,nan
1740797098.8226256,0.1284799928946276,-0.14501669985335397,0.01763499482376396,-0.23550710183764367,nan
1740797098.8265316,0.23363905123986267,-0.6839924773549555,0.33425979440142034,0.12322203971732659,nan
1740797098.8304377,0.22942636240874656,-0.28849046845459314,0.1376245031225636,0.3716258549171047,nan
1740797098.8343434,0.1090156529441235,0.527532808195045,-0.2550999998473313,0.3170425638311864,nan
1740797098.8382494,-0.017388373294754112,0.763811275932994,-0.35713806540838866,0.10703263552109314,nan
1740797098.8421552,-0.04931372309479707,0.15704129397838684,-0.09815508300903289,0.0043361219062187095,nan
1740797098.8460627,-0.022004139220659382,-0.5561080477141775,0.1794079155993703,0.051590033686765895,nan
1740797098.8499687,-0.04871405974847739,-0.5996739798893422,0.21431373363733322,0.05971880935757805,nan
1740797098.8538747,-0.14957198003235128,-0.08844851064972568,0.12272886607350082,-0.09253343874581985,nan
1740797098.8577805,-0.20503207052364084,0.2135612408520504,0.14463862064378985,-0.2689401117191863,nan
1740797098.8616865,-0.11035287454122222,-0.07540743347148061,0.24492857283314093,-0.2537683179624641,nan
1740797098.8655922,0.07090113100696026,-0.4781033401937957,0.14522464575697175,-0.05252699340286622,nan
1740797098.8694983,0.16777631780987415,-0.3114247717872496,-0.2471253240204111,0.097067081564664,nan
1740797098.8734043,0.10852815963118488,0.4045720111942808,-0.6073993721349124,0.029692745977682466,nan
1740797098.87731,0.004806483380850855,0.9377278418044774,-0.5174832572005157,-0.12579832485583073,nan
1740797098.881216,0.0016649281562121272,0.7167882428578825,0.023958051422682945,-0.1049943442039652,nan
1740797098.8851218,0.08967178838474836,-0.017150699784570227,0.5450433693978203,0.14909740996814652,nan
1740797098.8890278,0.12426357037050922,-0.5426355879652391,0.592835862666782,0.39550685527636814,nan
1740797098.892935,0.02181837025575729,-0.4910468487755284,0.19753369561544543,0.3722938036873668,nan
1740797098.896841,-0.12924039108142554,-0.15481767636697738,-0.22117218675191325,0.0942344087140805,nan
1740797098.9007468,-0.18376050927717308,-0.0003836687875473942,-0.3461579281899306,-0.186421758400602,nan
1740797098.9046528,-0.11875624209803462,-0.1026021299865457,-0.24058090745497882,-0.2790304683455846,nan
1740797098.9085586,-0.037094290582155985,-0.18825791250043547,-0.12883980579361531,-0.22889097040245945,nan
1740797098.9124646,-0.006902251856256646,-0.09652791557157184,-0.048280496891065755,-0.18097305480891882,nan
1740797098.9163706,0.025478803174672233,0.03494290926192507,0.13902969190543732,-0.15962014155406148,nan
1740797098.9202764,0.12289338420673807,0.06328842553909225,0.4215773148611789,-0.06853211846273091,nan
1740797098.9241824,0.2147596534507481,0.10635144044408955,0.5063804038999166,0.11679460177749877,nan
1740797098.9280882,0.15489688898322712,0.34426608340993287,0.14096063157631122,0.26186176774921793,nan
1740797098.9319942,-0.06747674615498464,0.6394285596660305,-0.48606400010896955,0.23124628458006555,nan
1740797098.9359002,-0.25332985950928977,0.5809123164271487,-0.8219518028271362,0.07641848008843698,nan
1740797098.9398072,-0.19884802040560784,-0.004017698494254392,-0.5054717041740737,-0.017564022637324907,nan
1740797098.943713,0.049397410199884834,-0.7212588530443711,0.214777111903056,0.02974089051370574,nan
1740797098.947619,0.22167103948289496,-0.958069377298324,0.7058711687802549,0.08982118782753454,nan
1740797098.951525,0.132110931952011,-0.5467062338827852,0.5904338355036008,0.004302510003295241,nan
1740797098.9554307,-0.10017786429453808,0.05910699796184324,0.09116502293853414,-0.18594651496407066,nan
1740797098.9593368,-0.19542838732776438,0.3182352466451197,-0.2765513751110658,-0.27419190632100143,nan
1740797098.9632425,-0.0526667678312995,0.19279203710626638,-0.2683100469030518,-0.1522839165263492,nan
1740797098.9671485,0.1347042434300416,0.08822685881988747,-0.08441536350780712,0.04039856638745126,nan
1740797098.9710546,0.12926510156086213,0.26768422199615866,-0.02303964784779886,0.08950398099192662,nan
1740797098.9749603,-0.05146364874004135,0.509616490179605,-0.0997489417849171,-0.01713954700447483,nan
1740797098.9788663,-0.16384501806151472,0.4251311367447815,-0.09626498687203394,-0.07293616801188425,nan
1740797098.982772,-0.053398258671538586,-0.009842212938128743,0.08172736241446248,0.07104752530325734,nan
1740797098.986679,0.14719014336049607,-0.40390570039570556,0.24041803424862207,0.2910354634835417,nan
1740797098.9905849,0.1874823228933229,-0.42727515937027727,0.14815280084335136,0.3237174033412219,nan
1740797098.9944909,0.016709810297138333,-0.1877822676104957,-0.1344267347937401,0.09034800318672018,nan
1740797098.9983966,-0.15494470619545603,-0.04274510577102673,-0.2893067331956437,-0.19547100418444402,nan
1740797099.0023026,-0.12439955680074447,-0.12972590538581205,-0.11840517561917968,-0.27449909469887523,nan
1740797099.0062087,0.05142694623179618,-0.23196309411208182,0.2031847053571412,-0.13640023207476965,nan
1740797099.0101144,0.13544319504583924,-0.11271660447257185,0.32125947780334885,-0.0021192149778264287,nan
1740797099.0140204,0.013583782019390887,0.16272760163101258,0.11662389051309636,-0.032942747887651065,nan
1740797099.0179262,-0.1645995360741983,0.3361427466544733,-0.1603947781803217,-0.14065726845349844,nan
1740797099.0218322,-0.17671139825133264,0.3061958026307455,-0.19512404498575114,-0.12525660725811577,nan
1740797099.0257382,0.0006160815247282415,0.22224696974979222,0.017052206926260208,0.05655720021405877,nan
1740797099.029644,0.17547066225936456,0.21691730491747585,0.17428546568464032,0.23863268862015732,nan
1740797099.0335524,0.1802172019832371,0.18927984946479323,0.038453851770670816,0.2572841718313769,nan
1740797099.0374582,0.054225434082413135,-0.03272936304039209,-0.2719933695505649,0.13850684982284334,nan
1740797099.0413642,-0.042450914668714125,-0.3806114432256165,-0.40738964196128497,0.028615524046744896,nan
1740797099.0452702,-0.041477867211392176,-0.5537550447919851,-0.1764187790288998,-0.010970709081199527,nan
1740797099.049176,-0.022104101244976675,-0.3828581543580903,0.24665951939937847,-0.05696103624690045,nan
1740797099.053082,-0.06306392543110785,-0.06572211023086758,0.5113411440166628,-0.16736042221176406,nan
1740797099.0569878,-0.11657015215165496,0.07226386116939004,0.4384937387551592,-0.254949052484807,nan
1740797099.0608938,-0.07982078247863324,0.0007065253275793536,0.14593343073081788,-0.18703102561979676,nan
1740797099.0647998,0.0455346774856549,0.01768611418535307,-0.1345856724773584,0.016555150530434395,nan
1740797099.0687056,0.13645793481830387,0.31788711542176645,-0.2902954850556368,0.16974934058770988,nan
1740797099.0726116,0.10237711467093354,0.6587827448932478,-0.3522402336203739,0.13597205628694464,nan
1740797099.0765173,-0.0007458001850677638,0.6031920870026661,-0.34920286216317603,0.0008683004107886618,nan
1740797099.0804255,-0.05164753470237517,0.07354358532210259,-0.22832097914416163,-0.03379489837734648,nan
1740797099.0843315,-0.025210887461774165,-0.48859788780637714,0.0447557042629282,0.08832866472771368,nan
1740797099.0882373,-0.008936832902220701,-0.5984361667489393,0.3550592538194697,0.1979802673197018,nan
1740797099.0921433,-0.05446820497364829,-0.27490772953336834,0.4823229402271503,0.1146754057491587,nan
1740797099.096049,-0.08193532832450856,0.015278957103898642,0.30856523094912713,-0.1122091340637791,nan
1740797099.099955,0.010559927808787659,-0.0552533487501872,-0.038565509641263505,-0.2471865001985749,nan
1740797099.103861,0.17131610436678524,-0.2889931180861788,-0.282787466320717,-0.15048085106384093,nan
1740797099.1077669,0.21026567599785698,-0.24907632619020095,-0.2509967421376614,0.052892460034221746,nan
1740797099.1116729,0.024653786622074264,0.16225785918225435,-0.02529528075152091,0.12733736701852827,nan
1740797099.1155787,-0.23943749753612853,0.5649887192654077,0.15061634606017835,0.009443703832117359,nan
1740797099.1194847,-0.3165086582404135,0.5625770406009292,0.10362418679433213,-0.13002919095608212,nan
1740797099.1233907,-0.11422549327651853,0.21096722101097104,-0.12498440787534927,-0.10906377732654625,nan
1740797099.1272984,0.17528035891769456,-0.08051491191433344,-0.3346987574317187,0.0470081475087671,nan
1740797099.1312044,0.28306049354171287,-0.0625903276055188,-0.33537172407411814,0.15660103848139348,nan
1740797099.1351104,0.1470088143486414,0.07723423268592262,-0.07819979753497529,0.11599881626384102,nan
1740797099.1390162,-0.05343747950870133,-0.00992231984272937,0.32173150584792404,0.01049350685611828,nan
1740797099.1429222,-0.12575572652650044,-0.3830991214700126,0.6444159381566685,-0.021959959568763496,nan
1740797099.146828,-0.06367305011172329,-0.7305913113391043,0.6667841916074645,0.025755979390955055,nan
1740797099.150734,0.0035460088203636136,-0.7057939556431433,0.29152197683459163,0.04174584833674471,nan
1740797099.15464,0.0027759178709564733,-0.25120586132801126,-0.3451073297641438,-0.031855217054909055,nan
1740797099.1585457,-0.013539216491606306,0.40328412025414995,-0.8902249536029635,-0.11245786592775124,nan
1740797099.1624517,0.01530673167488919,0.94112818557283,-0.9760921809864004,-0.0952366241657412,nan
1740797099.1663575,0.04902075285906699,1.0940714583662774,-0.4981477220191337,-0.007401804130419814,nan
1740797099.1702635,0.009059405076781091,0.7045083857456517,0.26798088055862984,0.02167724352303608,nan
1740797099.1741714,-0.08339598787619633,-0.13888554349876553,0.8517058877502796,-0.05773842603375146,nan
1740797099.1780772,-0.10818404371571994,-0.9810407055870054,0.9395670813389273,-0.12877985203434916,nan
1740797099.1819832,-0.005351642882219329,-1.2022684780434694,0.5809078238344179,-0.04659009335659714,nan
1740797099.185889,0.12342979314894874,-0.5603316163848353,0.06999738030462975,0.16485985034603762,nan
1740797099.189795,0.12808336644518048,0.44903723026452297,-0.34429067349025244,0.31259604018798637,nan
1740797099.193701,0.0049838109218757285,0.9435932856351001,-0.60696643777413,0.2435233167719688,nan
1740797099.1976068,-0.0876310248504089,0.5036009254695,-0.7412060534777968,0.013032932019032556,nan
1740797099.2015128,-0.030602818851418027,-0.37127365464728174,-0.6737429876273374,-0.18375985297818925,nan
1740797099.2054186,0.09396530204339905,-0.769215214813404,-0.27586816649080265,-0.22267752195075624,nan
1740797099.2093246,0.10010374978866762,-0.333221380533128,0.3944213879919157,-0.1494254104541987,nan
1740797099.2132306,-0.05814184570290646,0.39246377509754865,0.9683404453393804,-0.0759324113312465,nan
1740797099.2171364,-0.2111736182877119,0.6289306031557038,1.0033717535894193,-0.03744353498115554,nan
1740797099.221044,-0.17558598533977418,0.2487010219445303,0.40862451862736165,0.007926136354856604,nan
1740797099.2249498,0.016526923699628795,-0.162495045145172,-0.394758951177215,0.07134013815948485,nan
1740797099.2288558,0.15515793412622028,-0.09857275224067731,-0.8084543062632935,0.09491122323631146,nan
1740797099.2327616,0.11325210551945442,0.23156690389862444,-0.5925314138319746,0.04369874524204583,nan
1740797099.2366676,-0.002259756394255923,0.2182195525063978,-0.062477417847944354,-0.013103664976765383,nan
1740797099.2405734,-0.004372965462020353,-0.3025636832577458,0.25507703994247416,0.028957224888559167,nan
1740797099.2444794,0.11490275177858705,-0.7682531675052131,0.14335635928483087,0.16103468553025033,nan
1740797099.2483854,0.1624641558633763,-0.56312779703016,-0.14483834443542812,0.23335555095690066,nan
1740797099.2522912,-0.0004132571710517009,0.18200780643998068,-0.21803124270925237,0.11136996070353991,nan
1740797099.2561972,-0.24906051568887805,0.6815361583868629,0.028122315031610213,-0.15824286235644303,nan
1740797099.260103,-0.313386015188487,0.40691039487830594,0.34526083612689257,-0.37326697767116995,nan
1740797099.264009,-0.09640721518716253,-0.2742698366744638,0.4427192650986774,-0.3709915727989763,nan
1740797099.2679162,0.19355424788431158,-0.5126850074307661,0.2818878081521474,-0.17393830309855848,nan
1740797099.2718222,0.26679194297362346,0.03639439911662727,0.041414501841868866,0.06210507994636515,nan
1740797099.2757282,0.07300843674820899,0.8089249535441339,-0.1364453889867233,0.21072073771367408,nan
1740797099.279634,-0.154198122266943,0.9575204652162496,-0.2720683408377958,0.2567905703088006,nan
1740797099.28354,-0.1694970622287389,0.260100720778365,-0.41518901683931925,0.23998321976394954,nan
1740797099.2874458,0.020777569172804194,-0.6950975837321879,-0.47851583617805843,0.17551168531569108,nan
1740797099.2913518,0.19462655490968803,-1.1592269400320248,-0.3016338849515989,0.060448828550645234,nan
1740797099.2952578,0.1758869574469729,-0.9101477730767896,0.11358103006988464,-0.07254540707628314,nan
1740797099.2991636,0.006807114072615808,-0.2876595971072813,0.510628989091934,-0.15847359766637853,nan
1740797099.3030696,-0.13729363562182695,0.27573900784487054,0.5921763658027882,-0.16728342365537463,nan
1740797099.3069754,-0.14927662503973801,0.5996160296032861,0.32245295214225245,-0.1365651109882816,nan
1740797099.3108814,-0.07044513122678107,0.6940613212314203,-0.032610180293973466,-0.11606305061951104,nan
1740797099.3147883,-0.0011041844108748778,0.5751916772787085,-0.18619706211319925,-0.09979573829234846,nan
1740797099.3186944,0.012667773480484429,0.2732914583296528,-0.11843897867658336,-0.043337684966900554,nan
1740797099.3226001,-0.005511341231162986,-0.061960053398683226,-0.051129647751671184,0.05867831917163262,nan
1740797099.3265061,-0.01383296539909551,-0.23292181347901408,-0.155107901957288,0.14998986121657304,nan
1740797099.3304121,0.014954687826039745,-0.211326703854031,-0.33843712138076615,0.18172144382910488,nan
1740797099.334318,0.0872563337163148,-0.18193835362902175,-0.3544464699668412,0.17098916248509213,nan
1740797099.338224,0.16833312842943338,-0.29605630515655956,-0.0933716695936071,0.15561737774236226,nan
1740797099.3421297,0.1711654978423304,-0.44712657930798555,0.27747633629709967,0.10960197110223968,nan
1740797099.3460357,0.023346181653562604,-0.39605274063987156,0.47230578279735325,-0.036007996166740906,nan
1740797099.3499417,-0.21606434855390344,-0.10145101898555266,0.35983492299563824,-0.26155851412898234,nan
1740797099.3538475,-0.3440712936127336,0.2024608283254352,0.06685243526339162,-0.39801189250904834,nan
1740797099.3577535,-0.19373308958843272,0.313690125075046,-0.16431273823877926,-0.27336284901755376,nan
1740797099.3616602,0.14980752132011438,0.3364345853902761,-0.19252304914455284,0.06443840278159581,nan
1740797099.3655663,0.37049522240122124,0.5032752075195961,-0.06569172571643406,0.33117145368925927,nan
1740797099.369472,0.22718360221972086,0.7480760266794676,0.059752681952513854,0.2760352500870432,nan
1740797099.373378,-0.16172419955026907,0.6478949416072446,0.0598090188116916,-0.03670824346517172,nan
1740797099.3772838,-0.3999696316525517,-0.06927680094641157,-0.07055489116046858,-0.2700405439161019,nan
1740797099.3811898,-0.22052624216452438,-1.037384555003677,-0.22430934575810174,-0.16640573437651596,nan
1740797099.3850958,0.21432099975006302,-1.4716908638890736,-0.26331398151493185,0.17232139920364067,nan
1740797099.3890016,0.46796627369883453,-0.9608991760520084,-0.1253425922160991,0.3950032298251918,nan
1740797099.3929076,0.2868311226031644,0.06003703458853279,0.11561803309029775,0.27835692967583314,nan
1740797099.3968134,-0.13956223577642643,0.7466028924206647,0.2991544657992591,-0.053149824024084025,nan
1740797099.4007194,-0.39593848331420745,0.7178816817776549,0.31447006198075983,-0.29410585153806773,nan
1740797099.4046254,-0.28004938859379713,0.36341376857366786,0.19539076008127387,-0.29133123869953476,nan
1740797099.4085338,0.02353454307375661,0.2621886368980861,0.06525950166718097,-0.15723398110735384,nan
1740797099.4124398,0.1928646934863542,0.4589507116468435,-0.013869244046321299,-0.07256711042061435,nan
1740797099.4163456,0.11964409018656387,0.4782497063569939,-0.10356456546880168,-0.059262023746405317,nan
1740797099.4202516,-0.031586590967073336,0.007942999746736326,-0.2689862943167929,-0.00043517248410132435,nan
1740797099.4241574,-0.06909217437142606,-0.6448641084807907,-0.42006978411984935,0.15529349136328865,nan
1740797099.4280634,0.007704876886783805,-0.8994715613360782,-0.34742139544138667,0.29465230159310235,nan
1740797099.4319694,0.06145414974852029,-0.5895320261339027,0.02879209661085021,0.274150798112486,nan
1740797099.4358752,0.024060685706495628,-0.11862800897636523,0.47389798521075654,0.10204871673661467,nan
1740797099.4397812,-0.026236207067137415,0.08110069486500578,0.5901304259604515,-0.07177100630334379,nan
1740797099.443687,0.004440993821510782,0.05956668449857106,0.21423940518121526,-0.13646802162781574,nan
1740797099.447593,0.08567302950532313,0.17817781548936518,-0.35515138755566145,-0.13055849401379274,nan
1740797099.4514987,0.10145520747009973,0.5262067445369276,-0.5942240079468974,-0.14806907118448007,nan
1740797099.4554071,0.002950992433979734,0.7338143050135144,-0.26001355239015084,-0.18454086518853172,nan
1740797099.459313,-0.13228460913261256,0.45024283113489505,0.34995947156932616,-0.14069876472399856,nan
1740797099.463219,-0.19935086780695496,-0.1456376902697339,0.670577711707808,0.02116283184734561,nan
1740797099.4671247,-0.1748029681697444,-0.5015798358366707,0.4078713912312307,0.18758599194197237,nan
1740797099.4710307,-0.0956977216163664,-0.3479877893899768,-0.1982639721005799,0.20741577965279984,nan
1740797099.4749367,0.02880432521426099,-0.0188702621634562,-0.6307641833566237,0.07373945993037687,nan
1740797099.4788425,0.21363073192891666,-0.01541644550086229,-0.5804505055856842,-0.05898922381411929,nan
1740797099.4827485,0.39364543940469454,-0.36034174724079326,-0.17422640556575045,-0.050755757776488504,nan
1740797099.4866543,0.39571699264824506,-0.5655142662111617,0.22322050009785185,0.06916993186757238,nan
1740797099.4905603,0.09899060442178578,-0.2546614986023982,0.3660405261775405,0.15026950661800165,nan
1740797099.4944663,-0.3671517172630345,0.35048978867017194,0.2801708664171214,0.09762185333304954,nan
1740797099.498372,-0.6528128525976445,0.6908666343450244,0.13382664394350857,-0.04221438796168405,nan
1740797099.50228,-0.48613245827238283,0.5334940634590077,0.038346759801220945,-0.16653158285632913,nan
1740797099.506186,0.04310726026046068,0.1961205245665457,-0.009613651965192217,-0.23141461551881437,nan
1740797099.510092,0.5275331030674001,0.077154039315716,-0.04936178920210361,-0.24546884493066393,nan
1740797099.5139978,0.59600491378458,0.13158623092137914,-0.08470225305066686,-0.18707880584961878,nan
1740797099.5179038,0.23286167522084755,-0.017648105526960247,-0.09701177518859201,-0.004400902112062682,nan
1740797099.5218096,-0.23974559803386705,-0.49126585903941056,-0.0884389442358556,0.27341112524195227,nan
1740797099.5257156,-0.46719670435929306,-0.8825252343198491,-0.08111842257581448,0.47592528326365025,nan
1740797099.5296214,-0.3405014090076326,-0.6972230236766658,-0.08175939621038268,0.41439618341281714,nan
1740797099.5335274,-0.015554087771888462,0.021979992148421664,-0.07002606926290386,0.0847928330216523,nan
1740797099.5374334,0.2700938107385389,0.6732054697148562,-0.02536757746963324,-0.2873593528231156,nan
1740797099.5413392,0.3680521803903953,0.7288303679027978,0.04858758278831589,-0.43845457551197886,nan
1740797099.5452452,0.2581126612438699,0.2796727584108287,0.12958953637297627,-0.3007691320679485,nan
1740797099.5491529,0.007051712366442795,-0.1311629415365766,0.1916210588612259,-0.035489935750155015,nan
1740797099.5530586,-0.26508340230346095,-0.14283084900234308,0.20572923025894493,0.14738467576341685,nan
1740797099.5569646,-0.4115940253053109,0.08266478832212079,0.14340920758506517,0.16917265641418397,nan
1740797099.5608706,-0.3262593825247421,0.15490454117174998,0.005204941559030883,0.09093755743238079,nan
1740797099.5647764,-0.03244702245305414,-0.05006323067925717,-0.15173107130163382,0.0009612383512918873,nan
1740797099.5686824,0.29810559735220665,-0.2958717188265981,-0.23940624773801403,-0.05729889411567827,nan
1740797099.5725882,0.44945948262280777,-0.32680580373937307,-0.21365546737112961,-0.06561165144117134,nan
1740797099.5764942,0.3197026308395324,-0.15807801307671898,-0.11815586551475812,-0.0087894642024568,nan
1740797099.5804002,0.0006239192388966888,0.015596503849257435,-0.03720246411449867,0.09052345757505044,nan
1740797099.584306,-0.2888260798544937,0.09039099562254992,-0.004759861620705522,0.14980056644207426,nan
1740797099.588212,-0.36064500614517525,0.12022840165743576,0.02214445190358735,0.09651525078161088,nan
1740797099.5921178,-0.18776832733931012,0.14965146845752897,0.09388851643791576,-0.034322454352687125,nan
1740797099.5960252,0.0833921468370775,0.11760622050051302,0.19265166117544025,-0.11939933139273187,nan
1740797099.5999312,0.2437139041052209,-0.010843419265036508,0.24718665128738268,-0.09242812799413637,nan
1740797099.6038373,0.17980107873598627,-0.10880547685877118,0.21358406459643003,-0.03564739691491454,nan
1740797099.607743,-0.03561489561076421,-0.008158235117175535,0.11236892907038248,-0.0734183559777562,nan
1740797099.611649,-0.20155233405804404,0.24269369559174364,-0.019283017901883127,-0.1812538697220427,nan
1740797099.6155548,-0.16194564185539645,0.3549651188845076,-0.175269758901231,-0.17177809244258568,nan
1740797099.6194608,0.051557337069119955,0.11149276793765803,-0.3440910424135643,0.07631483711626348,nan
1740797099.6233668,0.24485482082350202,-0.3436108360064081,-0.44168438963741025,0.40835603031887724,nan
1740797099.6272726,0.239761650964348,-0.6176748555502791,-0.34403373839931933,0.49589261504552296,nan
1740797099.6311786,0.03515463585459198,-0.4794674108746401,-0.03028954242123665,0.18735908983301194,nan
1740797099.6350844,-0.20385415993318384,-0.08475938930205627,0.33027020169185534,-0.2859944157958789,nan
1740797099.6389904,-0.30305408564658537,0.23675423947729413,0.4942634384577121,-0.5155181208942279,nan
1740797099.6428976,-0.21327421126848914,0.34423191136509723,0.373930446956568,-0.3292436555718576,nan
1740797099.6468036,-0.006666637567504394,0.35145374214617625,0.12390668569717417,0.044646461091092216,nan
1740797099.6507094,0.209354995535428,0.3669564873950518,-0.0313436550191704,0.24449017413624854,nan
1740797099.6546154,0.340112284757188,0.3065038172064098,-0.03930015578818425,0.15818320297494323,nan
1740797099.6585214,0.30112556764033177,0.04558105999270629,-0.04602863326907149,-0.009784690744631471,nan
1740797099.6624272,0.0551262769013747,-0.31716888988948105,-0.179409425970612,-0.029236347697611405,nan
1740797099.6663332,-0.2957433390090586,-0.491579873099177,-0.36197030774814853,0.08212992273284062,nan
1740797099.670239,-0.5001627332179553,-0.3313479417661733,-0.3913345746174616,0.12235318616513692,nan
1740797099.674145,-0.34292718147665757,-0.04089736081159256,-0.1886582407954251,-0.008265172990922295,nan
1740797099.678051,0.10673497571140553,0.05111080781284323,0.0995655435054336,-0.1741288845822379,nan
1740797099.6819568,0.4811627424724107,-0.10257873115329676,0.27374014124878043,-0.18136208989914013,nan
1740797099.6858628,0.43738094666138844,-0.19868900524275565,0.3015957547804884,-0.022357094241211663,nan
1740797099.6897697,0.02128478179821782,0.03629221455238182,0.3014842351088114,0.1242089101187653,nan
1740797099.6936758,-0.34499762495927255,0.4750117849366998,0.3225928287169486,0.12225108149756331,nan
1740797099.6975815,-0.29431118243523374,0.693953962060272,0.2379137231620894,0.032173934831046205,nan
1740797099.7014875,0.084085980726008,0.4417634666038481,-0.07455371620440726,0.0012473177023730301,nan
1740797099.7053933,0.33485352514707806,-0.08378478334292361,-0.4853904417313428,0.05256217596145064,nan
1740797099.7092993,0.14485023137984937,-0.46408722525940566,-0.6569139327157832,0.05842402181562537,nan
1740797099.7132053,-0.29443889670096185,-0.49792159461246666,-0.38937934216759,-0.07005628336579213,nan
1740797099.717111,-0.4895976938008623,-0.3361827723339129,0.12115813921495389,-0.23447062162004453,nan
1740797099.7210171,-0.19297416895699362,-0.21106657324475062,0.44597753296603315,-0.2457192324722906,nan
1740797099.724923,0.32151842803421427,-0.14682411482972277,0.35470774349041334,-0.05052465860832029,nan
1740797099.728829,0.5579743826155505,-0.002656709493855363,0.03319581978694164,0.19496099231048042,nan
1740797099.732735,0.3213901493565583,0.26332850116889917,-0.15122342202609662,0.2929303091110083,nan
1740797099.7366416,-0.11867142001430692,0.48604334423415074,-0.051451460748452006,0.204230285651066,nan
1740797099.7405477,-0.36314949111210065,0.4753303215074655,0.1489164213201549,0.05006111197339966,nan
1740797099.7444534,-0.2916998021564305,0.23450202613808105,0.200125497026328,-0.054145905484764244,nan
1740797099.7483594,-0.09435267180763451,-0.058469017127694145,0.06824280599067366,-0.10654941516329625,nan
1740797099.7522652,0.028941105387774547,-0.2500453834550656,-0.0920039657899143,-0.15322821375600856,nan
1740797099.7561712,0.08193115372001346,-0.32150197788816814,-0.17511004154504833,-0.17782521104946802,nan
1740797099.7600772,0.16160419056376485,-0.31033321632529004,-0.22483052872507564,-0.11864905817335261,nan
1740797099.763983,0.23843234564428492,-0.21452875426016424,-0.28197289417698257,0.01577943582809491,nan
1740797099.767889,0.16441078321006508,-0.03653164936190342,-0.2412853730423551,0.11588833260847474,nan
1740797099.7717948,-0.09576321364800336,0.12883248238283346,0.027962236501066107,0.09490764532718429,nan
1740797099.7757008,-0.34229223101548545,0.1516779519771436,0.4305981169166163,0.010465470951661556,nan
1740797099.7796066,-0.32852153130028416,0.037691920140984825,0.6319731298395109,0.005324157717380677,nan
1740797099.7835152,-0.047340647766527834,-0.03316755988464941,0.38283570152729707,0.12010503781965343,nan
1740797099.787421,0.24439165024165607,0.09120001296522959,-0.1694767711015315,0.21552004683597017,nan
1740797099.791327,0.3041335380198797,0.3190467569832584,-0.57696371866002,0.12391758211548506,nan
1740797099.7952328,0.14971904114403653,0.37983828859380053,-0.5248940676885566,-0.13688007842162683,nan
1740797099.7991388,-0.011782531023606749,0.1291764742339072,-0.1271537315632826,-0.34861701301691855,nan
1740797099.8030448,-0.054337712234780844,-0.26729871190710425,0.23523470825101506,-0.31082247039076855,nan
1740797099.8069506,-0.05127403257566485,-0.5011996171526,0.3180411857206531,-0.05107540681388071,nan
1740797099.8108566,-0.11553731431280527,-0.43799963695139843,0.19391392100783908,0.2051279195778064,nan
1740797099.8147624,-0.20645210649378334,-0.20555506748101593,0.05985967211364546,0.26185495789288377,nan
1740797099.8186684,-0.17538143534912273,0.014398198823493904,-0.01987371108147081,0.12502506433121743,nan
1740797099.8225744,0.014803817150919026,0.18336834911077676,-0.10866563101777925,-0.044690153867977526,nan
1740797099.8264802,0.20415656750303288,0.3406213390082689,-0.20329040645537402,-0.11004107803523275,nan
1740797099.8303883,0.21489670568384325,0.42236465204323503,-0.18020557111629146,-0.0642197400528871,nan
1740797099.8342943,0.06901318193609332,0.28547385125758407,0.016560345129365148,0.012861397374927806,nan
1740797099.8382,-0.041604114192512524,-0.05486316333185842,0.22488717297603295,0.055626361361502466,nan
1740797099.842106,0.0013650405708189376,-0.3264743072444763,0.21431542439683068,0.05508164194208654,nan
1740797099.8460119,0.09722943350526873,-0.2637328924948309,-0.0170544983687038,0.03219460644954446,nan
1740797099.849918,0.0629121724969632,0.04549310101530635,-0.19976851359089773,0.004511243485263742,nan
1740797099.8538237,-0.12644623866160307,0.20304894284139058,-0.10926505947031012,-0.02179326508939643,nan
1740797099.8577297,-0.2959696907687236,-0.03851331053951173,0.1386906088910319,-0.05036122324781061,nan
1740797099.8616357,-0.2695468297377178,-0.4328987830245697,0.21274594856362894,-0.09048265501485506,nan
1740797099.8655415,-0.05488166094960915,-0.4778513597059415,-0.01203158563122539,-0.1350062126375407,nan
1740797099.8694475,0.19084265826951413,-0.005569040423972701,-0.26779541188554246,-0.13555167164360704,nan
1740797099.8733532,0.32717247994969073,0.5720931227554288,-0.21295867526745466,-0.029339759963081084,nan
1740797099.8772612,0.30935659128789417,0.6882751254248246,0.11861054598256157,0.17434608282599642,nan
1740797099.8811672,0.14101708504785926,0.24279176599527272,0.3192476740792493,0.34344763433535835,nan
1740797099.885073,-0.14479264387352328,-0.29909873348953625,0.10205037249950231,0.3104621989099038,nan
1740797099.888979,-0.4127532022975908,-0.4335205489292667,-0.3076882113754067,0.04838294811866377,nan
1740797099.892885,-0.42576259420097595,-0.14381272730624148,-0.3990187890028614,-0.2582736343112062,nan
1740797099.8967907,-0.057638209340047306,0.16085895671120667,0.010986088938474742,-0.3652762576128585,nan
1740797099.9006968,0.46583828892327966,0.15460694252979476,0.5121598497515314,-0.2089748769967494,nan
1740797099.9046025,0.656955763679859,-0.08342978402194157,0.5370476554304678,0.030699439846835777,nan
1740797099.9085085,0.23080118735076124,-0.25967196572890233,0.013305620661279091,0.12897812229166167,nan
1740797099.9124146,-0.5147412642733159,-0.23829832620912803,-0.5307156900986774,0.05635761106308316,nan
1740797099.9163203,-0.8948227194441231,-0.11173404759674847,-0.541526339089669,-0.01762079325182544,nan
1740797099.9202263,-0.5017028815003529,0.032201227611850916,-0.04012530958367088,0.04466340120802423,nan
1740797099.924134,0.34877443664084545,0.23618751557700243,0.4271087719691947,0.16957758766229716,nan
1740797099.92804,0.9041867612914126,0.49609416987427246,0.39957110480059843,0.16689957639057534,nan
1740797099.9319458,0.7173329759114975,0.5877213640255212,-0.032372075603690306,-0.01978735095037315,nan
1740797099.9358518,0.04928100490096488,0.25356076379038617,-0.39296769660015063,-0.22088637234102448,nan
1740797099.9397578,-0.47556538145515304,-0.40899135745116844,-0.3573943019980687,-0.2262058884469536,nan
1740797099.9436636,-0.5279146616388654,-0.8895395270385983,-0.03264900566014012,-0.025635034919410205,nan
1740797099.9475696,-0.30070529962321785,-0.7306665437820291,0.25909160022757693,0.18116912404036647,nan
1740797099.9514754,-0.1281526200557118,-0.03809591689849812,0.34566903447715613,0.20687889544339005,nan
1740797099.9553814,-0.048174114068516266,0.5794130010831418,0.2862562548363362,0.06063098242757019,nan
1740797099.9592874,0.13981137237157676,0.6193646934223965,0.17252189778034513,-0.10288357832227642,nan
1740797099.9631932,0.45761526190063007,0.17355227998915176,-0.007785841182080208,-0.16840242954767956,nan
1740797099.9670992,0.5867806591846183,-0.23552014976232305,-0.26744957751234216,-0.14341030971210367,nan
1740797099.9710066,0.2356414469630427,-0.2410521421962877,-0.4785454782923137,-0.07893740275691422,nan
1740797099.9749124,-0.4123176479166411,0.03844731438318654,-0.4504684720848494,0.014407578976784375,nan
1740797099.9788184,-0.7796228889295539,0.23560665820606105,-0.15808547542247675,0.13122604974976496,nan
1740797099.9827242,-0.4876408921451805,0.16855992150527385,0.188047000312768,0.20329514544025876,nan
1740797099.9866302,0.20727452922927436,-0.04159834864608083,0.3503229978865127,0.14793303223316087,nan
1740797099.9905362,0.6580837001500197,-0.20463527304365775,0.30627718364348716,-0.0044322094427507435,nan
1740797099.994442,0.4930263927814845,-0.2630837361388531,0.2259406813188573,-0.10062268436974951,nan
1740797099.998348,-0.03745391214382136,-0.2364046901012943,0.22248817798211612,-0.03957461322556859,nan
1740797100.0022538,-0.38820439752977176,-0.10132757340229279,0.2020267340512405,0.07500799299648796,nan
1740797100.0061598,-0.30556536738201073,0.14535239613255332,0.004973497606582641,0.035892515156380686,nan
1740797100.0100658,-0.013943743087211998,0.35154060243845414,-0.34576948150223735,-0.19376486087780442,nan
1740797100.0139716,0.1326154441489441,0.29762316073700645,-0.6101152009587723,-0.37795359882223745,nan
1740797100.017879,0.05667883401592185,-0.013730472372184846,-0.5608253197207923,-0.25298668020905096,nan
1740797100.0217848,-0.04117602564041762,-0.26446959575666584,-0.20907838704621035,0.14039650190884043,nan
1740797100.0256908,-0.002734339413016196,-0.15308437817626006,0.21989896738321998,0.45260761033350605,nan
1740797100.0295966,0.09286822907829372,0.2013677804824728,0.49906182018603,0.3945583382841623,nan
1740797100.0335026,0.07920383402932278,0.33622538031274196,0.5483684205481616,0.06149924445668355,nan
1740797100.0374086,-0.0467961366424008,0.00028638733995590374,0.4048699375791567,-0.18066596345369434,nan
1740797100.0413144,-0.1168367441496207,-0.47577437166924336,0.13371574869897798,-0.12058103380710222,nan
1740797100.0452204,-0.02144720947999446,-0.5167934721853532,-0.18166012770669998,0.0692975874864956,nan
1740797100.0491261,0.13571713255636117,-0.005495720341061461,-0.40962122268247253,0.07097734796571442,nan
1740797100.0530322,0.15784677969710986,0.5148556555030979,-0.4242366726909782,-0.17282938337104523,nan
1740797100.0569382,-0.008963400950240842,0.44935682713428576,-0.22821198740128257,-0.3842884676008076,nan
1740797100.060844,-0.21251490847986707,-0.12551672173810355,0.01768520091637825,-0.29060413788242134,nan
1740797100.064751,-0.2615886977819781,-0.5197975604882895,0.13778045735431707,0.04784343365470169,nan
1740797100.068657,-0.11212927788336359,-0.24034033335620494,0.11118322391177422,0.3170463887421392,nan
1740797100.0725627,0.11966001477327808,0.4099847579827764,0.06523168974502964,0.316586216476358,nan
1740797100.0764687,0.28047385317511636,0.6778674096164014,0.10034009186114455,0.1533821318672916,nan
1740797100.0803747,0.2807559578187984,0.24192585660163685,0.16568798518218186,0.050181026379867905,nan
1740797100.0842805,0.11342730525767042,-0.4267044566053889,0.13745028445110202,0.051748829539561225,nan
1740797100.0881865,-0.14835610368637026,-0.6387001879709457,-0.010005683358973077,0.012402709508768206,nan
1740797100.0920923,-0.34988636620255725,-0.27419464880165,-0.16180206500944025,-0.14980313661677988,nan
1740797100.0959983,-0.32013237161911284,0.15808942483352428,-0.1937698187429358,-0.30054075942377606,nan
1740797100.0999043,-0.024138743486915366,0.19779296644121788,-0.10084708662057619,-0.25325121432822617,nan
1740797100.10381,0.3388963415396532,-0.03653729881788563,0.02709517461916198,-0.026107908449988438,nan
1740797100.107716,0.4566550822328938,-0.09440349158931734,0.11536097644523953,0.16104133774031548,nan
1740797100.1116228,0.1880495500630183,0.1679388577546373,0.14027957795576432,0.15283832413234597,nan
1740797100.1155288,-0.269036572008817,0.40635621238092406,0.07917373529887763,0.03690580445160415,nan
1740797100.1194348,-0.5306363706791084,0.27031734275262814,-0.08825117447436867,0.003023679514163982,nan
1740797100.1233406,-0.37272868080609245,-0.11848104463402537,-0.28464234612683387,0.08117709171568945,nan
1740797100.1272466,0.07062266639786073,-0.32231313676851875,-0.30976475874456244,0.11551170180374543,nan
1740797100.1311524,0.4429413425292296,-0.15629108190003965,-0.02386624885328296,0.0037473450815252224,nan
1740797100.1350584,0.4785329787231377,0.08564265322143008,0.4181261826084849,-0.13691439924150245,nan
1740797100.1389644,0.19161073804381298,0.03386546842947224,0.6122879432848525,-0.11933607532812224,nan
1740797100.1428702,-0.18632151642220823,-0.26484674588659385,0.2937914530775407,0.045251230982449424,nan
1740797100.1467762,-0.4014941978256668,-0.40445708403358693,-0.32193242871991046,0.13792901679779307,nan
1740797100.150682,-0.3317119160038822,-0.13549676824938467,-0.6817700567101788,0.01858281930438422,nan
1740797100.154588,-0.03780322507712062,0.3286954477487041,-0.44430270448802994,-0.17007534616636383,nan
1740797100.1584964,0.27114073246040565,0.5760992012110087,0.148230077798449,-0.17449303195411794,nan
1740797100.1624024,0.35741441438941557,0.4517277282587531,0.5142677563030142,0.02817196384273972,nan
1740797100.1663082,0.1349694248231733,0.13878402323414016,0.3437373602555346,0.17773714326286197,nan
1740797100.1702142,-0.221775464866155,-0.14551358220107408,-0.10497630778722103,0.06611188521299433,nan
1740797100.1741202,-0.394420346152682,-0.35889374038830363,-0.3406429744923456,-0.16600563156272663,nan
1740797100.178026,-0.21548345486151968,-0.4973636097768098,-0.19038233579232183,-0.18168488723497955,nan
1740797100.181932,0.14673889050050673,-0.4266042058983286,0.07597608290085668,0.11288381747533804,nan
1740797100.1858377,0.34717988050151793,-0.04208640233117894,0.14331868957791752,0.4046398374723592,nan
1740797100.1897438,0.22816554978526155,0.4351691706903144,0.03458957431779913,0.3282888302143416,nan
1740797100.1936498,-0.01974789435124558,0.5454619155783106,0.008741196583548059,-0.07971189942508948,nan
1740797100.1975555,-0.10166552654030586,0.11212784353039483,0.15270583645296887,-0.401343974282719,nan
1740797100.2014616,0.017592422085257926,-0.4319401730987091,0.23655923868419076,-0.32597613718188767,nan
1740797100.2053697,0.08248154720375105,-0.44385162440615894,0.03420632001743219,-0.009302270169770206,nan
1740797100.2092757,-0.09832823890502075,0.1672785379323744,-0.32183455079718887,0.14244040258708895,nan
1740797100.2131815,-0.3584312825541339,0.7441196887809463,-0.44722599387018025,-0.012744620357521236,nan
1740797100.2170875,-0.3434810913113397,0.5843625219827289,-0.17078369343488287,-0.18982157775021014,nan
1740797100.2209933,0.032377149085930916,-0.2317468696733752,0.23066515674006302,-0.0661653663723886,nan
1740797100.2248993,0.41836188886648285,-0.8887934642251818,0.3444202890305375,0.28074442838315483,nan
1740797100.2288053,0.4031560718352209,-0.7391086043915251,0.10526141432582141,0.4505545758833302,nan
1740797100.232711,0.010735066111100188,-0.004144283815109503,-0.1496370868597056,0.2162157392979256,nan
1740797100.236617,-0.2992141422814891,0.5387011323770061,-0.11415965298334693,-0.18935938455728915,nan
1740797100.2405229,-0.16313184479003742,0.46165940475831274,0.11919363191768848,-0.35355907573005535,nan
1740797100.2444289,0.24593735102292447,0.07845853098171313,0.21334094613582952,-0.17039330625730437,nan
1740797100.248335,0.40916129425579834,-0.08021959746569117,0.03987647566986329,0.07261903182161455,nan
1740797100.2522426,0.07173826496555225,0.04750947434973006,-0.16702597230188002,0.08619707393960416,nan
1740797100.2561486,-0.44933680568096884,0.09071734191940543,-0.1452237164205856,-0.07359846065182922,nan
1740797100.2600546,-0.6200768178948999,-0.12994079549709958,0.034036348158478086,-0.13361495378152852,nan
1740797100.2639604,-0.2790719282610572,-0.3049266061563876,0.07171394572090617,0.001453913784472933,nan
1740797100.2678664,0.22178794569301022,-0.0939151562569091,-0.12529673273571276,0.1308537070551773,nan
1740797100.2717721,0.44469309098770465,0.3105144049356738,-0.2791603606622503,0.06235493323407499,nan
1740797100.2756782,0.3168235908904644,0.3514340592703019,-0.10065814468057671,-0.09562330753659352,nan
1740797100.2795842,0.09976768510917818,-0.14440454692326515,0.28270083142336927,-0.07157826759275955,nan
1740797100.28349,0.006005976674716662,-0.6379914363043637,0.42347321652372094,0.1765507630530731,nan
1740797100.287396,-0.01270665703244186,-0.4859472108713139,0.10960030303024959,0.3552166520940367,nan
1740797100.2913017,-0.0860241374551298,0.23388243005446546,-0.31593392913071794,0.1919566953349168,nan
1740797100.2952077,-0.17838729082001484,0.7548210680108319,-0.3240349426979798,-0.19356076150961873,nan
1740797100.2991154,-0.14544440456154645,0.5292738743488977,0.14625087502118855,-0.4023425238678208,nan
1740797100.3030214,0.008441021768511312,-0.11213342061455393,0.554102859823623,-0.23541626758746872,nan
1740797100.3069272,0.08106807495184765,-0.3951070387580111,0.3564161397769721,0.06426489657648861,nan
1740797100.3108332,-0.05455692461817398,-0.0855713849187562,-0.3400412838560958,0.12289027142754616,nan
1740797100.314739,-0.2280707141030246,0.2394839284831838,-0.8502079944771946,-0.09069348937834165,nan
1740797100.318645,-0.15233198460487565,-0.011131590183153241,-0.6441397381019772,-0.2326103659923522,nan
1740797100.322551,0.1838241807383127,-0.6106840667731707,0.09026875670896174,-0.034425716390088096,nan
1740797100.3264568,0.43698257278503755,-0.7484383599274487,0.6752787377362061,0.3391759715193396,nan
1740797100.3303628,0.30321497625768223,-0.06553253299474007,0.6637302040749651,0.4808735687745362,nan
1740797100.3342686,-0.08694538851040311,0.8238012418226975,0.23100571138554465,0.23504618256937884,nan
1740797100.3381746,-0.297143291203756,1.0141407539324359,-0.13337852760446336,-0.12703894263092103,nan
1740797100.3420804,-0.11529749528100844,0.3626929562010927,-0.18770570674361234,-0.2554090906028736,nan
1740797100.345988,0.17341187223381946,-0.3851622722749813,-0.09828917150231849,-0.13390826088663427,nan
1740797100.3498938,0.13838986523729677,-0.5222851105708012,-0.10996303912716372,-0.04184595003540856,nan
1740797100.3537998,-0.23860727843139887,-0.1739861725970423,-0.21606175736273323,-0.14928752931907474,nan
1740797100.3577056,-0.5046207877405477,0.0018617402078042419,-0.22302860620113868,-0.2921186843781444,nan
1740797100.3616116,-0.2755513601301599,-0.2556553077231475,-0.05228429581788433,-0.2093781216986703,nan
1740797100.3655176,0.27768770654039365,-0.487506060158015,0.14785642928539716,0.09149739844840873,nan
1740797100.3694234,0.5997741383442766,-0.1858712039149141,0.20100717540541066,0.3297260290130759,nan
1740797100.3733294,0.3803226417972916,0.4687940366326734,0.11575773005373333,0.3030766754143433,nan
1740797100.3772352,-0.11079381286033173,0.7917134613950768,0.036375389920256115,0.12467863479318236,nan
1740797100.3811412,-0.3615839703320065,0.4489953387808546,0.033059585861085976,0.04275941871327769,nan
1740797100.3850472,-0.19276163400912588,-0.14142716176120515,0.03321350776307418,0.10301256747974782,nan
1740797100.388953,0.1103165466176092,-0.3641671916026579,-0.031809113935898095,0.10962424192328583,nan
1740797100.3928602,0.19861594328300858,-0.15665366464911448,-0.0987999876034181,-0.07709588108948581,nan
1740797100.3967662,0.046897479634410245,0.01929259003944948,-0.058445432984912546,-0.3236153607309004,nan
1740797100.400672,-0.11740183279636125,-0.1217055113954178,0.06652159057781248,-0.3835396747609199,nan
1740797100.404578,-0.15581188193778764,-0.3127471561073871,0.11434338451007844,-0.2126474806290645,nan
1740797100.408484,-0.13986515575826844,-0.18393143120811098,-0.017961315824791105,-0.009582941280386987,nan
1740797100.4123898,-0.14265689331026407,0.1409596977986936,-0.2235548244175902,0.0630224199101152,nan
1740797100.4162958,-0.07571143826585763,0.19382306923482873,-0.28462363834344767,0.0813115400359366,nan
1740797100.4202015,0.15192577274742597,-0.11635988790654583,-0.10841231320900305,0.2032820816563288,nan
1740797100.4241076,0.3937444748802315,-0.259816063580514,0.17743904877855815,0.3812859446759496,nan
1740797100.4280136,0.3590105101380391,0.21969341497732228,0.36130942641143143,0.3728714436848537,nan
1740797100.4319193,-0.005937190562481175,0.9431265698549803,0.3340665699156627,0.07135500175111166,nan
1740797100.4358253,-0.35925226846012703,0.9798132145390477,0.1330027853481409,-0.2898478502183857,nan
1740797100.4397323,-0.31800231325815026,-0.01806864192976526,-0.1336732553989368,-0.3740029012540237,nan
1740797100.4436383,0.06455550829911218,-1.2306490917695776,-0.34272698744341223,-0.1471251691177727,nan
1740797100.447544,0.32101193842161907,-1.4809491905974925,-0.36944272360496344,0.07571907011619877,nan
1740797100.45145,0.12161834679286898,-0.5560985735228765,-0.15283886864054114,0.025315809001544277,nan
1740797100.4553561,-0.30843171832934596,0.5576312168965515,0.19417658050235662,-0.18642329703127863,nan
1740797100.459262,-0.4467655763185944,0.8315444600500039,0.40080596943741303,-0.22773763115298104,nan
1740797100.463168,-0.11058575105924791,0.3328782948677688,0.2686989689336309,0.006840680126869688,nan
1740797100.4670737,0.3183496799280536,-0.02657360865542067,-0.09270150267920103,0.25723068474017907,nan
1740797100.4709797,0.3675037005744844,0.2575632327995561,-0.3364937114902895,0.2506310026820448,nan
1740797100.4748857,0.051320758997249964,0.658481904860882,-0.24220156330347536,0.06804850476853921,nan
1740797100.4787915,-0.1739600058847991,0.39201075217976744,0.03294290748291116,0.019388638658104675,nan
1740797100.4826975,-0.009918142000270221,-0.4710279453026104,0.14573364312814177,0.1883106263317321,nan
1740797100.4866042,0.30295381786192516,-1.033839883798358,0.00045888389305216736,0.2786846451032292,nan
1740797100.4905102,0.30400354940385005,-0.7055781700529729,-0.11770434186480325,0.010377633921079047,nan
1740797100.494416,-0.09160065125759585,0.056576318515043106,0.08371782603248301,-0.44429309700890546,nan
1740797100.498322,-0.4854338941677263,0.3665267367800902,0.466459869428038,-0.5993039925657953,nan
1740797100.5022278,-0.4927932661743371,0.05744409709736376,0.5417177120076669,-0.24879756714371223,nan
1740797100.5061338,-0.18313065050119445,-0.16912540914974256,0.042083177611414384,0.23791969214545516,nan
1740797100.5100398,0.0853949951953296,0.22021586986587957,-0.6819273908605307,0.33863415340232933,nan
1740797100.5139456,0.1611785562367932,0.7844463657090469,-0.9590117585283516,0.01704958203018591,nan
1740797100.5178516,0.22842096939022472,0.6623877059169276,-0.4972380492324579,-0.23521326514362656,nan
1740797100.5217574,0.41866429141011025,-0.21265048863658212,0.3011113443535621,-0.02782222712169573,nan
1740797100.5256634,0.5031314572901601,-0.8857114719131312,0.7637727043712985,0.4192693469127251,nan
1740797100.5295694,0.16969671726402677,-0.5398591536072358,0.6163690154725643,0.5432399147961621,nan
1740797100.5334778,-0.45190103094016537,0.4131157899390554,0.15785367471498216,0.14990787544401787,nan
1740797100.5373836,-0.7832055949452835,0.7691059573072908,-0.16663646309270516,-0.3381313985515285,nan
1740797100.5412896,-0.44055359843371866,0.01989853481237889,-0.2193903503713653,-0.41287151079780565,nan
1740797100.5451953,0.24723266247068482,-0.9751825637049548,-0.15388732120283213,-0.10587895822889777,nan
1740797100.5491014,0.5621890276990773,-1.0141293120775772,-0.09222001374219603,0.09300293688618684,nan
1740797100.5530074,0.23238742277978552,-0.009603102423276852,-0.0006984911547472142,-0.09971189064261368,nan
1740797100.5569131,-0.25172730615968625,0.9356058691836135,0.1148209618495163,-0.3908702889133638,nan
1740797100.5608191,-0.2634900954676761,0.8925897166234782,0.08343465845008419,-0.3133843297568156,nan
1740797100.564725,0.16546544788668588,0.1644563443591219,-0.2043372150326389,0.14208315487364495,nan
1740797100.568631,0.4004448979939242,-0.2490898821576179,-0.5134409208825872,0.5053568146182128,nan
1740797100.572537,0.05211085549244665,0.012137698279251546,-0.4152788863282654,0.43436432307464656,nan
1740797100.5764427,-0.4769588918998066,0.3022458740430624,0.18528530343763214,0.13300942679797575,nan
1740797100.5803528,-0.4816915027679433,-0.019484051305326745,0.799559985652057,0.02579951317880751,nan
1740797100.5842586,0.12297747973337171,-0.6396390893069236,0.8066260654922388,0.15029090988656804,nan
1740797100.5881646,0.6426427813454458,-0.7155872877296773,0.16165480919814065,0.11865948883807034,nan
1740797100.5920706,0.4498950129218553,-0.08079651398005036,-0.4971989723251219,-0.2816753902253159,nan
1740797100.5959764,-0.2225953269331452,0.4567085044051342,-0.5410442302118776,-0.6861118689145544,nan
1740797100.5998824,-0.5635252361434228,0.19010853041659204,-0.05623176007256129,-0.5633387348777223,nan
1740797100.6037881,-0.19715283631832067,-0.47525420794663453,0.2855218672048999,0.054421135945392295,nan
1740797100.6076941,0.35702483287363546,-0.5022470149552765,0.04633342806320711,0.5175941821379579,nan
1740797100.6116,0.36240267072257526,0.3710116548496299,-0.4623086538805433,0.3353873038782914,nan
1740797100.615506,-0.19444621576711782,1.1816265626714968,-0.5884575873936798,-0.1903429072528069,nan
1740797100.619412,-0.6052984049131644,0.935188413981976,-0.14874111359082542,-0.3314238668027996,nan
1740797100.6233177,-0.3585734339314213,-0.0811462354816522,0.37286210773245015,0.12763591266442387,nan
1740797100.6272256,0.2331864429040156,-0.6436980168836248,0.4618421661001201,0.5967414986622253,nan
1740797100.6311316,0.4943950127959344,-0.217638613582504,0.21209652402554108,0.44988085806934525,nan
1740797100.6350374,0.28089809098558766,0.2866489840010291,0.14715952068825344,-0.13274040936563392,nan
1740797100.6389434,0.0916690148944358,-0.2677795011355333,0.4672599768201398,-0.3874531936249995,nan
1740797100.6428492,0.26878574440918673,-1.5650051550096769,0.7136764310965359,-0.007559372914357516,nan
1740797100.6467552,0.4323243936924993,-1.9686909422558008,0.31418779817864545,0.3807233299201163,nan
1740797100.6506612,0.004861356224517409,-0.49311586888273695,-0.6558238052199912,0.018474709788995906,nan
1740797100.654567,-0.8447265812177603,1.8058390239961877,-1.4520174557025851,-0.8909448442074182,nan
1740797100.658473,-1.2011354545554507,2.8591802429904387,-1.4224853120438203,-1.2714962234057208,nan
1740797100.6623788,-0.5192642014910631,1.8724131697320092,-0.6445223487862342,-0.4667341529868886,nan
1740797100.6662848,0.5520021565944995,0.0920519463286707,0.27368442400088977,0.8565746761878454,nan
1740797100.6701908,0.8459838512843973,-0.8374724791957855,0.889133089655643,1.406964912824787,nan
1740797100.6740985,0.14763145613378167,-0.7868935536081315,1.2331611697962352,0.7800184031759256,nan
1740797100.6780043,-0.4381930087793378,-0.9155157414714691,1.4483567026297963,-0.09881333265839723,nan
1740797100.6819103,0.13409655596415146,-1.7409474718404376,1.3655758445781372,-0.18395350828812554,nan
1740797100.6858163,1.3560638420580349,-2.1905306391509685,0.6531181824157163,0.3551788836101534,nan
1740797100.689722,1.5557808597199485,-0.9983139278849334,-0.6530199822667208,0.4029652866060999,nan
1740797100.693628,-0.06948685776735712,1.3751694414303313,-1.959324935599197,-0.549757917603318,nan
1740797100.6975338,-2.205768901472149,2.944330778063555,-2.540416372608925,-1.593706747312325,nan
1740797100.7014399,-2.6632849634939735,2.4343382461577083,-2.080914301271454,-1.4581905831829096,nan
1740797100.7053459,-0.838331258308033,0.7231662771119279,-0.7721597107284474,-0.1381221352285984,nan
1740797100.7092516,1.4970711960752725,-0.39531841601776996,0.946841293552314,1.028383752512219,nan
1740797100.7131577,2.11403985061162,-0.4975259431253727,2.532202239705044,1.0018607660729724,nan
1740797100.7170634,0.7651536437551402,-0.7898721974558349,3.2979680921959487,0.3030348685201358,nan
1740797100.7209709,-0.7132081033384383,-1.9668126195192834,2.6310460643097824,0.20908526553428475,nan
1740797100.7248769,-0.6977236710565453,-2.68504843135596,0.5839460739060488,0.9000174496266835,nan
1740797100.728783,0.35265898794029715,-1.1011807415823798,-1.8072264123205792,1.0761743548040053,nan
1740797100.7326887,0.7102341985421464,2.214501990783126,-3.1526788333419735,-0.24806443691564797,nan
1740797100.7365947,-0.23156735584424873,4.020047792825894,-2.8788296459969183,-2.039995886049279,nan
1740797100.7405005,-1.0888965944941256,1.8837059329810424,-1.6536351119188903,-2.108270609462375,nan
1740797100.7444065,-0.33048506886851786,-2.46855561599538,-0.4749203093319674,0.15287468316136454,nan
1740797100.7483125,1.4662632147974475,-4.384211597989609,0.5091168046107701,2.508605244318366,nan
1740797100.7522182,1.9459595577653317,-1.3550817618823796,1.8789931090193344,2.0878830942189106,nan
1740797100.7561243,-0.21498589521108452,3.7657859143060084,3.554769676286996,-1.1664190793862415,nan
1740797100.76003,-3.3228686018958413,5.497619787243251,4.044256687637961,-3.929502025969523,nan
1740797100.763936,-4.102890671264085,1.719785367140734,1.7983171082629255,-2.904198857169578,nan
1740797100.7678435,-1.2052444363120751,-3.840912890411651,-2.509532034677156,1.399916519000992,nan
1740797100.7717493,3.125633281396663,-5.614612795970873,-5.669680805937902,4.893891886250835,nan
1740797100.7756553,5.190142466706247,-2.23710069662977,-4.703074400215808,4.148934308838688,nan
1740797100.779561,3.5011174364153064,2.2023614849495825,-0.14263074227297035,0.04608640426094926,nan
1740797100.783467,0.027993842852099216,3.0137825910039076,3.9612773941254233,-3.227762891801068,nan
1740797100.787373,-2.1590257321609254,0.15101853718107938,3.8893430444895127,-2.7228857518701104,nan
1740797100.7912788,-2.0609468910457145,-2.135438685637584,0.1265843992640429,0.23052101395785396,nan
1740797100.7951849,-1.2877141737556281,-0.5736587094191341,-3.037188153524423,1.7499071577089302,nan
1740797100.7990906,-1.6775641750232289,3.2353653128471858,-2.0303640397387217,-0.1784277388997177,nan
1740797100.8029966,-2.932755917865793,4.738670317582014,2.116925063857961,-3.4971980714587954,nan
1740797100.8069026,-2.9304708577080234,1.7066028562641093,4.790407350942614,-4.333522771251145,nan
1740797100.8108084,-0.21909393236927963,-3.291001239090678,2.6981638461735216,-1.0624888576113432,nan
1740797100.8147154,4.111219474408298,-5.791027615381631,-2.590941668452696,4.104237075623266,nan
1740797100.8186214,7.111774871164201,-4.080345027505772,-6.218017596735321,7.281780708145205,nan
1740797100.8225272,6.404799791444618,-0.38090468573343195,-4.9151385744440494,6.24332563597476,nan
1740797100.8264332,2.031560329405373,2.1622819918792664,-0.013516198805424793,1.7617690542485636,nan
1740797100.8303392,-3.6738659247555985,2.696372700017179,4.270181491546143,-3.5671328494863395,nan
1740797100.834245,-7.681917926695033,2.5356212907288063,4.993078509192648,-7.195691747297746,nan
1740797100.838151,-7.971756488975189,2.6092098722062977,2.6598974009541694,-7.62305148332206,nan
1740797100.8420568,-4.4536809322633815,2.11331000437128,-0.2444728544125077,-4.625651588158099,nan
1740797100.8459628,1.0599648015444754,-0.0391178105083463,-1.990965620958438,0.592722924373741,nan
1740797100.8498688,5.74486634747842,-3.1435222042512243,-2.5343675454324983,5.53233896844252,nan
1740797100.8537745,7.258698402010109,-4.873785015562958,-2.358993571124617,7.52557332460621,nan
1740797100.8576806,5.1170909961977245,-3.6153403710452094,-1.4184355900159644,5.550723709845796,nan
1740797100.8615875,0.959315259143814,-0.20285583455000059,0.39224981382824214,1.1401845824048082,nan
1740797100.8654933,-2.6498294751136293,2.880987726957642,2.262129400422792,-2.763127981381951,nan
1740797100.8693993,-4.003054354184766,3.789327184629112,2.7656189004760754,-4.125199803556735,nan
1740797100.8733053,-3.1772398641958888,2.589762387344465,1.3617936694242605,-3.1510399066277186,nan
1740797100.877211,-1.4781905162052826,0.5878120974866707,-0.8084456533007687,-1.5013615280126642,nan
1740797100.881117,-0.1503871024999245,-1.040387870832429,-1.9969134501294004,-0.476129473476164,nan
1740797100.8850229,0.41560263872962494,-1.8067487535358813,-1.602994032693633,-0.09806824838208268,nan
1740797100.888929,0.5207317575342952,-1.6511849587839071,-0.5300810526795809,0.27709886016886515,nan
1740797100.892835,0.5786808717535656,-0.7659427999702567,0.16343736911036583,0.9211864984154541,nan
1740797100.8967407,0.7898543430072649,0.26973213769283594,0.4876899033562876,1.5102632772595215,nan
1740797100.9006467,1.1397249187896168,0.6842647065440128,1.0649710464554605,1.6786263035830562,nan
1740797100.9045525,1.424569298974109,0.24142107148552977,1.7609848070009055,1.411484277382787,nan
1740797100.908461,1.266645271072472,-0.36471936298648056,1.466944259548268,0.8411685492287646,nan
1740797100.9123669,0.3635914256304892,-0.21823695763284057,-0.41707875728405974,-0.02780505311130913,nan
1740797100.9162729,-1.0704318866747973,0.6639434251877101,-2.670771085095365,-1.1303989614106464,nan
1740797100.9201787,-2.1989039637833008,1.220421272059527,-3.0956345105724794,-2.0087469143799046,nan
1740797100.9240847,-2.1617426821995065,0.6159317330564333,-0.906299885958444,-2.0222802013127725,nan
1740797100.9279907,-0.9225819961360362,-0.6081907345086299,2.080257377254522,-1.0439486706979477,nan
1740797100.9318964,0.5734959177897799,-1.0637099750728924,3.0994283375341185,0.23742084010879902,nan
1740797100.9358025,1.2415967624863515,-0.23419984860278203,1.314561416055645,0.94113452076647,nan
1740797100.9397082,0.8757385033820515,0.7502519175605542,-1.2766865279160973,0.8927623959704488,nan
1740797100.9436142,0.24662926865299345,0.41329714511522364,-1.987246500315198,0.6956008942980816,nan
1740797100.9475203,0.17952846303504397,-1.1469626823685553,-0.2947987008526374,0.8621163595552278,nan
1740797100.951426,0.6556657002280488,-2.118171584937721,1.721157319389377,1.1043651528038319,nan
1740797100.9553342,0.9202300598757674,-0.9829900479901315,1.7434465026306285,0.717772052006417,nan
1740797100.9592402,0.4024815745354717,1.5940333141225327,-0.3146209405781233,-0.40671276815591567,nan
1740797100.963146,-0.6339375135183318,3.2669987448105404,-2.3798878815762174,-1.4566784130152282,nan
1740797100.967052,-1.3891812333404543,2.4235445029584017,-2.520909902617284,-1.539502560884406,nan
1740797100.970958,-1.3367331239829836,-0.17565224616540379,-0.8133161863402675,-0.6863523465320657,nan
1740797100.9748638,-0.6311615037746556,-2.2908714540283244,1.106270962279658,0.21629891207036248,nan
1740797100.9787698,0.1904475794906277,-2.486466426855498,1.9332218157143237,0.4647737419732237,nan
1740797100.9826756,0.7122353346654297,-1.249607407410355,1.7560063725089272,0.24548465492109608,nan
1740797100.9865816,0.8117649214422845,0.013934668817063693,1.3372541501733608,0.1855517046704918,nan
1740797100.9904876,0.5450887310287175,0.5953974534872214,0.8701428382035787,0.4312972970241884,nan
1740797100.9943933,0.0894331476895585,0.8155262038840587,-0.12261791098335148,0.5078547568140058,nan
1740797100.9982994,-0.2287988201808267,1.058637275001115,-1.73842690168781,0.10830703167018163,nan
1740797101.0022073,-0.10351867563560622,1.0690263159296252,-3.0125623246772495,-0.3341927586483096,nan
1740797101.006113,0.37984013886855333,0.4419241452079515,-2.661869604332841,-0.16952075236799483,nan
1740797101.010019,0.6511932824778833,-0.529504346542659,-0.5151141634910572,0.4900324797149711,nan
1740797101.013925,0.17648421310840598,-0.9752768921680657,2.0286330993938764,0.7134642088698229,nan
1740797101.0178308,-0.8543453510970379,-0.4872186549077619,3.141281683153177,-0.12215307309948446,nan
1740797101.0217369,-1.5308824703351545,0.29532476523331286,2.184839146820787,-1.3746988746591788,nan
1740797101.0256426,-1.1006754883332563,0.3990052139414285,0.19076232757150963,-1.6731191674217887,nan
1740797101.0295486,0.177031343466915,-0.30801412585651816,-1.199528450899128,-0.4784651762132001,nan
1740797101.0334547,1.2196729119918388,-0.9481068472338696,-1.2054041459305884,1.1670976349329132,nan
1740797101.0373604,1.2238154657847877,-0.6935175683845808,-0.3980432735510045,1.69499390037709,nan
1740797101.0412664,0.45667369988767653,0.25563829789787584,0.08643393399347059,0.7226914873690559,nan
1740797101.0451722,-0.16120271368009245,0.9529799926534585,-0.2931028995373661,-0.5606695179392507,nan
1740797101.04908,-0.15508433112179026,0.8399265202150155,-1.040171196101348,-0.786562780351078,nan
1740797101.052986,0.05181519034692271,0.3102250143944073,-1.1840151964377448,0.06166513836121034,nan
1740797101.056892,-0.16190664853294282,0.07395744174837092,-0.23788721932531862,0.7512595683327062,nan
1740797101.0607977,-0.7020227605461172,0.21481803643556507,1.3012683078085379,0.34232020456927376,nan
1740797101.0647037,-0.828093635237553,0.15722244202067012,2.3026583303883497,-0.7058010009165092,nan
1740797101.0686095,-0.1414572504470399,-0.46055706957104714,1.8981043159142974,-1.1431934358726863,nan
1740797101.0725155,0.7751402300932387,-1.1743370119039351,0.21332253847302945,-0.44783902659514013,nan
1740797101.0764215,0.9423118310816327,-1.1629045592992717,-1.6508123375884172,0.5859350377734209,nan
1740797101.0803273,0.14155829364963013,-0.24662950726439406,-2.40688449515146,0.8341499544096165,nan
1740797101.0842333,-0.766759836771371,0.8046477752667963,-1.5520910364692253,0.15751541739295422,nan
1740797101.088139,-0.7953776398987045,1.0523947502459992,0.24178574005483555,-0.5152175670671048,nan
1740797101.092045,0.05462613839658266,0.3818938051606109,1.6450024673412655,-0.35127052520512914,nan
1740797101.0959527,0.8267973034257723,-0.3924966367124253,1.690800927596309,0.41663811288179226,nan
1740797101.0998585,0.72551681844891,-0.3970109863997531,0.4887934684988618,0.826478530461142,nan
1740797101.1037645,-0.021467128877043256,0.40006858286133506,-0.920903516148267,0.3443396829988321,nan
1740797101.1076705,-0.5312708625139115,1.1579758634072919,-1.424189514985576,-0.5430707039206385,nan
1740797101.1115763,-0.341604154802985,0.9792314245276473,-0.7015894318741529,-0.9196474970936924,nan
1740797101.1154823,0.12147251237548895,-0.23330846871205552,0.5656592340345021,-0.4465365690387646,nan
1740797101.119388,0.17524664083352917,-1.6365671239427955,1.2893667009601169,0.34924440120312517,nan
1740797101.123294,-0.24687053078355764,-2.1166420575014655,0.8835434794727369,0.707123415328571,nan
1740797101.1272001,-0.5562927310006205,-1.2088696944688837,-0.24733479721919904,0.38699712877202896,nan
1740797101.131106,-0.282789610805348,0.4779867576417902,-1.0637903481791362,-0.2224422926123126,nan
1740797101.135012,0.34328016411625173,1.7172152913074243,-0.8259022843340336,-0.5852765959172085,nan
1740797101.1389177,0.6898785729090805,1.679876884314199,0.20153234177867616,-0.4797712702460389,nan
1740797101.142825,0.46999865469173935,0.6421385510597005,0.9630380203725091,-0.05373187181972916,nan
1740797101.146731,0.0070504746581738385,-0.31731128180625423,0.6280495021198578,0.3928054078452046,nan
1740797101.150637,-0.23175004913003924,-0.4063881601777181,-0.5341575293891699,0.6052984734163108,nan
1740797101.1545427,-0.1758513643488497,0.09215041408939335,-1.3410052807490127,0.4714193548974401,nan
1740797101.1584487,-0.1087121483394257,0.21238874171249092,-0.8615418751645457,0.07556996417800546,nan
1740797101.1623545,-0.19745832345723596,-0.5004048457909163,0.5786023646664816,-0.32215372488054567,nan
1740797101.1662605,-0.26893280478008136,-1.3505351156338692,1.6384104187442001,-0.46136517103999114,nan
1740797101.1701665,-0.1023729049704597,-1.2333255133926249,1.2873267552797867,-0.30759568019147066,nan
1740797101.1740723,0.20898422453663967,0.01775706029925297,-0.13188343796398402,-0.07515128237565794,nan
1740797101.1779783,0.34159084665460265,1.2773389335681042,-1.2452180583031758,0.02057733809893582,nan
1740797101.181884,0.15587763184060613,1.304653324173279,-1.063548354530885,0.0011764082900423316,nan
1740797101.18579,-0.12190187100578782,0.16293362752903975,0.027864986696475046,0.04963705883230793,nan
1740797101.189697,-0.18972151163441747,-0.8039746094989462,0.7568865004858937,0.21406642041933724,nan
1740797101.193603,-0.03736240731693589,-0.4913633602775022,0.37035213223743163,0.2977763308213364,nan
1740797101.197509,0.0892581135549987,0.6901368988652617,-0.5882925664098418,0.11816644799933394,nan
1740797101.2014148,0.04962205598703058,1.2917585458213194,-0.945139507055295,-0.19289853288661968,nan
1740797101.2053208,-0.014874277123491002,0.5109240726106155,-0.21357775238903262,-0.2827228985605764,nan
1740797101.2092266,0.07342945122020669,-0.8989908039546384,0.900060836229218,-0.007562312996228036,nan
1740797101.2131326,0.22032932966126223,-1.5391889433991963,1.2961889427328939,0.3378616077322086,nan
1740797101.2170386,0.14769245490337748,-0.9595484680342403,0.6336960726835856,0.3301505218581612,nan
1740797101.2209444,-0.2078887223621053,-0.028218604418200816,-0.4110698850087499,-0.07215084158496345,nan
1740797101.2248504,-0.5254496425006708,0.2725050672044583,-0.9371506842117746,-0.45156278711264547,nan
1740797101.2287562,-0.4336901566426663,0.04288091903465292,-0.6939627411851725,-0.4140993808164233,nan
1740797101.2326622,0.03630016254392463,0.16419780987709587,-0.14008212885152457,-0.052631839105840995,nan
1740797101.2365692,0.45248180229218565,0.9597342734787847,0.1894021973703123,0.18565370101699555,nan
1740797101.240475,0.4586348057963475,1.6030328728496748,0.18877314122025546,0.06723606259229424,nan
1740797101.244381,0.1524714024193075,1.0874794984226506,0.08761033632358677,-0.13881534477263952,nan
1740797101.248287,-0.08383144474770365,-0.4442029450474557,0.06549014267842046,-0.02266655869550213,nan
1740797101.2521927,-0.06331290256899998,-1.705871825682809,0.10518115744891278,0.40517237804491535,nan
1740797101.2560987,0.024346730026802852,-1.6522477938111895,0.1446974245161465,0.670009741532317,nan
1740797101.2600045,-0.06910970873580095,-0.5779094962953734,0.18307258707662652,0.3850347634796139,nan
1740797101.2639105,-0.27884361194531604,0.3544868217321907,0.18229959285004452,-0.26791952158510424,nan
1740797101.2678165,-0.3006862987983646,0.49278452883215956,0.01303407927093846,-0.7158354314581674,nan
1740797101.2717223,-0.013583568936378422,0.26803781217168426,-0.3497553358680963,-0.615261432058315,nan
1740797101.2756283,0.3107332769249185,0.3713729674167109,-0.6252434236364619,-0.17945413389514922,nan
1740797101.279534,0.3059217256955991,0.733911784019243,-0.4189249466641029,0.13685974085828617,nan
1740797101.2834425,-0.03976403983191233,0.6686948052081765,0.2760157194468364,0.161310662537961,nan
1740797101.2873485,-0.34340255368594963,-0.07280662106750903,0.8823800188259611,0.10311712298143659,nan
1740797101.2912545,-0.2571146473548186,-0.8079179138058229,0.7406483824775263,0.1800915542750018,nan
1740797101.2951603,0.1418506507964836,-0.7183131951884709,-0.13999997577202167,0.3108341409887054,nan
1740797101.2990663,0.44925019408822486,0.07534805361470719,-0.9630065042906025,0.2629142192071304,nan
1740797101.302972,0.3788325644482406,0.5933765551877659,-0.9124961086860242,0.013722930299597058,nan
