timestamps,TP9,AF7,AF8,TP10,Right AUX
1741085393.907496,-0.6657817147354884,1.3872036691405396,0.2807908193831088,-0.08532519692123715,nan
1741085393.9113998,-0.5861241674534087,2.105548451123391,0.20411685740169458,-0.825202167271872,nan
1741085393.9153037,-0.14786885201261388,1.524914688852634,0.009020520312836785,-0.9673539129384947,nan
1741085393.9192076,0.43974120087175406,0.14749251453299403,-0.19686732233511278,-0.43386951717240774,nan
1741085393.9231112,0.838220804434737,-1.0962544789021849,-0.30453122334321675,0.3616134161503935,nan
1741085393.927015,0.789576228411187,-1.5137088139082644,-0.2557300018431572,0.8380960893668389,nan
1741085393.930919,0.2918265051610364,-1.052584331069187,-0.06858496079241821,0.6830291761837348,nan
1741085393.9348228,-0.38423519118225735,-0.19585410475550488,0.16895566262567197,0.06525637927548476,nan
1741085393.9387264,-0.8549942597137273,0.48516580972074297,0.3359341910302624,-0.5245375105464157,nan
1741085393.9426303,-0.8572464507062858,0.7257766562496811,0.33593118715876297,-0.6628655974593296,nan
1741085393.9465342,-0.402712480220004,0.6288146910540394,0.15285293719736243,-0.3015937201317111,nan
1741085393.950438,0.241205743294184,0.4285052489605548,-0.1274571158340476,0.23276725275546506,nan
1741085393.9543712,0.7215160650359428,0.23193000258372062,-0.3532066154469513,0.5226861564595723,nan
1741085393.958275,0.8038585791221039,-0.0211227078702102,-0.3909351719774723,0.38405384513709745,nan
1741085393.962179,0.4857632585103353,-0.3833929062907425,-0.2107958396504184,-0.021806573359916297,nan
1741085393.9660828,-0.0335061691092679,-0.7284020734689362,0.08611004618574292,-0.3536956635965703,nan
1741085393.9699864,-0.4848961642428327,-0.788477369311718,0.32519956846390424,-0.3752809545029168,nan
1741085393.9738903,-0.6712516530691093,-0.39292389298645114,0.36868533121664715,-0.12242538622297577,nan
1741085393.9777942,-0.5434335749715107,0.31545862661189905,0.20444387433824932,0.16560781331862917,nan
1741085393.981698,-0.19215151727596388,0.9123141331062722,-0.050204617266285514,0.2673104350825531,nan
1741085393.9856017,0.21450680788838783,0.9852797860862667,-0.23334241929634228,0.1536602122163149,nan
1741085393.9895055,0.5053887548679573,0.4603343561655454,-0.24981476810791203,-0.02262136051421232,nan
1741085393.9934094,0.5662065931338418,-0.31742534626954605,-0.1274716265429393,-0.0917604954622153,nan
1741085393.9973133,0.37692848958587793,-0.8315900716836643,0.019947531131698275,-0.02482382576540442,nan
1741085394.0012462,0.021601455924382968,-0.778396612158445,0.08881677531699005,0.05649361949133152,nan
1741085394.00515,-0.33887976254844693,-0.27743350813798695,0.06202280136428062,0.017255843087053736,nan
1741085394.0090537,-0.5336610720312358,0.25587692759551983,0.007048322303055469,-0.14171918891667193,nan
1741085394.0129576,-0.4668323375789632,0.45842934042766453,0.0035642469437245396,-0.26733461156774146,nan
1741085394.0168614,-0.17481200090265747,0.2922137440734263,0.06625683429208115,-0.19184992069148307,nan
1741085394.0207653,0.18609133537366288,0.022111090356913842,0.13014482076700537,0.09676941141446828,nan
1741085394.024669,0.4253121900797936,-0.0603367835655449,0.11048705134471076,0.4097354605859227,nan
1741085394.0285728,0.4288490071130771,0.09017473337296446,-0.015324949405586829,0.4914469809069081,nan
1741085394.0324767,0.22348273523907325,0.24656434627835036,-0.1760172274898576,0.2303535745950569,nan
1741085394.0363805,-0.049907822524991284,0.14612414402264798,-0.25500790776741994,-0.22928520957772522,nan
1741085394.0402842,-0.23518240449360003,-0.23144859409133334,-0.1816483701388017,-0.5763770874934752,nan
1741085394.044188,-0.26095829118294195,-0.6050213066525826,0.009158009499481465,-0.5615150822255449,nan
1741085394.048121,-0.17083282469970149,-0.6182209074948347,0.19818010946515469,-0.18726482104395784,nan
1741085394.0520246,-0.06704066697248347,-0.16100205223515332,0.2676892510042307,0.29068759306075515,nan
1741085394.0559285,-0.017918532652775442,0.496360077792288,0.1843150955622043,0.5532566438410768,nan
1741085394.0598323,-0.006493273219804722,0.8866196780583111,0.015783837122980333,0.4501169625543367,nan
1741085394.0637362,0.03810631176784222,0.7068113633001132,-0.12682069066278925,0.09572298327452093,nan
1741085394.0676398,0.1552044939200493,0.0632761751031868,-0.1710822516964952,-0.23759602468576438,nan
1741085394.0715437,0.2902237775019082,-0.6016413466901798,-0.12472541304686553,-0.3354987642048477,nan
1741085394.0754476,0.3176102853145472,-0.8429052282818752,-0.05017465255034117,-0.1925568026740826,nan
1741085394.0793512,0.14191866754240678,-0.538467012585415,-0.0023385461683513185,0.014120489449127754,nan
1741085394.083255,-0.1998240720836248,0.046075340703996576,0.013676969611813883,0.0931441967966416,nan
1741085394.087159,-0.5239338464466333,0.4880658282477068,0.0315861512685115,0.0019789172429430365,nan
1741085394.0910628,-0.6036254153643129,0.5321212527109785,0.07628132977942961,-0.12918155256436106,nan
1741085394.0949953,-0.32905242852955163,0.24835887940025464,0.12802559894314072,-0.12549693083641886,nan
1741085394.0988991,0.19025941566623197,-0.07930207541415783,0.13397904228610868,0.06656922515459329,nan
1741085394.1028028,0.6652964144886386,-0.21147749731159904,0.05791544758317034,0.3181147926534934,nan
1741085394.1067066,0.7985448127656329,-0.13016612286341483,-0.0770049084619933,0.41451066072759585,nan
1741085394.1106105,0.47907122044666667,-0.0008159927293950703,-0.1932405374588402,0.23167037376780877,nan
1741085394.1145144,-0.13082592524188336,0.01621987151793312,-0.21193695468248597,-0.1516501806471269,nan
1741085394.118418,-0.6830241515443323,-0.08187049269632628,-0.11280889971789257,-0.4973287897312124,nan
1741085394.1223218,-0.8549237674991447,-0.1583012912734132,0.04744676271370584,-0.5749677423959445,nan
1741085394.1262257,-0.5495120686971334,-0.09160605571732928,0.17347504982653142,-0.3249298916088222,nan
1741085394.1301296,0.0459820670767069,0.09108348604777204,0.19663888047350736,0.10341398867540083,nan
1741085394.1340332,0.5802339534176988,0.23264580260499712,0.1178917205064927,0.45982400356480246,nan
1741085394.137937,0.7567949309115667,0.19756411022265033,-0.0013771315590831365,0.5599742396809173,nan
1741085394.1418693,0.5093885604584715,0.009349056060018074,-0.08852229511697864,0.38844765909337853,nan
1741085394.1457732,0.024276471060487758,-0.16163454619439518,-0.10830065852022108,0.07598433320527685,nan
1741085394.149677,-0.3954933948407237,-0.15503031384680438,-0.07615763782041143,-0.21094160184394875,nan
1741085394.1535807,-0.5263691225765681,0.021791127739669392,-0.03305935163690741,-0.372433473646608,nan
1741085394.1574845,-0.3506381334126983,0.18696909804298067,-0.008417292680293498,-0.3987423081987458,nan
1741085394.1613884,-0.03782993301542794,0.146198586319169,-0.001934678143660771,-0.3220983410922837,nan
1741085394.1652923,0.1921889418970377,-0.11574285526894311,0.005622395138465593,-0.16305305533058267,nan
1741085394.169196,0.22128324984993816,-0.39081944680229574,0.027971266460363194,0.07078619111709758,nan
1741085394.1730998,0.09599746802112577,-0.4065246327834528,0.05869469497438748,0.33865798988359086,nan
1741085394.1770036,-0.032790759825612234,-0.06493100427126182,0.07721490364612958,0.5343470195161287,nan
1741085394.1809075,-0.039102261916436024,0.4409590690451308,0.06665194238234867,0.5238500766031938,nan
1741085394.184811,0.07907529820382016,0.7449893114663776,0.026527421899231008,0.24423457042267394,nan
1741085394.1887457,0.2021754952910164,0.5805376971098793,-0.028673759576846564,-0.2129906863211656,nan
1741085394.1926496,0.18740184549842254,-0.0026605481658139637,-0.07987426376494966,-0.6173897617309305,nan
1741085394.1965535,-0.012062774884171127,-0.6508514075828412,-0.11141763155505098,-0.7282784607618706,nan
1741085394.200457,-0.2960461008756866,-0.9444894890357063,-0.11186507428450482,-0.4571556431911063,nan
1741085394.204361,-0.47428129690476517,-0.6863151360426074,-0.07302230701923852,0.05602439002877727,nan
1741085394.2082648,-0.39452233434211575,-0.030229576598146863,0.00512668474850336,0.5199780213440937,nan
1741085394.2121687,-0.05497729144458397,0.6319903939686402,0.10454257053776565,0.6781987377881245,nan
1741085394.2160723,0.37660861985585736,0.9303635529507851,0.1854939680855144,0.47414493320027945,nan
1741085394.2199762,0.6539762718821347,0.7346745085069546,0.20007981972633865,0.0759475995839781,nan
1741085394.22388,0.5989652203115232,0.19598220319243834,0.12064803950898718,-0.2560029372535243,nan
1741085394.227784,0.21355792503303142,-0.38300970786889077,-0.03464324749124721,-0.35689296423927785,nan
1741085394.2316875,-0.31171644243922886,-0.7330515028485732,-0.20015670889769546,-0.25779693520412006,nan
1741085394.2356217,-0.699426397657721,-0.7371982372339867,-0.29202787643371636,-0.1257762070015131,nan
1741085394.2395256,-0.7384460196007387,-0.4403714976171358,-0.2536980041506902,-0.09942958042217262,nan
1741085394.2434294,-0.40127927808581015,0.011079255863331704,-0.09035242020964576,-0.1603905255360837,nan
1741085394.247333,0.14004572567109183,0.43848457309868816,0.12914005741307172,-0.15265774937359877,nan
1741085394.251237,0.6070412377367442,0.6817118145723365,0.3042524950054766,0.06100997999124472,nan
1741085394.2551408,0.7639929058063409,0.6420884703253479,0.35087690646557185,0.43630162129191646,nan
1741085394.2590446,0.5411175172618284,0.3253850579950511,0.24087341309551608,0.7265424407790644,nan
1741085394.2629483,0.06575143515311721,-0.13856576939535264,0.01579313085127335,0.6461325875751083,nan
1741085394.2668521,-0.41241133370781485,-0.5364906538813935,-0.2291848080139902,0.10854120077977898,nan
1741085394.270756,-0.6577358241977941,-0.675380670230044,-0.38394389929857037,-0.6481183454194848,nan
1741085394.2746599,-0.5700714208225844,-0.4942201600226981,-0.3710242399166404,-1.1685077509243775,nan
1741085394.2785635,-0.22585435514800092,-0.10395607669509396,-0.18449584852646486,-1.0716537183628092,nan
1741085394.2824974,0.17851095446019521,0.2818080256976067,0.0985341675889194,-0.33024311850319676,nan
1741085394.2864013,0.44223032582510885,0.4810795534298797,0.34590573186552287,0.6688428411798537,nan
1741085394.290305,0.4648755349233049,0.4458743543589383,0.43249580542223137,1.3449473725179735,nan
1741085394.2942088,0.2825736055004336,0.26122063336559725,0.30843307496357175,1.2885648437345443,nan
1741085394.2981126,0.02382797554151398,0.053788080020444703,0.033470405330676974,0.5261416205940089,nan
1741085394.3020165,-0.17754343822868215,-0.10531215110960776,-0.2495640408651544,-0.49588423469272996,nan
1741085394.3059204,-0.2539017801612428,-0.22270817549530963,-0.3934635507614119,-1.1960229945256795,nan
1741085394.309824,-0.21995006171118725,-0.32353885873717836,-0.33192315624043384,-1.2169873502868007,nan
1741085394.3137279,-0.13591573221753714,-0.38142104249376085,-0.11637052278089027,-0.6213318597005321,nan
1741085394.3176317,-0.05441944089812329,-0.3170035966438375,0.1212390982752654,0.19150062782028687,nan
1741085394.3215356,0.008767819382012515,-0.07644220513034694,0.254738495010555,0.7666523581275934,nan
1741085394.3254392,0.06557825227232704,0.28139101445447295,0.2394222717770183,0.8685209726093027,nan
1741085394.3293726,0.1255082728701719,0.5796544342591615,0.12580756659741477,0.5714827393481731,nan
1741085394.3332765,0.1748856688872339,0.6255859000331012,0.0070819042279526255,0.1380998473884875,nan
1741085394.3371804,0.18270974975432866,0.3501558715102549,-0.0546318990483702,-0.19298046077351796,nan
1741085394.3410842,0.1252955307405564,-0.1250616272375829,-0.06487075318095473,-0.3440213593723109,nan
1741085394.3449879,0.007511522616175997,-0.552391641188132,-0.07150271146805169,-0.3788462718389754,nan
1741085394.3488917,-0.13522096424476215,-0.7104535013357807,-0.1052865264366385,-0.37937289577687106,nan
1741085394.3527956,-0.25201139326048866,-0.5342516342717125,-0.14207757021109382,-0.34460663311541284,nan
1741085394.3566995,-0.29519666510526044,-0.13548088594987787,-0.1222424098898082,-0.20147014813328443,nan
1741085394.360603,-0.23365282364177398,0.2856912960547787,-0.011444005129686925,0.09150038891585904,nan
1741085394.364507,-0.06345869468112537,0.5588291729694994,0.15178495830624908,0.45143738260065125,nan
1741085394.3684108,0.178800567500088,0.6086271793733726,0.2683258006546545,0.6849828531599523,nan
1741085394.3723147,0.40714052415788865,0.4465114560835026,0.2477737856344084,0.6128738414565711,nan
1741085394.376248,0.5022453163257059,0.13140758079264617,0.08184847282695237,0.21269786354976777,nan
1741085394.3801517,0.36649941392839347,-0.2494757193308921,-0.13878808926769481,-0.3349736909222907,nan
1741085394.3840556,6.038033140416989e-05,-0.5757461364842261,-0.28219715639305104,-0.7417945645570684,nan
1741085394.3879592,-0.4545816679765322,-0.7059959089924835,-0.26586551543397086,-0.786813048105877,nan
1741085394.391863,-0.7533256565612273,-0.53919589766056,-0.11180773862227736,-0.4509834003002609,nan
1741085394.395767,-0.681381579883486,-0.09896204216726438,0.07488375034357377,0.07844466161070905,nan
1741085394.3996708,-0.20627187171181377,0.4335472361470128,0.18486305210396556,0.529052543187387,nan
1741085394.4035745,0.45564103129596445,0.7926876114183494,0.1780304477198571,0.7013394722986587,nan
1741085394.4074783,0.9310837156580455,0.780117873855319,0.09697049718370189,0.5611415977477505,nan
1741085394.4113822,0.9090072147294664,0.3933383113150503,0.016946255953589305,0.22202217718378392,nan
1741085394.415286,0.35416564944635315,-0.1670443652781252,-0.01986382113613391,-0.14722580969926552,nan
1741085394.4191897,-0.4368235869630704,-0.6212854552656557,-0.029588845687153427,-0.41435505071440093,nan
1741085394.4231224,-0.9970068187860388,-0.7749595188317348,-0.05427401709161241,-0.5203491535940642,nan
1741085394.4270263,-0.979502471027228,-0.6066874826667649,-0.1066977742282537,-0.4621578975971078,nan
1741085394.4309301,-0.3876851062377819,-0.2325720957647432,-0.1466962757757465,-0.26277045489878004,nan
1741085394.434834,0.41625901644383373,0.19580624759806353,-0.11392141651861022,0.034974456774848554,nan
1741085394.4387376,0.9400099010712458,0.5608892318396327,0.010269847606787213,0.35261185922356714,nan
1741085394.4426415,0.8780192789848821,0.7723436606692473,0.1683301978088809,0.5725316709328931,nan
1741085394.4465454,0.30310094811302535,0.7343706141860145,0.25590007320133057,0.5765360644380855,nan
1741085394.4504492,-0.39553178136226763,0.3717762464607614,0.1980008519559838,0.31770858846955585,nan
1741085394.4543529,-0.7799881816925893,-0.26920245097861756,0.012918821463867192,-0.12268342105898102,nan
1741085394.4582567,-0.6488912408281381,-0.9386624584845362,-0.18986191605242905,-0.5461284643200244,nan
1741085394.4621606,-0.14695205922438895,-1.2462641796641263,-0.28127339460176676,-0.7290364049116694,nan
1741085394.4660645,0.3632873213448419,-0.8954483988176226,-0.2026354068975231,-0.5514518311815069,nan
1741085394.4699967,0.5618758758778917,0.05344672280156805,-0.007225138412034994,-0.08291101903064019,nan
1741085394.4739006,0.37528012345433137,1.115534226776394,0.17727866640948697,0.4372800935652279,nan
1741085394.4778044,-0.009229260515951495,1.6281679006840608,0.23715579458526168,0.7262131252898113,nan
1741085394.4817083,-0.3066392555287678,1.191374810300857,0.14727560120169847,0.6215404937018038,nan
1741085394.485612,-0.3402814994252986,-0.00642852884063581,-0.01944248619837032,0.183912448599724,nan
1741085394.4895158,-0.14257333380416598,-1.2486145767854857,-0.14931761806990568,-0.3313244747111975,nan
1741085394.4934196,0.10441591437504182,-1.741925533898505,-0.16640058226619514,-0.6240276404740082,nan
1741085394.4973235,0.22219205571889236,-1.1609664745643704,-0.0765470199583545,-0.5327555520349467,nan
1741085394.5012271,0.15928496430448785,0.11138034719638717,0.048074384897346445,-0.13597216549879873,nan
1741085394.505131,0.0019129425999153717,1.2399607039221734,0.12497251368090534,0.29857495918946386,nan
1741085394.5090349,-0.11596272037721982,1.5160415873593045,0.11435548739846527,0.4892644607338791,nan
1741085394.5129387,-0.11957199945878817,0.8382382252147568,0.035431119083678235,0.3279438380387617,nan
1741085394.5168707,-0.03563951783990445,-0.2540422813505186,-0.056737740238965995,-0.04829780676997252,nan
1741085394.5207746,0.04910460761633066,-1.0049667681489391,-0.1102119687255304,-0.3549176817630417,nan
1741085394.5246782,0.06636650328361755,-0.9903130834295044,-0.10321498091945502,-0.36399236835254967,nan
1741085394.528582,0.01580687831642255,-0.3752475739372085,-0.047021998829619764,-0.07138711881650557,nan
1741085394.532486,-0.04623815805633486,0.2887736844415348,0.02849261490521128,0.2967636581834929,nan
1741085394.5363898,-0.05933069579547893,0.5323983789413602,0.09191925300491101,0.44951892617978684,nan
1741085394.5402935,-0.006732747625905879,0.31261995408254156,0.1204738367101113,0.25144179872741107,nan
1741085394.5441973,0.07486555704156383,-0.02887305896559575,0.10335579193892494,-0.16704929211830577,nan
1741085394.5481012,0.123617929604364,-0.12196570877039528,0.04296296792577883,-0.49861211710275555,nan
1741085394.552005,0.09422985577821505,0.08922224377588976,-0.04392246632960044,-0.4876263904286749,nan
1741085394.5559087,-0.012973013410284694,0.3156320987698035,-0.12747622683434728,-0.12785703910005475,nan
1741085394.5598125,-0.14817087643098292,0.22000706637014295,-0.1722150708642567,0.3253529673381029,nan
1741085394.563747,-0.2328978988125691,-0.23320920156704325,-0.15038945158384007,0.5444439741537174,nan
1741085394.5676508,-0.19854361954376554,-0.6973793713319032,-0.056643767632812626,0.3788711580804408,nan
1741085394.5715544,-0.029773392005278492,-0.7210892642692192,0.08310707276200657,-0.029896543465510562,nan
1741085394.5754583,0.20854698275492245,-0.1558690417448188,0.2146482918570876,-0.36144398556100094,nan
1741085394.5793622,0.38581186622758373,0.6602289902771539,0.27290975441132687,-0.3717476356084226,nan
1741085394.583266,0.3707823813977442,1.12253359334773,0.21099925436375802,-0.08765093194075262,nan
1741085394.5871696,0.12122631907522467,0.8273534018017847,0.0305393824516261,0.21936985316727384,nan
1741085394.5910735,-0.26007979224962513,-0.08491073606059113,-0.20347251674312547,0.26406772494576297,nan
1741085394.5949774,-0.5571615816014613,-0.997772657178737,-0.3793077570893272,-0.0034293961675122466,nan
1741085394.5988812,-0.5629446528384277,-1.2618655758270851,-0.3893135170044192,-0.34032534402839937,nan
1741085394.602785,-0.2237163393136849,-0.677737098719344,-0.1946917048875296,-0.4058694137035259,nan
1741085394.6066887,0.29618571816469574,0.35264543405148596,0.13406464278888383,-0.05939750350436892,nan
1741085394.610623,0.6921076740238542,1.1202076196874433,0.4355165251336336,0.4846994030141462,nan
1741085394.6145267,0.7056429183868556,1.1213706523981666,0.5375753371070947,0.7903499573572853,nan
1741085394.6184304,0.30069860826408157,0.4028729290200202,0.36011698987831164,0.5380214114650489,nan
1741085394.6223342,-0.29644183255507944,-0.5056209342071925,-0.023944491870099137,-0.19202269901778093,nan
1741085394.626238,-0.7312450725841941,-0.9960604542974464,-0.41585348209669054,-0.9278259726924585,nan
1741085394.630142,-0.7451550749438219,-0.8054552859645842,-0.5996954423961405,-1.1255886223459832,nan
1741085394.6340458,-0.33892361180724623,-0.15300493138348847,-0.46981979693738773,-0.5757948992506553,nan
1741085394.6379495,0.23510211582522073,0.47504974937240585,-0.09638579687524046,0.4115685557991482,nan
1741085394.6418533,0.6417220159344575,0.6946144377767567,0.31497308067394414,1.196126458452922,nan
1741085394.6457572,0.6722445297901307,0.4618674548574819,0.5449332411475307,1.2463061810209664,nan
1741085394.649661,0.35419118798492477,0.031647006376881476,0.4862209962513216,0.5136531046995515,nan
1741085394.6535647,-0.09829046074283387,-0.28374889899898437,0.1954459938658836,-0.5295000163919169,nan
1741085394.6574986,-0.4381627738675404,-0.34092538496302166,-0.15515059135258166,-1.2152850317739854,nan
1741085394.6614022,-0.5268124307257869,-0.21296181618633395,-0.38645903347146354,-1.1323260911059965,nan
1741085394.665306,-0.37720702081043395,-0.06307802352972178,-0.4086431252701943,-0.38448369694495166,nan
1741085394.66921,-0.09978693229215689,0.01469009003421159,-0.25013517815318187,0.5127527498175178,nan
1741085394.6731138,0.18123630549711625,0.04798939507051748,-0.01648079271468866,1.0024074291098783,nan
1741085394.6770175,0.37560207402854945,0.10905449387940186,0.18009638803820355,0.8477785635722209,nan
1741085394.6809213,0.42834145398012186,0.20425789767447197,0.27241641685062457,0.24166619715655235,nan
1741085394.6848252,0.3125853430389099,0.2458194727232591,0.25006998931025876,-0.38016872890818776,nan
1741085394.688729,0.047109187243794856,0.13466234553725126,0.14261526218243928,-0.655033706527406,nan
1741085394.6926327,-0.27524260010254736,-0.12424585166843788,-0.001917672156656777,-0.5065337017541458,nan
1741085394.6965365,-0.49737888652336104,-0.3858743573080812,-0.13086484327765618,-0.13003721723117034,nan
1741085394.7004404,-0.47441298166281737,-0.45341924444260195,-0.1978172116767065,0.19544870950612414,nan
1741085394.7043738,-0.1801330576309824,-0.2292664624361914,-0.1782973841189511,0.3047678918740941,nan
1741085394.7082777,0.24150543965470267,0.18969935190314494,-0.08545667590422978,0.21708925793904668,nan
1741085394.7121816,0.5421546143333099,0.5529275754286036,0.03028030599904758,0.06349216074975923,nan
1741085394.7160852,0.5269156000387638,0.6133480588855539,0.10725237455922806,-0.038371401323352275,nan
1741085394.719989,0.19586782821572768,0.2956111927581125,0.11182440860145872,-0.05785641001980174,nan
1741085394.723893,-0.24265544004978548,-0.23946172944968883,0.061359528908323926,-0.036080219374202464,nan
1741085394.7277968,-0.5092298836347305,-0.6804842705269469,0.009014226816340667,-0.0231355059678098,nan
1741085394.7317004,-0.44634167227552346,-0.7506747798938981,-0.0012584043953022817,-0.03331452221640252,nan
1741085394.7356043,-0.1240151770545341,-0.3799869605965731,0.02674132047664698,-0.04800807744230527,nan
1741085394.7395082,0.2214377031399957,0.24085226062477078,0.04427846033907092,-0.04581977499009849,nan
1741085394.743412,0.3664278006453291,0.7605562165862448,0.0033838906465381716,-0.022677526344213158,nan
1741085394.7473156,0.2571487922066548,0.8683034006439218,-0.09191796196383414,0.012306931147588284,nan
1741085394.751254,0.026261332533618443,0.48102732594781117,-0.17573722988267484,0.04950628287401245,nan
1741085394.7551577,-0.1337076868959815,-0.19568740336175827,-0.16701361786617888,0.0802516198704954,nan
1741085394.7590616,-0.1288684978886852,-0.777566803168058,-0.03919113051074458,0.08894845858294052,nan
1741085394.7629654,-0.023713114243268177,-0.9258122758943407,0.1450448423300686,0.05523706634913966,nan
1741085394.7668693,0.03928236710598525,-0.5530352470273912,0.2682102668290204,-0.02457239558202694,nan
1741085394.770773,-0.018702287776382748,0.11979350027580771,0.2408023661581068,-0.11577001888267666,nan
1741085394.7746768,-0.13783049272106737,0.6980192589933625,0.06994096582079622,-0.1545432890815039,nan
1741085394.7785807,-0.17677864263951737,0.8578462990522759,-0.14088939416912816,-0.09525582948732308,nan
1741085394.7824845,-0.04958438184431926,0.5420361944519602,-0.26298576505311794,0.039688009634726545,nan
1741085394.7863882,0.18129320479225344,-0.022093702620510358,-0.2308995970745423,0.15898442768334708,nan
1741085394.790292,0.34189454552267956,-0.48897576630698397,-0.08177750255725562,0.16691774452503716,nan
1741085394.794196,0.2869671831887435,-0.6231693765844546,0.08078694363645665,0.04753158558108855,nan
1741085394.7981308,0.02598945354014446,-0.428484343711189,0.16522903037458447,-0.10774534089565095,nan
1741085394.8020346,-0.2728479039298089,-0.0979478830104018,0.14974745527422967,-0.16663751179398162,nan
1741085394.8059385,-0.40689382087715,0.15677085919266462,0.07891461245869699,-0.0711862472057526,nan
1741085394.809842,-0.29103379951207214,0.2522390541400168,0.012199268506843627,0.09858548354959966,nan
1741085394.813746,-0.015548685198771678,0.24670585715970103,-0.025162463531568768,0.180904850129812,nan
1741085394.8176498,0.2318454229523209,0.2324040998114659,-0.047784241423677216,0.07475938643788138,nan
1741085394.8215537,0.30984237488498356,0.22229159361289003,-0.07552045656757037,-0.15169138544414823,nan
1741085394.8254573,0.2150069802778926,0.14219236106508462,-0.09947092626289748,-0.2946730686944072,nan
1741085394.8293612,0.05508356334683196,-0.0670487585421466,-0.08592915327433856,-0.18313059046839683,nan
1741085394.833265,-0.05818382584883177,-0.34319523363303167,-0.015574544242614575,0.15147739742187485,nan
1741085394.837169,-0.09593601765460716,-0.5091305450096424,0.0826326665906864,0.46013594226631904,nan
1741085394.8410726,-0.10712036140714505,-0.406838774127392,0.1420360381128238,0.4564874672297232,nan
1741085394.845005,-0.13983743015759798,-0.04801166264816254,0.11137391032472552,0.06389509604772352,nan
1741085394.848909,-0.17456028802759088,0.36036796580021924,0.00498173744254702,-0.4774493938115896,nan
1741085394.8528128,-0.1386042646541195,0.5567351184250695,-0.09903107414289243,-0.7574910622636478,nan
1741085394.8567166,0.01076704005263487,0.42496872253624474,-0.11866946948167034,-0.5082524517278835,nan
1741085394.8606203,0.2174719555232626,0.08435327174516243,-0.038528597176092964,0.15901123521827876,nan
1741085394.8645241,0.34671198079499493,-0.21278667918290484,0.07159992693060686,0.795350536182912,nan
1741085394.868428,0.2878575939230419,-0.2911599359997862,0.11171549235060625,0.9287576534872862,nan
1741085394.8723319,0.05374093178189028,-0.18670140966279294,0.03790822105250915,0.4236887349244625,nan
1741085394.8762355,-0.21450283555019872,-0.0848642529530443,-0.09373077341944609,-0.3952343877739461,nan
1741085394.8801394,-0.3490393734119957,-0.1199834730318661,-0.1676707425733651,-0.9647424287526498,nan
1741085394.8840432,-0.2816317921192856,-0.22598102265435568,-0.10509549661552409,-0.8917421975242523,nan
1741085394.887947,-0.08853084715796178,-0.19094483096483988,0.0636432059045446,-0.24025734176288896,nan
1741085394.891879,0.08302239571488285,0.11817541767456771,0.21424572961424954,0.5229535912654689,nan
1741085394.8957827,0.14060011327604996,0.5664242145487239,0.22407943507558598,0.8798855734150867,nan
1741085394.8996866,0.1131715432590506,0.7966850426737417,0.07240192677052017,0.6366845371888006,nan
1741085394.9035904,0.10102747478027366,0.5124447962913231,-0.1377143918794349,0.03759909795731681,nan
1741085394.9074943,0.15846681015734088,-0.22634081518307309,-0.2562933571575874,-0.4557104917002448,nan
1741085394.9113982,0.22262009364876592,-0.9663986972242365,-0.20169085946019222,-0.5293071448453793,nan
1741085394.9153018,0.16301374063074275,-1.1615408654153376,-0.0216169067008288,-0.23338271223458582,nan
1741085394.9192057,-0.08395610204716288,-0.6001929693329878,0.148307219004266,0.10825949513417465,nan
1741085394.9231095,-0.4163820848597939,0.3864069517140142,0.19281810262711954,0.1983065077833209,nan
1741085394.9270134,-0.6054476981553429,1.1317057588670745,0.10299748301710465,0.014262712048219035,nan
1741085394.930917,-0.45972509836674574,1.122094852477192,-0.028020054331943604,-0.19843617185185194,nan
1741085394.934821,0.008971111669916655,0.38886101082349256,-0.09084118079730003,-0.16845419313533755,nan
1741085394.9387555,0.5565583243432728,-0.5145228481388452,-0.0513539270946498,0.14214438719885972,nan
1741085394.9426594,0.8516773074036665,-0.9417508589343103,0.028907750595431013,0.4875063326566252,nan
1741085394.946563,0.6956153212061922,-0.6500862181872733,0.056684828921228406,0.5403989676615701,nan
1741085394.9504669,0.1576847602631554,0.03491521015041007,-0.004448828176807394,0.17607953633077358,nan
1741085394.9543707,-0.469485458997798,0.5150342943921962,-0.09981629846192186,-0.4014783157875601,nan
1741085394.9582746,-0.8556632683609555,0.42452766995966795,-0.13310763401553885,-0.7980419309167098,nan
1741085394.9621782,-0.8239262810945827,-0.07810473749868721,-0.054979232817660754,-0.7222124825528333,nan
1741085394.966082,-0.4239148046115771,-0.47226425695052787,0.08792465640157668,-0.20161907065495502,nan
1741085394.969986,0.13472545712844883,-0.34652573819063226,0.18740106065400275,0.44068826541661676,nan
1741085394.9738898,0.6126027935773428,0.22852958110372038,0.16274155961616577,0.8190731988100514,nan
1741085394.9777935,0.839277567718601,0.7493553756353885,0.028361190940964676,0.7410465493295265,nan
1741085394.9816973,0.7440966746104655,0.7124119941443755,-0.11736494922150917,0.3018542513570776,nan
1741085394.9856315,0.35076159399316154,0.06175278234335536,-0.17185025114147812,-0.22324249170540272,nan
1741085394.989535,-0.22262157366668214,-0.7354475670511564,-0.1087402797190158,-0.5759799354004977,nan
1741085394.993439,-0.7639931721157003,-1.0582370555782226,0.007499122112136923,-0.646730041421858,nan
1741085394.9973428,-1.0164386499012863,-0.6401759614434004,0.0816666109206432,-0.4726429874732725,nan
1741085395.0012467,-0.8004490785604997,0.20970262982266846,0.06820953607112104,-0.15522574642505313,nan
1741085395.0051503,-0.1536100080903174,0.8581000980173019,0.003067452049864032,0.20376033334151614,nan
1741085395.0090542,0.626832764638203,0.8581372578834555,-0.03694590564250195,0.5050830341037224,nan
1741085395.012958,1.1155296343493957,0.29194676134614517,-0.007635562547992628,0.6365533049799762,nan
1741085395.016862,1.0147901073217602,-0.33328245872748585,0.06242828937581805,0.5049718922539468,nan
1741085395.0207655,0.3662159718957075,-0.5320587024300854,0.09941843615534143,0.11784186143602916,nan
1741085395.0246694,-0.4494642410393272,-0.24014356857280417,0.053081111696407876,-0.36289440515293064,nan
1741085395.0285733,-0.9504211241028327,0.1702980697147664,-0.05505474723884456,-0.6781067238124384,nan
1741085395.032507,-0.872991869391259,0.25657365583763303,-0.14645623802917698,-0.6328459070175939,nan
1741085395.0364108,-0.3401463220153699,-0.0810171989709926,-0.14985908230274475,-0.24741520573449657,nan
1741085395.0403147,0.24847639212130512,-0.5056383992271428,-0.059207204116308594,0.23475875942761587,nan
1741085395.0442185,0.5209327142096298,-0.5511476259651757,0.06318132089688597,0.5114720620205276,nan
1741085395.0481222,0.3958710634371301,-0.05667470767079823,0.13804936843433518,0.4412922132155792,nan
1741085395.052026,0.10228039825469866,0.6571961014951703,0.12920456361554747,0.1422397739099871,nan
1741085395.05593,-0.048303326816398706,1.0312645118426655,0.062448788115712146,-0.11640123604332808,nan
1741085395.0598338,0.05977637789479163,0.7265140221705436,-0.006999699806410241,-0.14355589197485663,nan
1741085395.0637374,0.2530436278387614,-0.08972652810307355,-0.04402605755066705,0.015779381388406732,nan
1741085395.0676413,0.2387900241747019,-0.8686597228431627,-0.054770091576194994,0.1319446976502002,nan
1741085395.0715451,-0.10864298960384317,-1.1042343330942663,-0.06482215084934473,0.01100210714651058,nan
1741085395.075449,-0.5953961401798962,-0.7005137772979032,-0.08149249892830318,-0.3068201441296122,nan
1741085395.0793824,-0.8323318857500777,0.007248247990340669,-0.0806536643458969,-0.5515738549420848,nan
1741085395.0832863,-0.5472039686108281,0.5600918343415852,-0.03251155545345923,-0.4426493249672244,nan
1741085395.0871902,0.16776682812932203,0.7229713228609893,0.059231239141287494,0.05404157199032822,nan
1741085395.0910938,0.8828841179943286,0.5827324857541032,0.14561066392525776,0.6521770135131313,nan
1741085395.0949976,1.12546903092055,0.35867906256189347,0.16451136522055804,0.9330535840614526,nan
1741085395.0989015,0.7198718846594306,0.15126528389687047,0.09162395806989973,0.6585995136420544,nan
1741085395.1028054,-0.08663197123309893,-0.11314475752484535,-0.03464030896898505,-0.036228079648773184,nan
1741085395.106709,-0.8030479801576931,-0.5022516871154571,-0.13819932540625884,-0.7264478774814653,nan
1741085395.1106129,-1.0342505352087061,-0.8759929799934235,-0.16084102886351018,-0.9934107823626874,nan
1741085395.1145167,-0.7234436801314138,-0.9132843728081332,-0.10218197786895164,-0.7074448262982918,nan
1741085395.1184206,-0.13376385873188804,-0.3938917938405907,-0.012197036230950429,-0.08911462899794163,nan
1741085395.1223242,0.3817075562819538,0.5138838133022845,0.053668716637345674,0.47708599860409584,nan
1741085395.1262574,0.6190515514526079,1.2643856065121901,0.07547207734789926,0.7133626960623242,nan
1741085395.1301613,0.5940016752809166,1.305993337259169,0.07162010511167317,0.5956616331994591,nan
1741085395.1340652,0.43112551767543034,0.5359767349823553,0.06702866130452394,0.29328261524864174,nan
1741085395.137969,0.21194948634281705,-0.5579889234731537,0.06216860022472218,-0.007544590101212295,nan
1741085395.1418726,-0.06722217444868785,-1.2328149749613166,0.03505896073792812,-0.22908900331178333,nan
1741085395.1457765,-0.40561446086994546,-1.0586989236939701,-0.026791633792560166,-0.38627664868899975,nan
1741085395.1496804,-0.6942721808110376,-0.25465093864818017,-0.0995390475238738,-0.4843045168272042,nan
1741085395.1535842,-0.7346269681801658,0.5029754323423143,-0.13325065553165635,-0.4599215688491318,nan
1741085395.157488,-0.3947122065429018,0.6507403681528279,-0.09470974922409806,-0.23801117228390292,nan
1741085395.1613917,0.22883407524722288,0.20485980367102496,-0.003142978834784476,0.1536661706140016,nan
1741085395.1652956,0.8073171245864671,-0.28251730461982266,0.07884370749363533,0.5394526883323203,nan
1741085395.1691995,0.9770855721718728,-0.24707977748272475,0.09653054234655452,0.6903072235879787,nan
1741085395.1731322,0.6028145934772942,0.34214801616680396,0.05176478487243156,0.49396461783062284,nan
1741085395.177036,-0.1021802136386635,0.9119929233144108,0.0017031060050191234,0.05478177944790059,nan
1741085395.18094,-0.7076681085926484,0.7819995079031021,0.0038718403130289084,-0.37150671515141764,nan
1741085395.1848435,-0.8610953652675942,-0.18532127822677513,0.055868773520774184,-0.5606823061071435,nan
1741085395.1887474,-0.5235826781164156,-1.3610694171182056,0.08899389407956247,-0.46908797771842475,nan
1741085395.1926513,0.028734010297765337,-1.79383233418765,0.029926925807739747,-0.22839180800745748,nan
1741085395.1965551,0.427748971607508,-0.9893105637486169,-0.11976251711008545,-0.004956667167484629,nan
1741085395.2004588,0.47758603017571316,0.6211241900463937,-0.26110062220414054,0.13794497300421352,nan
1741085395.2043626,0.2577174802306552,1.9425357860989436,-0.2642743160988621,0.24881118002633196,nan
1741085395.2082665,0.006483837291918476,2.0324600384096736,-0.07838097246043407,0.37347732377630377,nan
1741085395.2121704,-0.09391024167598112,0.8255877000380105,0.20714266084736577,0.4496590305905885,nan
1741085395.216074,-0.04496082002744328,-0.8180918255279354,0.4097476871474389,0.337783343058931,nan
1741085395.2200065,0.018565140982338656,-1.7794601035863185,0.38274906518304336,-0.022632352156521124,nan
1741085395.2239103,-0.014587187546536595,-1.518956895910613,0.12781770666398318,-0.4837273791222663,nan
1741085395.227814,-0.12452470695962456,-0.41892607115734126,-0.19992388703590896,-0.7414585114117989,nan
1741085395.2317178,-0.1951647456256331,0.6124859309934753,-0.4013621441493655,-0.565476472958487,nan
1741085395.2356217,-0.14334503378276411,0.9050387391295465,-0.3725823573778939,-0.021651521824560038,nan
1741085395.2395256,-0.006851739994372083,0.5073529961423253,-0.1660518022264363,0.5270720125754945,nan
1741085395.2434294,0.0967600334049423,0.014090191539265148,0.06808752712243377,0.682885662590632,nan
1741085395.247333,0.0963128652410371,-0.0514282269018456,0.20392990728288957,0.3416120969582253,nan
1741085395.251237,0.04551226168139105,0.28070925253010204,0.22097661310572594,-0.19754942062069678,nan
1741085395.2551408,0.06488286961518705,0.5060335090223503,0.183737586452921,-0.4638757157511366,nan
1741085395.2590446,0.19603706343993765,0.18513357314975712,0.15228595068056416,-0.21829144818044416,nan
1741085395.2629483,0.3171937404097365,-0.5775352748924314,0.11596542069249492,0.314240782734409,nan
1741085395.2668805,0.22723318813451407,-1.1744076135362869,0.015401000689060796,0.6077605348173785,nan
1741085395.2707844,-0.15167920809475194,-1.0304834888705798,-0.17022924401416606,0.28821397269714205,nan
1741085395.2746882,-0.6347117503273786,-0.14616901250126044,-0.3611815023631124,-0.49789318437006086,nan
1741085395.278592,-0.8546706688050588,0.8587066203763413,-0.41327683518033614,-1.1359869337816166,nan
1741085395.2824957,-0.5384175296609368,1.2571097098487332,-0.2349521202085058,-1.0168160615536055,nan
1741085395.2863996,0.23129312603101962,0.8302240518535112,0.11386106708056522,-0.06388996534540567,nan
1741085395.2903035,1.0026703534095693,0.029532904318880396,0.4364247183318124,1.131033446318281,nan
1741085395.2942073,1.243086895443955,-0.4628444901608579,0.5307066145581053,1.7126930510476623,nan
1741085395.298111,0.7319288827496445,-0.36865388927058246,0.3381375814821879,1.211766900407182,nan
1741085395.3020148,-0.24678447256893998,-0.04532187901073583,-0.011859499588271611,-0.07644771420038451,nan
1741085395.3059187,-1.0798732749274456,-0.0834085582337879,-0.3004400852777227,-1.2981677573413581,nan
1741085395.3098226,-1.2520642760049965,-0.6415188335448486,-0.3811678257613774,-1.6765994253494176,nan
1741085395.3137572,-0.7043540608885754,-1.1742005042032932,-0.27302331631291643,-1.0707160375477862,nan
1741085395.3176608,0.1488098184224351,-0.881353140591993,-0.11331464903219683,-0.017202678372479862,nan
1741085395.3215647,0.7487598316614631,0.4679629342711274,-0.020845564820946315,0.7523029359352271,nan
1741085395.3254685,0.8016699327613073,2.099901627684621,0.004531860316597509,0.8920362744196891,nan
1741085395.3293724,0.44659518434050266,2.689111236474004,0.05708277629904073,0.6292356736396255,nan
1741085395.333276,0.0686842562240728,1.4360616083656916,0.20330373782233901,0.4270665618381723,nan
1741085395.33718,-0.06120435647377755,-1.113017764229174,0.38285539954622255,0.46557111025033876,nan
1741085395.3410838,-0.0030877869956467477,-3.2752750192961697,0.43426969856658976,0.44721806466339536,nan
1741085395.3449876,-0.039038871759812875,-3.429871237378692,0.23366239933113708,-0.06678856307992054,nan
1741085395.3488915,-0.3479686278965732,-1.3059620611738796,-0.17343617514456433,-1.0918517798613339,nan
1741085395.3527951,-0.7687275169627119,1.7013231449157487,-0.570258173642471,-1.9875283927811862,nan
1741085395.356699,-0.8859724083084082,3.516308497989395,-0.7115786985621666,-1.8665149087609825,nan
1741085395.3606331,-0.3917464537579293,2.940442679443237,-0.4996570226193,-0.3799231231499933,nan
1741085395.364537,0.5790840146019994,0.5489217967813116,-0.05083794812324131,1.788128563103685,nan
1741085395.3684406,1.4473446198989885,-1.803736755232216,0.39671120507740854,3.228277385744072,nan
1741085395.3723445,1.5697620110783115,-2.472808058439275,0.6491536905250311,2.7928010826235523,nan
1741085395.3762484,0.7300508895572455,-1.2896250299994403,0.6568091792454994,0.5324502560332678,nan
1741085395.3801522,-0.6433843990314656,0.4288724370887535,0.48011411085338734,-2.1938569234430862,nan
1741085395.3840559,-1.7241757975516974,1.1066236825954192,0.18475860138337738,-3.61078047968202,nan
1741085395.3879597,-1.8372995467234683,0.3035723570480948,-0.20819626595197208,-2.7954850092801333,nan
1741085395.3918636,-0.9147530769138555,-0.9334555517092649,-0.6596607984993302,-0.35690850008723213,nan
1741085395.3957675,0.46984745349755974,-1.0782271905815684,-1.0150915431298284,2.0181448559364474,nan
1741085395.399671,1.4998178316697064,0.38667753074287875,-1.0153581505100944,2.816757963284006,nan
1741085395.403575,1.6458070394934077,2.337354915809298,-0.4733175523516696,1.780337367368464,nan
1741085395.4075089,0.9538806391467787,2.868920367784595,0.5005142667862131,-0.020639753551041046,nan
1741085395.4114125,-0.0748136263902737,0.9904148225543419,1.4391593206978932,-1.1427906692887422,nan
1741085395.4153163,-0.8695653874994453,-2.294980109927628,1.750107016376401,-0.9510383418683394,nan
1741085395.4192202,-1.131618848530904,-4.547385359033042,1.122100175632636,-0.04948228436322059,nan
1741085395.423124,-0.9108555218720176,-3.7667648577936346,-0.19177500517390614,0.37453938620008204,nan
1741085395.4270277,-0.4383535374230888,-0.11282781356498794,-1.4688289683956395,-0.2934122446089009,nan
1741085395.4309316,0.0832557401627581,3.9865614642557965,-1.969718597126398,-1.4601218592874285,nan
1741085395.4348354,0.5492743187028384,5.551437475691529,-1.4355204514447326,-1.8011117750452865,nan
1741085395.4387393,0.8756901569168871,3.3190753112903697,-0.25139036517398106,-0.4827401446485371,nan
1741085395.442643,0.9233332979559529,-1.2143535966126884,0.8557387322833037,1.916694258401234,nan
1741085395.4465468,0.5594810893639068,-4.84504439226048,1.3476000306868283,3.6465224023795333,nan
1741085395.4504507,-0.1698926783591736,-5.0350779413784155,1.2070166842209333,3.1042350821941334,nan
1741085395.454384,-0.9366000388866793,-1.7869458554718805,0.8128301794301814,0.22102299106261494,nan
1741085395.458288,-1.258594705174328,2.4191575875591225,0.49479085083830215,-3.248382865911956,nan
1741085395.4621918,-0.8304419244520793,4.548172447103478,0.1958870611821366,-4.879450447913353,nan
1741085395.4660954,0.18320162178431632,3.277094339055103,-0.4158257312446206,-3.370865402873485,nan
1741085395.4699993,1.1604918014229213,-0.13505529588293622,-1.458803805751492,0.3949352727859059,nan
1741085395.4739032,1.404380130089896,-2.973637482031672,-2.440573485670744,3.89219704162209,nan
1741085395.477807,0.6570512597966428,-3.220661834625927,-2.4214696135465044,4.748007913077598,nan
1741085395.4817107,-0.6397539261730668,-1.0169812710102044,-0.7584377050198535,2.464877172001614,nan
1741085395.4856145,-1.5811345357964066,1.647076870432926,2.1154444076084418,-1.232919149329686,nan
1741085395.4895184,-1.4181036171918904,2.6441627121817395,4.600587903932307,-3.69665509849747,nan
1741085395.4934223,-0.13597561681866904,1.3813165362671516,4.820449474781798,-3.31171375442232,nan
1741085395.4973261,1.44756635025267,-0.8806096911890235,2.0019842239030314,-0.6376056154617786,nan
1741085395.5012593,2.188973546157085,-2.204340229627191,-2.660892440843061,2.112218329520916,nan
1741085395.505163,1.4181178749092396,-1.591681021197499,-6.450306015469723,2.8176041420856324,nan
1741085395.5090668,-0.5230740433578817,0.2933552481828174,-6.774388130741501,1.0679458653574834,nan
1741085395.5129707,-2.4133860015015642,1.8053628091011442,-2.9837707162329,-1.5813594615662576,nan
1741085395.5168746,-2.919843210292789,1.7391396698804453,2.9476206926139232,-2.8759631201795357,nan
1741085395.5207782,-1.51323980381436,0.27701600696309114,7.488429540157428,-1.6497324093073877,nan
1741085395.524682,1.0913123001392737,-1.2742929554558278,7.765729993361358,1.247767745328143,nan
1741085395.528586,3.3045854225247493,-1.6467056606346513,3.4723487946309497,3.5825160715607014,nan
1741085395.5324898,3.648322223829877,-0.6475866455062038,-2.8537806904183314,3.4314848687304496,nan
1741085395.5363936,1.7347944646674067,0.7733332062829567,-7.4139982353426355,0.6562197787863905,nan
1741085395.5402973,-1.4073536527483956,1.404510642639593,-7.556531769903114,-2.9411605962835,nan
1741085395.5442011,-3.9078259984699475,0.7954281775212845,-3.40514051951591,-4.879820184492205,nan
1741085395.5481339,-4.197865241980532,-0.43775798738992366,2.3430727484027463,-3.7460724458467682,nan
1741085395.5520377,-2.008270368123591,-1.217025458618771,6.242123846424292,-0.1732698682248757,nan
1741085395.5559413,1.4206400697435821,-0.9356035402349981,6.264558027685419,3.6021488136196846,nan
1741085395.5598452,4.071208872864391,0.08758933402690955,2.8870303167502196,5.24402614783416,nan
1741085395.563749,4.377466084819353,0.9661456375316376,-1.5021912991748732,3.81365410806618,nan
1741085395.567653,2.1819809642681336,1.0356828131713778,-4.307517546827798,0.2777469945482284,nan
1741085395.5715566,-1.1818416071704765,0.36485923390550795,-4.308623076435463,-3.217892977991955,nan
1741085395.5754604,-3.728801532888623,-0.41273378182752546,-2.1277625809930885,-4.729665977895473,nan
1741085395.5793643,-4.042232924218419,-0.7186041499258435,0.530787134069047,-3.6238483222008817,nan
1741085395.5832682,-2.1003077077054924,-0.5022841181703409,2.149934598044299,-0.7757463406315472,nan
1741085395.5871718,0.797029488328649,-0.16241097412715905,2.2490611311300595,2.123841477808321,nan
1741085395.5910757,2.9123164680198843,-0.057418927311600046,1.3525093063157934,3.606514392207069,nan
1741085395.5950081,3.1587289943867676,-0.12484528174367171,0.32014332974620185,3.1596275191172825,nan
1741085395.598912,1.6849173883052369,0.006295690225990857,-0.32516909955663537,1.3125338246999902,nan
1741085395.6028156,-0.3764289281558533,0.530763984390008,-0.5905211221835927,-0.83036448381088,nan
1741085395.6067195,-1.7521856659154282,1.1198769324712636,-0.726228314483494,-2.2400255143169137,nan
1741085395.6106234,-1.845319358703614,1.1166804020918915,-0.8394516458072887,-2.427476588242964,nan
1741085395.6145272,-0.9819842888230802,0.161514830042469,-0.7831624757789085,-1.547957461429108,nan
1741085395.618431,0.003912079448776173,-1.3174804165999099,-0.37475413918238104,-0.19059301772378998,nan
1741085395.6223347,0.4637143490225009,-2.2660060098217794,0.31927011736522,0.9732089282077089,nan
1741085395.6262386,0.3614667644013866,-1.7886802895932687,0.937151357865091,1.4986380820063852,nan
1741085395.6301425,0.15026679604699614,0.05142007852499583,1.0767864266120606,1.3132826146144119,nan
1741085395.6340463,0.265048194468337,2.1185672636185098,0.6276305973954501,0.6689181351633876,nan
1741085395.63795,0.6891043116866861,2.9577181164014825,-0.11795913895992681,-0.04687283145031665,nan
1741085395.6418822,0.9608688373368186,1.8807159244631693,-0.6776464608242903,-0.527874383288859,nan
1741085395.6457858,0.6046416245049876,-0.46330180865865256,-0.7398761032090284,-0.6781647656485925,nan
1741085395.6496897,-0.38925803210853055,-2.509997861575162,-0.3753651103468741,-0.5934900193933103,nan
1741085395.6535935,-1.4540100639032865,-2.8983628820123197,0.06269200748622131,-0.430943116682379,nan
1741085395.6574974,-1.8236607677018501,-1.4396268554469092,0.247409244900937,-0.2744805283414591,nan
1741085395.6614013,-1.1165049747080174,0.7910281344331378,0.1293287147437636,-0.0975188532129987,nan
1741085395.665305,0.33315734470664266,2.280505741636979,-0.0692837227593994,0.15968858653099935,nan
1741085395.6692088,1.663990500720365,2.163742482328122,-0.0876732782759986,0.4769480138019517,nan
1741085395.6731126,2.065842191178828,0.7527821272035784,0.12967264899257816,0.7149528529662309,nan
1741085395.6770165,1.321092678311294,-0.8289638154727843,0.3882982231649648,0.6966486443266992,nan
1741085395.6809201,-0.0787555740287692,-1.5429055520517956,0.424276935300057,0.35020198106816647,nan
1741085395.684824,-1.2995129246827566,-1.1377632478335415,0.1429977533134664,-0.20427060181041626,nan
1741085395.6887584,-1.7183486574319502,-0.16881688070713147,-0.2906603213276952,-0.7029539643926545,nan
1741085395.6926622,-1.2640357738642665,0.5699112969109881,-0.5811236241679492,-0.8944368905276795,nan
1741085395.696566,-0.3445281613432572,0.6694493989043365,-0.5336664515116134,-0.6916634074598497,nan
1741085395.70047,0.5110052055599505,0.2993148102096177,-0.19530992280341639,-0.21308858985760196,nan
1741085395.7043736,0.9848828096790986,-0.0892067674988674,0.19998522681718706,0.3056765628761216,nan
1741085395.7082775,1.0521444465654508,-0.2027912891447161,0.4197263603093068,0.653512176578895,nan
1741085395.7121813,0.832248774331793,-0.09119613164650502,0.3922421355988773,0.7369760586608892,nan
1741085395.7160852,0.4163685346861417,0.02133206383673485,0.2175077581153345,0.5795819226761056,nan
1741085395.7199888,-0.15470283185299233,0.020034298350280203,0.04639739498317978,0.26246577480257205,nan
1741085395.7238927,-0.7770070250904051,-0.005955462978084011,-0.04924494086030876,-0.1247455294681867,nan
1741085395.7277966,-1.2051713266218764,0.07148940957791936,-0.1046507437852643,-0.4891896719988645,nan
1741085395.7317004,-1.1509660211015909,0.20831856606358562,-0.18268886770264606,-0.7225318665190044,nan
1741085395.7356343,-0.5147696813839241,0.19020722736536674,-0.27914591750416257,-0.719485261003797,nan
1741085395.7395382,0.45485482186625875,-0.12521979650957726,-0.30945604360228746,-0.43801437909644425,nan
1741085395.743442,1.2517960669685813,-0.5733548871780402,-0.18904538242458382,0.0443514150182303,nan
1741085395.747346,1.426616733215978,-0.7357147017407707,0.07107105725046867,0.5388752336107017,nan
1741085395.7512496,0.8931822984959981,-0.2992441450693989,0.3458232305770434,0.8327175176176103,nan
1741085395.7551534,-0.01803623336940513,0.5815695374848394,0.47621179348616843,0.8011298994646958,nan
1741085395.7590573,-0.8048629278982494,1.2870326536537935,0.38179234862257916,0.46630822643906683,nan
1741085395.7629611,-1.1349214137365964,1.1776932356884608,0.11373147420661882,-0.03229820467475098,nan
1741085395.766865,-1.008354487077903,0.15417401977693673,-0.18829213657727537,-0.5198243496815459,nan
1741085395.7707686,-0.6347325190372386,-1.1548501680468908,-0.39079733752630824,-0.8508994959565721,nan
1741085395.7746725,-0.1783958292615337,-1.797600281257545,-0.4341518204129849,-0.9241092637937448,nan
1741085395.7785764,0.3596871292749709,-1.2260650906936332,-0.33225409600166483,-0.6769370062295833,nan
1741085395.78251,1.0021226908684193,0.23049686323426097,-0.13018619436241885,-0.1143755516670459,nan
1741085395.786414,1.5550784204262649,1.5573527242864689,0.12406354275582607,0.6261025964738217,nan
1741085395.7903178,1.570792566510271,1.800424208945721,0.36936505522376595,1.2462323354331486,nan
1741085395.7942216,0.6613048813993205,0.795688259500597,0.5139054113759657,1.3823989297270258,nan
1741085395.7981253,-1.0361239593570817,-0.698459818451989,0.4595524011510328,0.8240384175241466,nan
1741085395.8020291,-2.6744551048837977,-1.5814631631939813,0.17447618934125406,-0.2766434504404099,nan
1741085395.805933,-3.0917520355797454,-1.2513739968068687,-0.24292143202691005,-1.3881887072874406,nan
1741085395.8098369,-1.6306827416304093,-0.04578266415883271,-0.582531700872421,-1.8592972174575277,nan
1741085395.8137405,1.1964380012546245,1.055467736840828,-0.6397457755724805,-1.330633373958202,nan
1741085395.8176444,3.7884201128913086,1.2146593575737101,-0.3589374367256112,-0.022260008437607177,nan
1741085395.8215482,4.386657231038417,0.37793071144078144,0.10890023955111729,1.3384815551795055,nan
1741085395.825452,2.301225179835239,-0.7231245666209395,0.4927899615683034,1.947473186984626,nan
1741085395.8293855,-1.445214101752376,-1.1841444821935938,0.5800372042429935,1.4431002878905406,nan
1741085395.8332894,-4.611460892360447,-0.646328470143512,0.355968359731295,0.1533759807085584,nan
1741085395.8371933,-5.140774895675989,0.4469797366668419,-0.00033065035978788144,-1.1160410735321638,nan
1741085395.841097,-2.554815863073754,1.2306080294425814,-0.25824289830329855,-1.615512309250393,nan
1741085395.845001,1.642555967171669,1.1021692627112474,-0.3016088746775411,-1.134641758306384,nan
1741085395.8489046,4.882531088249679,0.16404277342240126,-0.18929000756259604,-0.09904655135560217,nan
1741085395.8528085,5.1826431716074906,-0.8960053659682135,-0.07190303901855703,0.7712824604739655,nan
1741085395.8567123,2.4206188080234767,-1.3471565852985432,-0.04616160400688612,0.9760053349776138,nan
1741085395.8606162,-1.6257101822736044,-0.9347336030898468,-0.0759478222531043,0.5430923591633298,nan
1741085395.8645198,-4.474649356911268,0.001954560153302767,-0.04548903299171712,-0.07195574018334558,nan
1741085395.8684237,-4.5355325618491396,0.8420538065618688,0.10884470323960041,-0.38322006562825794,nan
1741085395.8723276,-2.031946036072113,1.1314823004977315,0.31214942001399354,-0.2420651197629588,nan
1741085395.8762608,1.303435355911964,0.8246543705018051,0.3948488809391491,0.10077121909251717,nan
1741085395.8801646,3.45760307564852,0.19985621943786652,0.23636096107718718,0.2562320936293298,nan
1741085395.8840683,3.398240346823563,-0.4010933606433121,-0.11348996623852761,0.04456501411910724,nan
1741085395.887972,1.5492858174838227,-0.7678362186185266,-0.4451279621992275,-0.35777028169778385,nan
1741085395.891876,-0.7160366267872261,-0.8388604613499625,-0.5341046227805303,-0.5789781859725458,nan
1741085395.8957798,-2.083307679108823,-0.6200960710334266,-0.3094206021953118,-0.3733808568564215,nan
1741085395.8996835,-2.066945312965861,-0.1493913967046532,0.08849899700254825,0.16544712763026925,nan
1741085395.9035873,-1.0897792081173683,0.45038275592929966,0.4072741217696373,0.6688502189617158,nan
1741085395.9074912,0.02942254065556009,0.9286606498120901,0.46194876101640775,0.7748010836440443,nan
1741085395.911395,0.6985725841163833,0.9947602542741707,0.2563207611648252,0.39917250198622417,nan
1741085395.915299,0.8334911101995603,0.5238900747289011,-0.0408093587562011,-0.21029196951581997,nan
1741085395.9192026,0.6954774560826872,-0.2837421861193645,-0.2345234531628701,-0.6639634835485602,nan
1741085395.923138,0.5347320540145759,-0.9659826978804835,-0.2419610228712807,-0.7049441481007509,nan
1741085395.9270418,0.3773276782664352,-1.090051408887363,-0.12599344480506838,-0.36195172143608445,nan
1741085395.9309456,0.09839236698124504,-0.5694990017195273,-0.013769637543135838,0.11192100601538921,nan
1741085395.9348493,-0.3492139710703314,0.25067807481652205,0.018112852965078304,0.43824707041868793,nan
1741085395.9387531,-0.7983753007958958,0.8309380093522039,-0.006317430536582922,0.4869857711161818,nan
1741085395.942657,-0.9583414027719237,0.8260091002981784,-0.009015540011452307,0.3116212750245446,nan
1741085395.9465609,-0.6502990719952649,0.3234912927082065,0.052839684266154235,0.05806648034759918,nan
1741085395.9504645,0.020916617389359318,-0.2538676634420844,0.1403639487612947,-0.15096252245859523,nan
1741085395.9543684,0.7071485228108382,-0.49567010899817504,0.16909422555009418,-0.2655979468704593,nan
1741085395.9582722,1.0384271002447563,-0.31375955993512156,0.09048365645646426,-0.28380603451361835,nan
1741085395.962176,0.8551852441414058,0.03236159777806513,-0.057669659321418563,-0.21053102424937933,nan
1741085395.96608,0.28756408189127153,0.19609200350867437,-0.17753506555981308,-0.05510231057528249,nan
1741085395.9700124,-0.35240446895307925,0.052802482758329855,-0.19016575617229226,0.13852178697119724,nan
1741085395.9739163,-0.7655522775738556,-0.20952629682774426,-0.09738023831781895,0.2805678726819379,nan
1741085395.97782,-0.8101639165438936,-0.2850730156176057,0.02546930881656911,0.2795577959605394,nan
1741085395.9817238,-0.5273147115972391,-0.045949037333053284,0.09575711629865767,0.11659532981126482,nan
1741085395.9856277,-0.0744317214772209,0.3291620568277949,0.08863359875776837,-0.11862034911155978,nan
1741085395.9895315,0.3614213893418787,0.5083224688796114,0.04573356291732987,-0.27605091520103686,nan
1741085395.9934354,0.624394185700464,0.30432507888672733,0.025382736119772445,-0.2512912960512239,nan
1741085395.997339,0.6258711033985445,-0.14843365631313843,0.04387465390414194,-0.0660450570527386,nan
1741085396.0012429,0.37170786244724385,-0.49735897743202734,0.06225943340663478,0.145915796504201,nan
1741085396.0051467,-0.026635933953158435,-0.468137308506014,0.029000380436888105,0.2396227798135797,nan
1741085396.0090506,-0.3853579919221964,-0.09752214579776436,-0.06283865790587208,0.16578763429391066,nan
1741085396.0129542,-0.5347935918767074,0.2994435976384721,-0.15810839288083064,-0.0019233148188292338,nan
1741085396.0168865,-0.41768288355708755,0.39934565187150406,-0.17985527659272119,-0.13647695448302188,nan
1741085396.0207903,-0.12782504220898722,0.1443680317026714,-0.09365933129044428,-0.15986521182711536,nan
1741085396.0246942,0.1513013831704083,-0.21488499442234704,0.05907835743126454,-0.09122675199690157,nan
1741085396.0285978,0.2720266558724863,-0.3424296374213349,0.18735567211239837,-0.007363180059755994,nan
1741085396.0325017,0.21877678306977716,-0.1119916301475861,0.21481027239169428,0.037721904040166905,nan
1741085396.0364056,0.09917610793621477,0.2798883159314254,0.13077648249156554,0.054627848158450634,nan
1741085396.0403094,0.03852112859461097,0.47936871012044896,-0.008948114063007011,0.08500950880020522,nan
1741085396.0442133,0.06807956477418028,0.2783103910147244,-0.12612375772259105,0.13310058567607824,nan
1741085396.048117,0.1041794961112373,-0.20156364946506478,-0.17028553111740163,0.13990041221805372,nan
1741085396.0520208,0.03667391101898144,-0.5975813675265423,-0.13901509412285226,0.03724081242184529,nan
1741085396.0559247,-0.15200365637774735,-0.5936085480890018,-0.06282035357001059,-0.1634256211414041,nan
1741085396.0598285,-0.3466075242131628,-0.1702427605645751,0.02246986098853292,-0.338712964255778,nan
1741085396.0637627,-0.38124975076146633,0.38118215964874824,0.0908741112362542,-0.32888488032913393,nan
1741085396.0676665,-0.18005297698880582,0.6830970643067512,0.12481574227894433,-0.07524181216820244,nan
1741085396.0715704,0.16331300880372368,0.5489798347930575,0.1118445202548254,0.29640993414607153,nan
1741085396.0754743,0.4400551007079271,0.09952803923136842,0.05191512624480777,0.534735405805321,nan
1741085396.0793781,0.47615786470866855,-0.35367340389454677,-0.03129066492826666,0.44088076369645135,nan
1741085396.0832818,0.25831728840076895,-0.5438110154106763,-0.09384094069566913,0.03479902915080074,nan
1741085396.0871856,-0.06420702897624585,-0.41511276449864987,-0.0978859671056888,-0.4292527297515506,nan
1741085396.0910895,-0.2986113629275057,-0.11196031948759505,-0.04353053277508559,-0.62925926594498,nan
1741085396.0949934,-0.3467173803152596,0.16451454482739625,0.024413056935266773,-0.41081920231850544,nan
1741085396.098897,-0.2509651252920445,0.29659540727395756,0.04874859868328487,0.08659776272304877,nan
1741085396.1028008,-0.12228590535184936,0.285505491811174,0.009529197688027133,0.5174458822471071,nan
1741085396.1067047,-0.02742094737520754,0.19053288242705213,-0.05258907742344453,0.5767316394895174,nan
1741085396.1106389,0.056853919309162414,0.05795186767176495,-0.06621106973196049,0.22550237421108982,nan
1741085396.1145425,0.18415811955922318,-0.09087174012057066,0.0064196359570953985,-0.2753344306020439,nan
1741085396.1184464,0.33924784017830745,-0.22251661576572765,0.1248382558828025,-0.5532983217592592,nan
1741085396.1223502,0.4075195273507817,-0.2717319418982092,0.19040184002434707,-0.3990029294996032,nan
1741085396.126254,0.2608757041478274,-0.18175845213796166,0.12369424736454458,0.07524889117227977,nan
1741085396.1301577,-0.10528445709650829,0.02657530859787115,-0.0606555394072292,0.5120437667489194,nan
1741085396.1340616,-0.5116652018983449,0.2340458231511892,-0.24765222625647143,0.5680441090344676,nan
1741085396.1379654,-0.6883188143485756,0.293236946866905,-0.29889021236991153,0.1695864301194075,nan
1741085396.1418693,-0.470164431606126,0.14594657763856775,-0.15844124349774885,-0.4205009209362095,nan
1741085396.1457732,0.05513063880164305,-0.11244335448862357,0.0958099043797745,-0.7767529066492391,nan
1741085396.1496768,0.5761752517443876,-0.28931825179775783,0.30041362410418754,-0.6080198538199231,nan
1741085396.1535807,0.7609509552731322,-0.23985283364969034,0.32154172432263267,0.0271056460292009,nan
1741085396.1575143,0.4907216497885105,0.01245305075563277,0.15027922041245687,0.737451740721466,nan
1741085396.1614182,-0.0517261045827665,0.28163830948127105,-0.09438085194934066,1.0445979701434418,nan
1741085396.165322,-0.5102258203528341,0.35481790028800814,-0.2550936678392727,0.6994342723653592,nan
1741085396.169226,-0.6063140665475102,0.15545589997166182,-0.24720717902462064,-0.13699939228134742,nan
1741085396.1731298,-0.32649310583865454,-0.1920013462303847,-0.10723050744757523,-0.9717202811982657,nan
1741085396.1770334,0.08998926852236606,-0.4465061343773453,0.05143538414414309,-1.2767927730058872,nan
1741085396.1809373,0.3442475336561184,-0.4204910890381492,0.13140784800571148,-0.8238234830231165,nan
1741085396.1848412,0.2978202902264613,-0.11114675297749783,0.11553761846513269,0.15540328299414255,nan
1741085396.188745,0.05372533130421456,0.29716630014394174,0.05720881872843466,1.0914484711897439,nan
1741085396.1926486,-0.1516907555546337,0.5534939200882737,0.017372646560854587,1.417434320727599,nan
1741085396.1965525,-0.14839982972720747,0.49683865028761626,0.010507159012232703,0.9207554946423789,nan
1741085396.2004564,0.03752900344031125,0.14947696390847157,0.005447284837455597,-0.11581685399552856,nan
1741085396.2043898,0.22014794311219305,-0.30022644518264174,-0.028117018115225587,-1.0799512225989218,nan
1741085396.2082937,0.21630458662144478,-0.6041227527580529,-0.07861275852091432,-1.4049726774297504,nan
1741085396.2121973,-0.0010013745602303922,-0.5872317592780988,-0.09940362581229288,-0.918591262572681,nan
1741085396.2161012,-0.27899753110184217,-0.24247139388524938,-0.0567827850299586,0.058765299670485265,nan
1741085396.220005,-0.40413065781582114,0.2561173490314079,0.029394264537519525,0.9286254064477591,nan
1741085396.223909,-0.26615131052981045,0.6335098176761916,0.09552042845341081,1.1980813491235154,nan
1741085396.2278125,0.05877468380203492,0.6600591166864288,0.0894119518871008,0.7770858303475333,nan
1741085396.2317164,0.3635207924194629,0.2951317971657909,0.020220111263811662,-0.002130818565622401,nan
1741085396.2356203,0.4558827460306944,-0.2614974204045203,-0.04632155277456813,-0.6396413169471497,nan
1741085396.2395241,0.285692876297922,-0.6669756679172187,-0.047399873531802826,-0.8045837765640943,nan
1741085396.243428,-0.032486448055865425,-0.6479230595819488,0.015552986629081977,-0.5172897858561629,nan
1741085396.2473316,-0.3055385546598417,-0.1988151843532602,0.07295806284059099,-0.06771324356491823,nan
1741085396.2512648,-0.3875723609893352,0.3842866699560043,0.05008095540044764,0.2385206659448346,nan
1741085396.2551687,-0.25996967805751375,0.6891528951031918,-0.05676408919761992,0.29626136007604975,nan
1741085396.2590725,-0.02327842790531472,0.4834997574823744,-0.16273586694143946,0.21981823950826465,nan
1741085396.2629764,0.17914975878968922,-0.09354507702421679,-0.16016815438281237,0.17852102764424238,nan
1741085396.2668803,0.24858304568893078,-0.6087220144408991,-0.01693920722357391,0.21333189668672878,nan
1741085396.270784,0.17751498679196853,-0.6502724569814441,0.17904466134779856,0.2035663092501599,nan
1741085396.2746878,0.037425948010902765,-0.15480991310110798,0.27673565581225973,0.010546322834807786,nan
1741085396.2785916,-0.07503324322417702,0.5158797412760555,0.1822120013751872,-0.34018665343079474,nan
1741085396.2824955,-0.09817008409296599,0.8321455172149614,-0.05530528473533671,-0.6196771852847414,nan
1741085396.2863991,-0.03872691258303579,0.5076293621421264,-0.2686470174034197,-0.5599014836799227,nan
1741085396.290303,0.03798810619552162,-0.25576746036156683,-0.2973417930680977,-0.09694939253987109,nan
1741085396.2942069,0.0553404867954887,-0.8972405291471393,-0.11524336187291886,0.5198479621172503,nan
1741085396.2981396,-0.017394189627764206,-0.9184748164297204,0.1434881471888327,0.8717167337539234,nan
1741085396.3020434,-0.13504773973491413,-0.27408876702060203,0.28559493309344064,0.678419055227292,nan
1741085396.3059473,-0.1994627476889521,0.5810269184862299,0.20915259790566007,0.03185985635788453,nan
1741085396.309851,-0.1281285639473899,1.0337446863963689,-0.017081910166604455,-0.6427122358761623,nan
1741085396.3137548,0.07470782514430371,0.7782950444441495,-0.21005663381239967,-0.8867988778732265,nan
1741085396.3176587,0.2993094983125539,0.0371911883968414,-0.2196081760312621,-0.5464712902760445,nan
1741085396.3215625,0.38976414297453327,-0.6339199866323456,-0.047582304998428936,0.11532388657515799,nan
1741085396.3254664,0.2509030460910226,-0.7907779939284781,0.15712744953882365,0.6225907689822023,nan
1741085396.32937,-0.07055789351665724,-0.42786925741735715,0.22243232241891372,0.6470273494130117,nan
1741085396.333274,-0.39627395041883423,0.07174381649121178,0.09400809392088068,0.24193134106214972,nan
1741085396.3371778,-0.5228936406659594,0.3012938698568698,-0.12138349578275034,-0.23038230093591783,nan
1741085396.3410816,-0.35754878348215957,0.1814935310549625,-0.24434720057767007,-0.40818955354069153,nan
1741085396.3450139,0.01341533552049108,-0.009941658754077291,-0.1697916158613598,-0.21755744121137752,nan
1741085396.3489177,0.37541638270088656,0.05202988432669722,0.04737301739295141,0.09669259382940068,nan
1741085396.3528216,0.5237825878400917,0.38209751801927705,0.23626113012807182,0.2110310826615497,nan
1741085396.3567255,0.3923481484616168,0.6232154437791146,0.24672344244369365,0.020275461011541585,nan
1741085396.3606293,0.08330460505638769,0.3666019759341286,0.0682333266966301,-0.2682449347839384,nan
1741085396.364533,-0.21638325154283441,-0.4149839820044044,-0.1628644377928087,-0.3268940223249295,nan
1741085396.3684368,-0.36316893413563645,-1.223382028332354,-0.27084277531640494,-0.019733270967176003,nan
1741085396.3723407,-0.3336691668829352,-1.363106336693057,-0.17591968793014565,0.4425614417728088,nan
1741085396.3762445,-0.20260395592530708,-0.5178661684678169,0.04777145028073089,0.6543338438694135,nan
1741085396.3801482,-0.056987448171129114,0.8967355060401693,0.23250669593388124,0.3602902792560999,nan
1741085396.384052,0.07119712945451734,1.9388853802056119,0.24432407274738552,-0.29468375863690605,nan
1741085396.387956,0.197636695318813,1.803196519309822,0.07889572722437756,-0.8366316458528315,nan
1741085396.3918881,0.32169441416905786,0.45167875867590057,-0.14211437988758946,-0.8203888102804792,nan
1741085396.3957918,0.37966780882846507,-1.28868359277165,-0.2637554809016755,-0.19596241746944362,nan
1741085396.3996956,0.2755884449113089,-2.27195622397217,-0.20605007425651567,0.6181828820892274,nan
1741085396.4035995,-0.023604942854835564,-1.8368398016745648,-0.01153472704022889,1.0315371960808692,nan
1741085396.4075034,-0.41118675717492986,-0.27402832316671283,0.19249988174506052,0.727949353758182,nan
