timestamps,TP9,AF7,AF8,TP10,Right AUX
1741052931.4122937,-0.17330982888238042,-0.24552980575096744,-0.3239946793844263,-0.5517553937557722,nan
1741052931.4161985,0.11504724956367147,0.0770234967387147,-0.5185025382210107,-0.08832462220591127,nan
1741052931.420103,0.37408390829905813,0.2998803492548321,-0.35973214382593127,0.43469812232307015,nan
1741052931.424008,0.4067667925363204,0.18735563579224732,-0.027301110044640677,0.6483767782528121,nan
1741052931.4279127,0.17189982145365332,-0.17985355171568887,0.20844684701788668,0.4173270801521783,nan
1741052931.4318175,-0.17527772319047036,-0.46829233070990794,0.20783508064333572,-0.06853071496687038,nan
1741052931.4357224,-0.398381079514467,-0.38187797322444045,0.05300862765138192,-0.4521011588299403,nan
1741052931.4396272,-0.3592925219533058,0.06860404296247616,-0.05563137199574384,-0.48498139947536695,nan
1741052931.443532,-0.11585621596382935,0.5497425742848979,0.004228499732084258,-0.20048819157152012,nan
1741052931.4474368,0.13886896110918479,0.6654176802921602,0.16370242447593283,0.1444825529615659,nan
1741052931.4513414,0.23891421421445486,0.28280144576275945,0.23057770045644924,0.2946474516240017,nan
1741052931.4552462,0.16932241521194458,-0.34386692720700485,0.07535452097753555,0.19376016209588712,nan
1741052931.4591684,0.050573969758850576,-0.7574481454833886,-0.23151545289537015,-0.003545098457954358,nan
1741052931.4630733,0.007890610253581882,-0.6466026613673412,-0.457056941580463,-0.09685875930132322,nan
1741052931.466978,0.05057809711962291,-0.08407325358822336,-0.3932613065972571,-0.024137118388636646,nan
1741052931.470883,0.07326778412853663,0.5298618916446235,-0.03906041957408897,0.09821358713553074,nan
1741052931.4747877,-0.024194621443709773,0.7686042148920849,0.3786107421557463,0.10503957050918389,nan
1741052931.4786925,-0.21432653265066845,0.4878586960417528,0.5685862683447545,-0.04656143443934998,nan
1741052931.482597,-0.34011690909977127,-0.08944147257802415,0.3956291824668963,-0.2271821212683144,nan
1741052931.486502,-0.24815509484114506,-0.5588980257499091,-0.017902430178309604,-0.25375969169151036,nan
1741052931.4904068,0.057171505452663474,-0.6313807805076592,-0.38726943869552627,-0.06720740132902965,nan
1741052931.4943116,0.3830603785165875,-0.3140458219789792,-0.47820996688296097,0.19787753169977004,nan
1741052931.4982164,0.4850513404780492,0.1392221193375517,-0.26921301497273914,0.32220919684336824,nan
1741052931.5021212,0.26651193832313214,0.4375501303378329,0.05630981651409836,0.19651582368015683,nan
1741052931.5060427,-0.12863661823170786,0.44617530499410823,0.26715687179183345,-0.07405194493475284,nan
1741052931.5099473,-0.4178288338585945,0.23053566939422435,0.2561982609692539,-0.2559894545622098,nan
1741052931.5138521,-0.40070831727323525,-0.04323659405034256,0.09454303782076025,-0.1938135670033473,nan
1741052931.517757,-0.11760967225273972,-0.23980591352077466,-0.0574147470643145,0.04638288194874981,nan
1741052931.5216618,0.18863852743727422,-0.3123077601242896,-0.09144301910602116,0.23015716937852262,nan
1741052931.5255666,0.277681705514273,-0.27221917338144486,-0.02492186257303638,0.16567136625049217,nan
1741052931.5294714,0.11084137535326172,-0.13889070789201677,0.04221220336353793,-0.11214419948266074,nan
1741052931.5333762,-0.12503982394614555,0.0655289894047118,0.03228245199816021,-0.3543231507303068,nan
1741052931.537281,-0.1894989666364488,0.280555953908822,-0.042741341442461445,-0.30917348229459973,nan
1741052931.5411856,-0.007285388666430996,0.3950717110128874,-0.1047472807512416,0.04482814888855417,nan
1741052931.5450904,0.2576114021175834,0.3052912866831233,-0.09063347420521405,0.45180943172594634,nan
1741052931.5489953,0.3414807339482174,0.011812625707073391,-0.010370609753173275,0.5725098889520053,nan
1741052931.5529158,0.11732061368537013,-0.3355555183328673,0.06878303289444142,0.2669927854696265,nan
1741052931.5568206,-0.2766316470600541,-0.5110647756977257,0.08948171605878862,-0.27143452875021035,nan
1741052931.5607255,-0.5336578189564481,-0.37142725658808096,0.05466455465673564,-0.6521701228696198,nan
1741052931.5646303,-0.42694265438955914,0.02014007800001266,0.014734055225690433,-0.5903156570264765,nan
1741052931.568535,-0.003707083972187005,0.4144670276414496,0.009602062380808761,-0.13133868713368607,nan
1741052931.5724397,0.43990146078034476,0.5436834794688569,0.026897446114028018,0.3864664854231883,nan
1741052931.5763445,0.5868181186177747,0.315962893375157,0.018865867724012164,0.5997694425305711,nan
1741052931.5802493,0.3445847570730588,-0.11252774608742999,-0.040191968622146294,0.39760025847079117,nan
1741052931.5841541,-0.0909135239461342,-0.4482362214730813,-0.1162956805880544,-0.01522010203692571,nan
1741052931.588059,-0.4005372759819055,-0.47149595833341906,-0.13998128075554722,-0.3089600403724707,nan
1741052931.5919638,-0.39410040289986276,-0.1885269776372776,-0.07257996977714129,-0.3027513770575286,nan
1741052931.5958686,-0.1418224343592505,0.18710914562426664,0.04989791818508135,-0.08925412575913282,nan
1741052931.5997965,0.11373897110860505,0.4005656762495798,0.14189176521285257,0.08359609249556146,nan
1741052931.6037014,0.17663146957800993,0.33593379002589535,0.14305130495301888,0.0543751175468407,nan
1741052931.6076062,0.05417306561706549,0.07717981641625454,0.07208176834555784,-0.10796478571550107,nan
1741052931.611511,-0.07732697280242992,-0.18056783405664364,0.004963675217683779,-0.1842418786841827,nan
1741052931.6154158,-0.05433621817043025,-0.2832160097789844,-0.004940340545338431,-0.03000418988617183,nan
1741052931.6193204,0.11524659648564721,-0.21106881981903042,0.013768234429401848,0.2658564509895565,nan
1741052931.6232252,0.2598196400181018,-0.055613671138834544,-0.022118383477469396,0.44116574853115637,nan
1741052931.62713,0.20781336338000925,0.076875776391637,-0.15216511296350418,0.29372531158801035,nan
1741052931.6310349,-0.04419697960950316,0.1416744529635004,-0.296911883944003,-0.11876193802532141,nan
1741052931.6349397,-0.31398908896169936,0.15511118932786147,-0.29437957894104594,-0.49788746237595777,nan
1741052931.6388445,-0.3856334880671216,0.1402327603614241,-0.0418396026084436,-0.5403510843205335,nan
1741052931.6427493,-0.19665849730104187,0.08798545092084854,0.3716158161523616,-0.19502335394424497,nan
1741052931.646666,0.10653220606666257,-0.0230473297777766,0.674373981645766,0.2812917820735701,nan
1741052931.6505706,0.29490538345561146,-0.1732456079816638,0.5923927418487606,0.5253080169555274,nan
1741052931.6544755,0.25230221139207004,-0.28042654331883604,0.07918086858904871,0.3621644912194762,nan
1741052931.6583803,0.06581067458105877,-0.24824468236704086,-0.5928378323841222,-0.053339866635367834,nan
1741052931.662285,-0.06850148167455494,-0.05228279747296339,-0.9817611165506323,-0.36931428836476726,nan
1741052931.66619,-0.036334142620203694,0.2140453591087537,-0.7828936561054802,-0.3323653819588531,nan
1741052931.6700947,0.08527807270188573,0.3862197651915797,-0.07010215309592391,0.0027599093676599273,nan
1741052931.6739995,0.10546876410183302,0.34251417846678733,0.7222996435270503,0.325658362079412,nan
1741052931.6779044,-0.0820120047282639,0.09752734554662007,1.0842774583696877,0.3389845476753878,nan
1741052931.681809,-0.36393131364782655,-0.2016975530385623,0.7831585997770334,0.014948244411313533,nan
1741052931.6857138,-0.4747023811352667,-0.37713792463480306,0.026140145956505084,-0.37736755666235,nan
1741052931.6896186,-0.22656060281903628,-0.34054068679223215,-0.689077510659364,-0.49640249741706116,nan
1741052931.693545,0.2915914752349937,-0.14174010773235765,-0.9241219357675942,-0.21517940238059852,nan
1741052931.6974497,0.7331476925424953,0.08527930204602314,-0.5913903470835411,0.2685964116129851,nan
1741052931.7013545,0.7420766854662592,0.22563995080128746,0.020177011404926885,0.588860767784973,nan
1741052931.7052593,0.2430902353020671,0.25012211383446054,0.4853561678078063,0.5020712741319634,nan
1741052931.7091641,-0.4655032130199995,0.20043811049505425,0.5517721044736285,0.07423103455922955,nan
1741052931.713069,-0.9079300054124626,0.12372914154780347,0.2849306296140005,-0.38153041415114336,nan
1741052931.7169738,-0.776371680774018,0.02716105665355486,-0.03889378625980514,-0.5546137797849916,nan
1741052931.7208786,-0.16047100612119677,-0.10482770231446524,-0.1787861970963592,-0.36532461984533415,nan
1741052931.7247832,0.518183860243508,-0.2553581205639353,-0.10593986429452015,0.004490648086856489,nan
1741052931.728688,0.815604809827035,-0.3481069912560368,0.019129786769334294,0.28217254408599196,nan
1741052931.7325928,0.5796014932764028,-0.2899604959325306,0.023763010849622478,0.31869388647817853,nan
1741052931.7364976,0.03294234773758726,-0.056081417722965925,-0.11272550526997362,0.17180959719295713,nan
1741052931.7404225,-0.42224411184948535,0.2586847965772946,-0.2483923938333527,0.011452912787022247,nan
1741052931.7443273,-0.5104467196217137,0.4791207958000253,-0.21910840474303583,-0.045871808452839,nan
1741052931.748232,-0.2592642751039167,0.4624971330603165,0.0028261642921425397,-0.021508448516437642,nan
1741052931.7521367,0.0721761575290145,0.20192670143653163,0.27343901919914976,-0.016820182060318007,nan
1741052931.7560415,0.22729438304259428,-0.16165392918236152,0.3932942850948523,-0.0872683359261255,nan
1741052931.7599463,0.1456964006137857,-0.43086488585805127,0.27127546796979607,-0.17762743886235016,nan
1741052931.7638512,-0.030021392742145978,-0.477896879114076,-0.004500831196598244,-0.1788209049729221,nan
1741052931.767756,-0.11205484321140677,-0.3122843956508787,-0.2437953442394952,-0.045582492047354796,nan
1741052931.7716608,-0.035793766791818865,-0.04868521477358679,-0.30667829855628187,0.14400337670882393,nan
1741052931.7755656,0.1041882662458082,0.18616304040055792,-0.20001596208442163,0.24867751075548597,nan
1741052931.7794702,0.16317751888130433,0.32649886968238045,-0.043989083997228,0.1895327454758918,nan
1741052931.783375,0.08584235977722347,0.36979040209451974,0.04834055402368352,0.022522280345428324,nan
1741052931.787298,-0.052536649054560666,0.3276516794584276,0.06382544300378216,-0.11200622164721823,nan
1741052931.7912028,-0.13044816791885241,0.19000395194994327,0.07415123135711528,-0.11728989645291117,nan
1741052931.7951076,-0.09981323686410729,-0.053332488523840316,0.13722968345837516,-0.02617459129172884,nan
1741052931.7990124,-0.024198791417411457,-0.354636107479459,0.2172735770377754,0.036597527876523754,nan
1741052931.802917,-0.0027794266351310196,-0.5822169279355304,0.2065797879542449,-0.018137971475200475,nan
1741052931.8068218,-0.05909034166514482,-0.57633906712739,0.03440450628761623,-0.14728776964413198,nan
1741052931.8107266,-0.10793871380833873,-0.2646477738000636,-0.2381642006324988,-0.20551310115097576,nan
1741052931.8146315,-0.03901774480825568,0.2497101779678125,-0.43383068237562944,-0.08170065019621021,nan
1741052931.8185363,0.1582664841222929,0.710320898719123,-0.38731997411803787,0.18066135881228695,nan
1741052931.822441,0.350809726340412,0.8468975690980345,-0.08594802589173108,0.39479727654862534,nan
1741052931.826346,0.35395045826424293,0.5472463325914338,0.29743647205693136,0.3753228498333999,nan
1741052931.8302507,0.09206859244642747,-0.05636996710199365,0.5160443760868988,0.09720286904471459,nan
1741052931.8341725,-0.3095431296520773,-0.6513949787761673,0.4246364183865327,-0.26884521189663185,nan
1741052931.8380773,-0.5902707619372525,-0.9228359279875041,0.08447694501751572,-0.47977942035225624,nan
1741052931.8419821,-0.537738237038629,-0.7323671017313722,-0.2821145924220308,-0.40271575073018145,nan
1741052931.845887,-0.14988643031922175,-0.18932820877894485,-0.4502308703245887,-0.10739765092711592,nan
1741052931.8497918,0.35109517064664764,0.4213444637438703,-0.342375059597359,0.20160001257006271,nan
1741052931.8536966,0.6650805938441293,0.8001616860276641,-0.06272294965863945,0.34716286932399465,nan
1741052931.8576012,0.6112018348880902,0.7847200245566717,0.19647082897606938,0.2972812649525736,nan
1741052931.861506,0.23487925861499062,0.41410754291491075,0.29324364955897886,0.14941715991024476,nan
1741052931.8654108,-0.23973041689207472,-0.11208512998145066,0.21481537238169227,0.01647986446601951,nan
1741052931.8693156,-0.5606317962374011,-0.5431659196805563,0.05330272156200728,-0.06861057145658057,nan
1741052931.8732204,-0.5891127365798999,-0.6952892766419675,-0.08155964790700866,-0.14445426712224813,nan
1741052931.8771253,-0.3479999813450497,-0.5269986970551561,-0.13486197109654688,-0.23354900155473282,nan
1741052931.8810456,0.024691206161261442,-0.14609950531239743,-0.11688226172953606,-0.28047548425532964,nan
1741052931.8849504,0.3595992093411622,0.25080457382160753,-0.06524825379005107,-0.19282655248573524,nan
1741052931.8888552,0.5228581058659922,0.47861613168499345,-0.007271918455146755,0.047777192370957976,nan
1741052931.89276,0.4521823514638258,0.4562663259943448,0.04561798160794636,0.3204217043105777,nan
1741052931.8966649,0.17524811047239625,0.24154219722689257,0.08128151353700573,0.43102939883351216,nan
1741052931.9005697,-0.18771360261084125,-0.015075175492844138,0.08007542301747327,0.2721246896721006,nan
1741052931.9044743,-0.4582103904544635,-0.1719680046727718,0.032346405025582385,-0.06383413643780977,nan
1741052931.908379,-0.48363213637350794,-0.18662983571782624,-0.039554239152643465,-0.3348393262961676,nan
1741052931.912284,-0.23759907733725635,-0.12951404828968893,-0.08614757328783151,-0.3406847630616463,nan
1741052931.9161887,0.13806370039740462,-0.1091071624636801,-0.06836387815039868,-0.0968926323184501,nan
1741052931.9200935,0.40531877609132666,-0.1658530062143608,0.003869999378839489,0.16906704943661188,nan
1741052931.9239984,0.3885484562855437,-0.22406621839003754,0.07239503873551571,0.21220027063160746,nan
1741052931.927918,0.10916978839559241,-0.15133011002668756,0.0779775486664193,-0.005892068705768917,nan
1741052931.9318228,-0.21749685895784998,0.11256218621274938,0.014789458447055384,-0.26621488240859015,nan
1741052931.9357276,-0.33906052808574766,0.4622836086621515,-0.05984348289913799,-0.2775839414170752,nan
1741052931.9396324,-0.1645348065474706,0.6611141784368043,-0.07508293361914202,0.049882223273102995,nan
1741052931.9435372,0.15587579479441957,0.5006804481525045,-0.013893092396796768,0.4857281253676389,nan
1741052931.9474418,0.3453934020525902,-0.02179945494072883,0.0655268266994242,0.641140113772398,nan
1741052931.9513466,0.22718542429835006,-0.6492757542052571,0.07998639821519364,0.297934734470581,nan
1741052931.9552515,-0.12078190756430814,-0.9976152216413924,0.002125925606448685,-0.36969291359258644,nan
1741052931.9591563,-0.4174930727582534,-0.8032351202400638,-0.10362978378611022,-0.8866561402399488,nan
1741052931.963061,-0.40478319364187226,-0.11871502635203106,-0.13080406281947957,-0.8340575632390353,nan
1741052931.966966,-0.06537485945875288,0.6882088294060204,-0.029447914668633297,-0.1932491923052346,nan
1741052931.9708707,0.3509793940587054,1.1469531606640655,0.13458228752613155,0.6096457145802612,nan
1741052931.974789,0.522569839107721,0.9756066483451133,0.22150668489759193,1.0115952295553154,nan
1741052931.9786935,0.31563056901242664,0.26121283108225046,0.1352232348846338,0.737822231435639,nan
1741052931.9825983,-0.10623625348221795,-0.589591216367169,-0.0821231560667722,0.007196156596525847,nan
1741052931.9865031,-0.4161427574062934,-1.096729765496776,-0.2676445340630717,-0.6454813916058875,nan
1741052931.990408,-0.39084820636401774,-0.991231416917448,-0.2645132711935339,-0.7845903663899753,nan
1741052931.9943128,-0.0872468018071977,-0.36228458787488005,-0.057136620109841496,-0.39168812654118224,nan
1741052931.9982176,0.21854754755819705,0.4139453010957588,0.20297638503275647,0.16083186739492886,nan
1741052932.0021224,0.274236790481593,0.9065317344974496,0.3121648649063188,0.4398945335303971,nan
1741052932.0060272,0.06579281206603799,0.8751543288552383,0.1814907162916621,0.2997721950942696,nan
1741052932.009932,-0.1814167919626811,0.387131074606884,-0.08427278369505913,-0.037545474393661675,nan
1741052932.0138366,-0.21336665863774473,-0.24777225078718573,-0.26777503590632146,-0.21656410470541246,nan
1741052932.0177414,0.01720103955422242,-0.6709169507640653,-0.21862119526954427,-0.0761807482581625,nan
1741052932.0216584,0.3007990539018737,-0.6775967995183025,0.01784056407184986,0.2180700193187237,nan
1741052932.0255632,0.35497036890821276,-0.3163174692124932,0.23450671446643598,0.343688455233651,nan
1741052932.029468,0.08305615572518894,0.1622857094658977,0.23619693855234972,0.13018618931087644,nan
1741052932.0333729,-0.3216842084752727,0.46794577358716105,0.009298252221653903,-0.2739084555238684,nan
1741052932.0372777,-0.52596335953395,0.4452401899433946,-0.2581943142209807,-0.5255028904589554,nan
1741052932.0411825,-0.338634907747343,0.15649060584918245,-0.32909247480265036,-0.39067776210993754,nan
1741052932.0450873,0.11654413120250565,-0.17481996391938978,-0.11844653025810788,0.043471412543642264,nan
1741052932.0489922,0.49107680634783024,-0.321592236994407,0.2251717820010731,0.4374139583776508,nan
1741052932.0528967,0.49484100606839515,-0.20690966730017366,0.43130246450938603,0.48793156563337686,nan
1741052932.0568016,0.1350709677499759,0.0510236561485693,0.3247751274647147,0.18313506562495924,nan
1741052932.0607064,-0.2912881308171673,0.23520621193098168,-0.02891644881288882,-0.19819265853105011,nan
1741052932.0646112,-0.44585994981405164,0.19848025152944535,-0.37059892037077863,-0.337650547770408,nan
1741052932.068537,-0.22763106161553084,-0.021793498588895174,-0.44991639053441596,-0.1535247713967346,nan
1741052932.0724418,0.15241817545701888,-0.2339744931457408,-0.21928444445722492,0.14105239018262183,nan
1741052932.0763466,0.35987006139570477,-0.24865772421925852,0.1362268065391551,0.24416896467325858,nan
1741052932.0802515,0.2235125600990693,-0.03967867728747379,0.3526227846516817,0.04593665409225277,nan
1741052932.0841563,-0.1251090878302596,0.22405733137640046,0.2947247243000689,-0.26952833685738686,nan
1741052932.088061,-0.3736914011679161,0.311612256842253,0.04935108399727638,-0.39163620476706607,nan
1741052932.0919657,-0.30130622235647947,0.1272529116213317,-0.16433111196852246,-0.16844796129681977,nan
1741052932.0958705,0.035815185878608484,-0.19213676544224517,-0.18339897095186958,0.24752777530152664,nan
1741052932.0997753,0.36014892323816233,-0.3730259151062009,-0.028540258797044003,0.52420117729116,nan
1741052932.1036801,0.41344615351136765,-0.23096362625681113,0.1304267691371441,0.43446944482692307,nan
1741052932.107585,0.16896887789167317,0.15558262822798938,0.1317888741957241,0.048225637353082926,nan
1741052932.1114898,-0.16376928384567185,0.47908622170973386,-0.036866977986943446,-0.33503688655312003,nan
1741052932.1154149,-0.3328210227732559,0.4388038665971313,-0.23095858526538868,-0.44659728936259124,nan
1741052932.1193197,-0.25516089164257416,0.00026921261112778684,-0.27426820163150806,-0.26578275551788244,nan
1741052932.1232245,-0.05994160660805505,-0.5383088917700048,-0.10656156015942297,-0.004462224442125122,nan
1741052932.127129,0.06075787414918344,-0.7492977199460654,0.16850520189335544,0.11334603292362908,nan
1741052932.131034,0.04152522075444611,-0.40851935361149844,0.36680908266535733,0.061228031821540574,nan
1741052932.1349387,-0.009045370126702406,0.30120839470899713,0.36150248014973596,0.009750451910447433,nan
1741052932.1388435,0.05552361626473042,0.890841681517501,0.16326684165906755,0.12054283686910651,nan
1741052932.1427484,0.23876851003147304,0.9135931012418494,-0.10818003264471195,0.3426622009230336,nan
1741052932.1466532,0.3630741862537695,0.3047612227970193,-0.3186291000694131,0.4255313331210105,nan
1741052932.150558,0.22886276412214532,-0.5492531732508841,-0.3942171305194836,0.15929256589422286,nan
1741052932.1544628,-0.16809702994283007,-1.0748132593936768,-0.3287238310977639,-0.3755030476118455,nan
1741052932.1583676,-0.573653699020184,-0.9166480877081998,-0.14797724051686245,-0.8024696721023065,nan
1741052932.1622908,-0.6533824846224662,-0.18556832701712603,0.11068995353520857,-0.7347912972807293,nan
1741052932.1661956,-0.27865298211681316,0.630309530275917,0.3808283936370017,-0.12478588642339505,nan
1741052932.1701005,0.3286147966098432,1.0151728056172222,0.548777436564458,0.637311614413384,nan
1741052932.1740053,0.7388106858307288,0.7717974578794659,0.48984952977231283,0.99571549357064,nan
1741052932.1779099,0.6474904023119542,0.11939925250093436,0.16123636998322657,0.6709313637544291,nan
1741052932.1818147,0.12615174172087523,-0.5013845091797541,-0.3198110119831199,-0.09767718852206937,nan
1741052932.1857195,-0.42649357318608294,-0.7443847312029868,-0.7009540603770346,-0.7287882778273748,nan
1741052932.1896243,-0.6029207526970614,-0.557083157261221,-0.7395456587898196,-0.7644499516467395,nan
1741052932.1935291,-0.31364509607834795,-0.1455521204466546,-0.37646531440196684,-0.2386544075590874,nan
1741052932.197434,0.15183895189925523,0.22141675451182502,0.1978076470359655,0.36503355646773095,nan
1741052932.2013388,0.38163233444190453,0.3922164745791005,0.6533341519587061,0.5344419661404762,nan
1741052932.2052436,0.19629925124811198,0.3726355670392716,0.7386075368022682,0.16832616624831703,nan
1741052932.209166,-0.20227215045580077,0.24348253709296397,0.4452206375503094,-0.34664011213478246,nan
1741052932.2130709,-0.41548364123603604,0.0682095535966168,-0.006097478535594099,-0.4905347075561055,nan
1741052932.2169757,-0.2054889317964359,-0.1222453800134962,-0.34254002907503117,-0.08678240051490496,nan
1741052932.2208805,0.28541887023806556,-0.2832011859012146,-0.4333238765085979,0.5225034658610445,nan
1741052932.2247853,0.6457459113526369,-0.3338440830372026,-0.34628550862672414,0.7671543411560144,nan
1741052932.2286901,0.5427948325852683,-0.21094889268167724,-0.23488241050312736,0.3594416845549048,nan
1741052932.232595,0.009642887926846123,0.04620153019279304,-0.171525445862758,-0.4249446387021454,nan
1741052932.2364998,-0.5737424426811206,0.2802868387382962,-0.08646933240421008,-0.9550120335892878,nan
1741052932.2404044,-0.7865245247878762,0.3179635016417451,0.1300475355123747,-0.7760008767272483,nan
1741052932.2443092,-0.49792737939169596,0.11943451336417278,0.46216851869102854,-0.0079396558884543,nan
1741052932.248214,0.052154719644054756,-0.16222664776848267,0.709490406152326,0.7410775353585073,nan
1741052932.2521188,0.47444963342797714,-0.28865600453926515,0.6182118315864947,0.8825053036043753,nan
1741052932.2560403,0.5459977179079031,-0.13875596411721275,0.1110509955165592,0.3423531160515252,nan
1741052932.2599452,0.3462428606619671,0.1681045548864077,-0.5838655460453573,-0.3854553356232643,nan
1741052932.26385,0.11747745181397994,0.35332807348374967,-1.0422966177195039,-0.6753623511396447,nan
1741052932.2677548,0.007768067272073905,0.2162254596470836,-0.9357693569061235,-0.31577580195788363,nan
1741052932.2716596,-0.04883770375226726,-0.1713109005932015,-0.2869978716765801,0.31491749847423417,nan
1741052932.2755644,-0.20646324077001518,-0.49502267356976837,0.5201356354041055,0.5977530715206014,nan
1741052932.279469,-0.47600727209664634,-0.451245913081839,0.998946369588935,0.23901182807144572,nan
1741052932.2833738,-0.6406716098260236,-0.019108072264217256,0.8956511654637359,-0.45270504615411084,nan
1741052932.2872787,-0.4339776991470762,0.48866544331130257,0.3471270530218367,-0.8320985592362136,nan
1741052932.2911835,0.16802813411229034,0.6619826007707962,-0.2528219930109584,-0.49715826839616206,nan
1741052932.2950883,0.8283886828530705,0.33442397366405036,-0.5599094977481928,0.3317015349177363,nan
1741052932.298993,1.0608079213975186,-0.25894649811710463,-0.508930257079908,0.9796837187123559,nan
1741052932.3029134,0.626640647517291,-0.655188823121601,-0.2943390364820996,0.8963918915050444,nan
1741052932.3068182,-0.22442142044773689,-0.5385993943003945,-0.14619116673026042,0.1382861598458282,nan
1741052932.310723,-0.9083521479462393,-0.006885106765973001,-0.11496909793215172,-0.6759111783888672,nan
1741052932.314628,-0.958760626527463,0.502197572300377,-0.05724838181970761,-0.9032681718523071,nan
1741052932.3185327,-0.403494418068187,0.5717085658822579,0.1755650349215096,-0.43181660766883545,nan
1741052932.3224373,0.2666359827142237,0.15407640905527278,0.5321912437714027,0.24455983961524977,nan
1741052932.326342,0.524997031608861,-0.3889980603974828,0.7467701915837096,0.49935928178454436,nan
1741052932.330247,0.26503587314323684,-0.5924837628355939,0.5513875201501565,0.1619243000191007,nan
1741052932.3341517,-0.12472936603638982,-0.2810098240203627,-0.05936231290459818,-0.32731610335787337,nan
1741052932.3380566,-0.14734113253815595,0.28613495338873174,-0.7526816482040003,-0.35382275060678214,nan
1741052932.3419614,0.2968591125456842,0.6397904958797566,-1.065459886459381,0.23747082986429038,nan
1741052932.3458662,0.7621906873600398,0.49774728112782013,-0.7504323419507111,0.9189387755237193,nan
1741052932.3497841,0.6438888539346835,-0.010376890340393786,0.014686918177380019,0.924772109365973,nan
1741052932.353689,-0.21623863171429036,-0.4774162336997387,0.7342856985127147,-1.0540684091002421e-05,nan
1741052932.3575938,-1.2631540670388972,-0.5786065448720386,0.9481428733701903,-1.2393481711492154,nan
1741052932.3614984,-1.605984063718029,-0.3271992563771042,0.5619498239750504,-1.7342359066580713,nan
1741052932.3654032,-0.7794177784451809,-0.002556934279093831,-0.09863889402654204,-0.8994542517889126,nan
1741052932.369308,0.7599383827978882,0.15899412857422016,-0.5467111319378936,0.7638923137310013,nan
1741052932.3732128,1.8903067790144565,0.1922979892531399,-0.49931840558528845,1.9645527585153024,nan
1741052932.3771176,1.7006798728409678,0.3119551465783955,-0.06913232560303058,1.6669084436635093,nan
1741052932.3810225,0.2827980400195425,0.5883260601097876,0.35082440859784086,0.028274228962442405,nan
1741052932.3849273,-1.2648581859030996,0.7428370805979351,0.4021094956634587,-1.624660731278076,nan
1741052932.388832,-1.7007072585683611,0.342844821260768,0.027292058925977303,-1.859176921472077,nan
1741052932.392737,-0.6951943826468207,-0.7064993098573538,-0.5011812568496421,-0.3974401267783441,nan
1741052932.3966537,0.8301369832351244,-1.8317896523889843,-0.7858153470276665,1.5278268084945197,nan
1741052932.4005585,1.4412119467597388,-2.044292409551349,-0.5752151339020998,2.1318984387799786,nan
1741052932.4044633,0.4536250967782645,-0.7250097841573547,0.08224611935430495,0.6359362081895639,nan
1741052932.408368,-1.352035423396455,1.650517329037761,0.8722986798194918,-1.8945568880895098,nan
1741052932.412273,-2.2599436975991924,3.5474459359214596,1.3779912179014624,-3.2549671351923672,nan
1741052932.4161777,-1.070393030806796,3.3497217480281103,1.2695337650719893,-1.9106739566195825,nan
1741052932.4200826,1.6974532238230777,0.6676305952010082,0.4551695004326572,1.5381887699426264,nan
1741052932.4239874,3.944311280425051,-3.0587766615980234,-0.8316374230620521,4.544451366683252,nan
1741052932.4278922,3.5372646971281227,-5.305117150320646,-2.0433742643673667,4.48986040166518,nan
1741052932.4317968,0.1351873183710119,-4.202268725931128,-2.4879748851158032,0.8613997050474258,nan
1741052932.4357016,-4.206399982406236,-0.051299503816977794,-1.6710421767368047,-4.048685360517621,nan
1741052932.4396064,-6.309416445914333,4.6017951777891515,0.31690842450252676,-6.642369510631435,nan
1741052932.4435325,-4.218640347981832,6.570560980985482,2.6335689722911364,-4.705771885018876,nan
1741052932.4474373,1.133366914612012,4.275896768545499,3.974213121089454,0.7571751966346867,nan
1741052932.4513419,6.311879999720322,-0.9905785901397539,3.2907155831089603,6.050515482450795,nan
1741052932.4552467,7.691277161029564,-5.801392176277359,0.5582865152633203,7.401126973718959,nan
1741052932.4591515,4.073573382224806,-6.9081950332961215,-2.958806545151531,3.7481631524015215,nan
1741052932.4630563,-2.3268088168777754,-3.5209018883113434,-5.2663276728234605,-2.4126248446166922,nan
1741052932.4669611,-7.3253534858683045,2.102135426314286,-4.80942115055921,-6.809900446364163,nan
1741052932.470866,-7.646731530713477,6.210149969996223,-1.5445750392898798,-6.490148821360969,nan
1741052932.4747708,-3.176620464048492,6.1592772525220765,2.8460011578674536,-1.9092283862468389,nan
1741052932.4786756,3.023731405139498,2.192903537573272,5.855558370344344,3.519672803456861,nan
1741052932.4825804,6.908054962002705,-2.8461762543337588,5.671957477458424,6.020007644340483,nan
1741052932.4864852,6.218732659689627,-5.59946134678821,2.341390808659891,4.184048612358458,nan
1741052932.4904103,1.864797465003688,-4.514766650632477,-2.217360145790171,-0.19342731044273548,nan
1741052932.4943151,-2.9740015447479475,-0.7481378906408259,-5.392013522536941,-3.695943385415873,nan
1741052932.49822,-5.213866109970869,2.89541232632076,-5.484358271292167,-3.9444806811708806,nan
1741052932.5021248,-3.911695528904619,4.0704845704209855,-2.6910918569895643,-1.2570178709304907,nan
1741052932.5060296,-0.5851594073788564,2.446840760846046,1.1562438197819425,1.8762624351513237,nan
1741052932.5099342,2.2141566861353024,-0.34933488287078307,3.8506201991992794,2.9305658017489433,nan
1741052932.513839,2.831361829524089,-2.1852535445558896,4.171046604502536,1.3180792503574983,nan
1741052932.5177438,1.482760761841074,-2.033115512620265,2.450575692376469,-1.3305674704557175,nan
1741052932.5216486,-0.29230913405138576,-0.5263755849788843,0.07805223133005505,-2.666471168907551,nan
1741052932.5255535,-1.0552384800312853,0.8208401053545163,-1.5801633136701667,-1.5836287717752213,nan
1741052932.5294583,-0.5473476280194516,0.9544399714794015,-2.013678969520012,0.9552008315381288,nan
1741052932.533363,0.35694003438012406,0.05667662361216308,-1.62307233832565,2.8137235112460686,nan
1741052932.5372858,0.6096346792532985,-0.7945091574955231,-1.1095539014882692,2.4712171276682806,nan
1741052932.5411906,-0.054963896923595316,-0.6786616399905294,-0.7958529942564279,0.21624522015231917,nan
1741052932.5450954,-0.965694270555261,0.34888410479652004,-0.4426125161588635,-2.172406208673769,nan
1741052932.549,-1.2014239978111008,1.3452767471554206,0.3499851089353334,-2.9057125111223607,nan
1741052932.5529048,-0.44764404038390154,1.3405055189204933,1.5701325237720534,-1.5707442423280382,nan
1741052932.5568097,0.7317347828062296,0.19770568242928246,2.5948032794347444,0.666460137874184,nan
1741052932.5607145,1.4025414280526483,-1.2548276344864644,2.575985347185629,2.1051062047349185,nan
1741052932.5646193,1.0639988529739288,-1.9032107735855526,1.126093549549986,1.8653591897087038,nan
1741052932.5685241,0.044567197971682584,-1.2461488770476077,-1.246386401144071,0.452709984656938,nan
1741052932.572429,-0.8206187500919121,0.2294583079708525,-3.3233695824215785,-0.8354417656544216,nan
1741052932.5763338,-0.9119348797946115,1.4680655845874597,-3.893134179897892,-1.0574295288314153,nan
1741052932.5802386,-0.3111180366699178,1.6728151498351267,-2.5137735381224826,-0.3336698857019531,nan
1741052932.5841603,0.3418755879362874,0.8567911480047018,0.1869953562364469,0.4222079100893906,nan
1741052932.5880651,0.452712666298912,-0.28264118787090714,2.8583115730882036,0.41702010311814114,nan
1741052932.59197,-0.012381627834658964,-0.9840752351308526,4.176162574465269,-0.30865487560706195,nan
1741052932.5958748,-0.538069108036642,-0.9786942034025136,3.5309468666702752,-0.9718238950250991,nan
1741052932.5997796,-0.5553558568340967,-0.5504873935259064,1.2830386427218454,-0.8088768639979471,nan
1741052932.6036842,0.03648306369503625,-0.14112633346785164,-1.4856478460220892,0.20117499288407326,nan
1741052932.607589,0.7774405386979786,0.0750425181671882,-3.522960657098287,1.291191267988753,nan
1741052932.6114938,1.0461988444072492,0.2525879665293933,-3.9625833266466466,1.559637999678068,nan
1741052932.6153986,0.5880920997186257,0.5665662540204288,-2.659695387511031,0.7386809038363794,nan
1741052932.6193035,-0.28253293507953103,0.8932159241912329,-0.21703901335887085,-0.5841003714262231,nan
1741052932.6232083,-0.9568856940687696,0.8433778903405131,2.2779935762535044,-1.4580922034887303,nan
1741052932.627113,-1.0216526535326345,0.1563986547094918,3.7117437994990823,-1.332141216794608,nan
1741052932.631034,-0.541631841083209,-0.9176274763547081,3.439233451199861,-0.4410908542261999,nan
1741052932.6349387,0.07448973279965637,-1.659393508301001,1.6055786035421997,0.4723247176564766,nan
1741052932.6388435,0.4583586371169995,-1.398935293429006,-0.8914670808175479,0.8095820336949769,nan
1741052932.6427484,0.5509544293974875,-0.11455940904838345,-2.8329439375026437,0.5601035569474939,nan
1741052932.6466532,0.535005587953284,1.4171149942227081,-3.310866042646524,0.18352653326671992,nan
1741052932.650558,0.5445346554845588,2.118418286385151,-2.2091285586971887,0.09674706190204212,nan
1741052932.6544628,0.47344329412256464,1.4163718125267644,-0.23423939627947904,0.26968481246091397,nan
1741052932.6583676,0.09480986175402692,-0.2734721318738726,1.5336705942243871,0.30068140219522904,nan
1741052932.6622725,-0.6182836047629006,-1.7978038158970753,2.2832227166023915,-0.1212822258889708,nan
1741052932.6661773,-1.3050413824683995,-2.0936614668755285,1.8900161091223473,-0.8250080349302279,nan
1741052932.6700819,-1.4044412786328822,-0.9712436107314323,0.8566997473647993,-1.229907028711668,nan
1741052932.6739867,-0.6177613914797793,0.7500027828748901,-0.13337385296299248,-0.846982917687843,nan
1741052932.677907,0.7405664185809774,1.8557012537086823,-0.6890690994284715,0.23345177633282885,nan
1741052932.6818118,1.8491947724707036,1.626459336154914,-0.8655781652025474,1.3213720472240855,nan
1741052932.6857166,1.9285094759276353,0.32794082727853496,-0.9342361554914216,1.6306970946585393,nan
1741052932.6896214,0.8330022900426832,-1.0468291744509453,-1.0181293114938095,0.9035300205972727,nan
1741052932.6935263,-0.7864215720739579,-1.547776737515821,-0.9374109859434359,-0.36729131114432956,nan
1741052932.6974308,-1.9078492687976332,-0.9421553989266362,-0.40680660349607545,-1.3100607937514166,nan
1741052932.7013357,-1.8487865324609092,0.19951231800417926,0.5961548615443014,-1.3377991703106975,nan
1741052932.7052405,-0.7291830009564078,1.0129822343109356,1.6430782631901202,-0.563614916010003,nan
1741052932.7091453,0.654550280257244,1.001071293336544,2.062574908895722,0.3532660368283066,nan
1741052932.7130501,1.4286949387296863,0.3333026068782367,1.4255208013679352,0.7717996392498393,nan
1741052932.716955,1.2439537876596722,-0.39295292850688746,-0.06698364478022979,0.5564402280105777,nan
1741052932.7208598,0.43584430627856424,-0.6705236101393091,-1.6249908851766126,0.09574068710485063,nan
1741052932.7247777,-0.3294485578967219,-0.43804864459983883,-2.3525378482708827,-0.1184313316286715,nan
1741052932.7286823,-0.5952429856256876,-0.022310067679020856,-1.8377415238357064,0.05109069608930751,nan
1741052932.732587,-0.401704434861406,0.21479048305482398,-0.4213444012884311,0.2993368341784387,nan
1741052932.736492,-0.130602571476468,0.18182930610860049,1.0490076197100977,0.2186325340157026,nan
1741052932.7403967,-0.09717737232977912,0.0636118268639168,1.7892468734181515,-0.26672945140579724,nan
1741052932.7443016,-0.2674145128288376,0.07040423855508206,1.5550255265795105,-0.7826372670542062,nan
1741052932.7482064,-0.33463104163708185,0.19985457033380552,0.7001983916051638,-0.823620312493479,nan
1741052932.7521112,-0.05697478037292762,0.2441403619480008,-0.1725235261573989,-0.226708124659476,nan
1741052932.756016,0.46819906897315855,0.026648256292497726,-0.6591542878876516,0.6304790630411871,nan
1741052932.7599208,0.8485113804127337,-0.37132875192620307,-0.7551974360255388,1.103719032323645,nan
1741052932.7638257,0.724758165304572,-0.6284270121972578,-0.7016738766132259,0.8098041339261872,nan
1741052932.7677302,0.0962038751260875,-0.4534572115803201,-0.6678278081112997,-0.04133926443068164,nan
1741052932.7716472,-0.6423680239441512,0.12555317000168786,-0.5755131234094081,-0.801632188650114,nan
1741052932.775552,-0.9903045495311799,0.7234379179890816,-0.2167345888958987,-0.9061286350978277,nan
1741052932.7794569,-0.7208212717072445,0.8737603024009168,0.46035746262674654,-0.3269095978428845,nan
1741052932.7833617,-0.04387415588079302,0.4070655716937621,1.1793015173226262,0.41885690665505854,nan
1741052932.7872665,0.5691527748846297,-0.38276994555408256,1.4647756485797472,0.709374425845716,nan
1741052932.7911713,0.7439037633240884,-0.9364009878235706,0.9978073464727658,0.3343635286186151,nan
1741052932.7950761,0.4548769783206902,-0.8478229183090455,-0.08668959297071753,-0.3437982294936554,nan
1741052932.798981,-0.010917534279698528,-0.17670892413892703,-1.2178759729298911,-0.7105322893104719,nan
1741052932.8028855,-0.31520509775861894,0.5930274096457684,-1.7388674034862734,-0.42350365454373495,nan
1741052932.8067904,-0.32154103635031805,0.9167078212327995,-1.342730240665171,0.30006385750509523,nan
1741052932.8106952,-0.14462997611775363,0.5912927881531821,-0.27641731777431494,0.8664301838630709,nan
1741052932.8146,0.007076639237669438,-0.1103255361589276,0.832266792130448,0.7964115765939671,nan
1741052932.8185265,0.027980033243530624,-0.6642542183559236,1.3903651896346474,0.1136458112165768,nan
1741052932.822431,-0.023042827757618387,-0.6932380384333023,1.1963568322765392,-0.6817646004355308,nan
1741052932.826336,-0.025603309933610548,-0.2298332173816698,0.5011830646713883,-1.015693998860442,nan
1741052932.8302407,0.0578378589893953,0.3413614695190477,-0.2297345967836843,-0.6785872000495576,nan
1741052932.8341455,0.1430221115867975,0.5950207213609943,-0.6451267649930902,0.04738003691271674,nan
1741052932.8380504,0.12137183865520881,0.3788473638304798,-0.685099023769197,0.6457538392665442,nan
1741052932.8419552,-0.012654488278725496,-0.10130626200398786,-0.5148856683051342,0.7687289919478736,nan
1741052932.84586,-0.13900040877401404,-0.4655693921699655,-0.3202042163377889,0.45518730247455835,nan
1741052932.8497648,-0.12399755753975612,-0.4524450917083673,-0.15532063993079334,0.019824552773995616,nan
1741052932.8536696,0.038900333662513414,-0.09674964145555887,0.04309555329473968,-0.2462478861486019,nan
1741052932.8575745,0.20108171342063755,0.3220400494031596,0.32176146916759124,-0.287663698515076,nan
1741052932.861479,0.18392507398984104,0.498859140445285,0.6015189311162937,-0.24750751217945954,nan
1741052932.8654041,-0.04839519957808305,0.31756149183431637,0.7029983448063017,-0.2588546512487706,nan
1741052932.869309,-0.3289293465301146,-0.08527456477413378,0.48901491852428186,-0.2885694791708351,nan
1741052932.8732138,-0.4095297955439024,-0.4314224298498065,-1.109148721971118e-05,-0.18494800026113228,nan
1741052932.8771186,-0.17169983868138908,-0.4928798395014417,-0.5369235983278302,0.1278598838199001,nan
1741052932.8810234,0.25282361050504565,-0.2335027493625293,-0.8402721757527759,0.5117028012444598,nan
1741052932.8849282,0.5636304142143279,0.1795662607453922,-0.7510875064775917,0.6847832127834886,nan
1741052932.888833,0.5189357294147676,0.48648485881712356,-0.3265358062076018,0.45514059347078173,nan
1741052932.8927379,0.12701453316706743,0.49292639023271756,0.207894080985374,-0.08849063914473179,nan
1741052932.8966427,-0.3538453833800857,0.18576050332558333,0.6007282929141105,-0.6086404230824805,nan
1741052932.9005473,-0.6067610739288634,-0.2549594922783721,0.7071261132347286,-0.7631344799176495,nan
1741052932.904452,-0.4852586278204735,-0.5556125229139636,0.5339514680999015,-0.46389940688652365,nan
1741052932.908357,-0.10225328483316957,-0.5112618947705134,0.1950865040152289,0.06313722743264123,nan
1741052932.9122798,0.2776263379821006,-0.12197636753016695,-0.16709418675868326,0.4626144503886985,nan
1741052932.9161847,0.44028887909368575,0.38442564935205054,-0.4373565086160264,0.5197941953295215,nan
1741052932.9200895,0.3537865714226135,0.6760216398198194,-0.5451469232118727,0.2936941658811634,nan
1741052932.9239943,0.141342756366886,0.5286714403103603,-0.46563309647961076,0.018990676761767855,nan
1741052932.927899,-0.051586892567288746,-0.005136302833717231,-0.22577351903724543,-0.11602930435566973,nan
1741052932.9318037,-0.16526838533890545,-0.5967168571808655,0.09024733600063166,-0.11159701783965705,nan
1741052932.9357085,-0.22312331957316175,-0.8373772514423757,0.35987512456647097,-0.10313618817983224,nan
1741052932.9396133,-0.24947563568060735,-0.5178102398798091,0.4740354647122198,-0.18347811565063937,nan
1741052932.9435182,-0.2124128954392167,0.20034489798974045,0.3958580597937674,-0.2843601107602145,nan
1741052932.947423,-0.06051038317111109,0.8586003073940486,0.18213273677275804,-0.23862152260243208,nan
1741052932.9513278,0.18459283037114588,0.9953070531344337,-0.054642624113676104,0.03314305783961702,nan
1741052932.9552326,0.3878157983779464,0.46910895008407344,-0.21875208318386866,0.3951700431556573,nan
1741052932.9591546,0.3805098109891957,-0.41704349919772216,-0.28298051186648443,0.5684157396251166,nan
1741052932.9630594,0.11057779367621826,-1.0942894344277396,-0.28039338736698544,0.3613846557556933,nan
1741052932.966964,-0.27235190196882036,-1.1012331944257865,-0.2487218281097497,-0.13660857438344812,nan
1741052932.9708688,-0.4959036824554469,-0.40067122792481163,-0.18242610746009427,-0.5830455536865525,nan
1741052932.9747736,-0.3697312858782587,0.5814211617000142,-0.041365241135585186,-0.6333168133944111,nan
1741052932.9786785,0.04428120830988506,1.227296848954585,0.18753366308846747,-0.22143152000252428,nan
1741052932.9825833,0.44929570980854117,1.1282031682305462,0.43333626473972564,0.3641763905180585,nan
1741052932.986488,0.5272680395381558,0.3460621893469882,0.5525095541561394,0.686432490780067,nan
1741052932.990393,0.1917140826511109,-0.6339482218559851,0.4193093196931271,0.49418393675906347,nan
1741052932.9942977,-0.32481323271450163,-1.219137563739982,0.03475349594118341,-0.07785839288545664,nan
1741052932.9982026,-0.6317693049439888,-1.0785878148518675,-0.43486834008096836,-0.6049461697947626,nan
1741052933.0021074,-0.4761371557531224,-0.32941290096051323,-0.7359146355044448,-0.6918123643314787,nan
1741052933.0060282,0.05529189057609384,0.5627548360179901,-0.6814815755198645,-0.26862605894522223,nan
1741052933.009933,0.5885850939367847,1.0839961986447584,-0.27827134267123166,0.3616256883888839,nan
1741052933.0138378,0.7353661915657432,0.9731318270785049,0.2656129791623863,0.7524250831867699,nan
1741052933.0177426,0.3792758983859495,0.3458049135793614,0.6627428598809083,0.6373971853312134,nan
1741052933.0216475,-0.24007286904559097,-0.4092891831542596,0.7178958347522298,0.10641242435620217,nan
1741052933.025552,-0.7043717024036076,-0.8743645559330738,0.43518528464967277,-0.48083359667893166,nan
1741052933.0294569,-0.715526162698407,-0.8326371797551083,-0.004767456066178367,-0.7572357348925887,nan
1741052933.0333617,-0.2925851235650697,-0.361275606692791,-0.37093795840433613,-0.5841706342458943,nan
1741052933.0372665,0.2674779916054746,0.243789153022287,-0.5176645327283351,-0.1051243179611268,nan
1741052933.0411713,0.6156289143934366,0.6495612968036107,-0.44171260463587797,0.38643994457755165,nan
1741052933.0450761,0.5831441212400031,0.6664402301778308,-0.23968487975604913,0.6411051265736356,nan
1741052933.048981,0.2574184178259343,0.3336641758606295,-0.01833211121746506,0.5733625462046962,nan
1741052933.0529008,-0.12559970224457542,-0.12596708462113584,0.16613304244005328,0.2587335259299116,nan
1741052933.0568056,-0.3620632548062996,-0.44718641669791703,0.30250785926283763,-0.144181803732637,nan
1741052933.0607104,-0.3913661729396704,-0.47499127577154326,0.37895467613936923,-0.4715035587545647,nan
1741052933.0646152,-0.27736380927632853,-0.2414892356130687,0.3561663135591923,-0.5983708065623462,nan
1741052933.06852,-0.11279977373684423,0.07434864604987566,0.1945192964029212,-0.4661281389637907,nan
1741052933.072425,0.05235923563429892,0.2731606326871231,-0.08673070932762214,-0.11185295131946915,nan
1741052933.0763297,0.20520606720436568,0.2626975005788474,-0.37878443990406185,0.31776850839806847,nan
1741052933.0802345,0.319285782469101,0.10215276621382566,-0.5255503442399044,0.6094774382505431,nan
1741052933.084139,0.3330230241684292,-0.061602260962524164,-0.42271242795302083,0.5925885022216808,nan
1741052933.088044,0.19360552241206958,-0.11294166526957175,-0.10261658594923634,0.25648813382318275,nan
1741052933.0919487,-0.07228230363427358,-0.049559389608853276,0.26673983755784575,-0.21621719377703633,nan
1741052933.0958536,-0.3372482533062733,0.03313887332670919,0.4806448436678374,-0.5487072670349742,nan
1741052933.0997715,-0.44034083949360164,0.03711460776781956,0.4303926322063087,-0.5483085426377573,nan
1741052933.1036763,-0.30135023580913783,-0.04657786225917554,0.17385362941573698,-0.23795826417613763,nan
1741052933.1075811,0.008647191829126313,-0.12893431924970178,-0.11045707877579954,0.16193416869394786,nan
1741052933.111486,0.3038926744618344,-0.10594950124306557,-0.25358821811566373,0.39292643181156794,nan
1741052933.1153908,0.40723953753953634,0.038104811315425015,-0.2130502886061751,0.3399117539847094,nan
1741052933.1192956,0.2696248721131466,0.20023477081790697,-0.08755341161068615,0.09703507857357184,nan
1741052933.1232004,-0.0026425550885572947,0.23555968251503756,-0.019949473003569237,-0.12649316280005904,nan
1741052933.127105,-0.22941059099373093,0.08315257791653997,-0.06816487789528956,-0.17755214955533827,nan
1741052933.1310098,-0.2819101752143882,-0.16579315259262145,-0.15200131994382238,-0.06718979931090256,nan
1741052933.1349146,-0.15954365940264573,-0.323519437751446,-0.12461595897531622,0.06472353677693374,nan
1741052933.1388195,0.029412417142225762,-0.25040391176794613,0.08535946257815841,0.08568638692355143,nan
1741052933.1427243,0.15599958446207357,0.024491416610133904,0.3800430385327786,-0.015487491483606631,nan
1741052933.1466413,0.15593792752197463,0.30924339062588,0.5365867957717207,-0.13184249602657835,nan
1741052933.150546,0.055565039376407506,0.3866613033783166,0.3722283061338291,-0.14578226047866136,nan
1741052933.154451,-0.06495786847262654,0.18213911119645831,-0.09085518722486878,-0.03791037264170855,nan
1741052933.1583555,-0.13085259804947788,-0.16965458805660005,-0.5972813290672436,0.10041795588775913,nan
1741052933.1622603,-0.11102261716800897,-0.4164202263102119,-0.8097135895738552,0.1564172660584846,nan
1741052933.166165,-0.021374992609145108,-0.3733550492569518,-0.5451689593276446,0.09961151062798643,nan
1741052933.17007,0.09240748302489417,-0.0628296395799484,0.07435642749826898,0.0027436559445102432,nan
1741052933.1739748,0.1741247926579267,0.29780479306750457,0.6781643012344709,-0.036934438699011155,nan
1741052933.1778796,0.17452979151380454,0.45249454752912477,0.8851581116242029,0.0022939381884278572,nan
1741052933.1817844,0.0728900674385098,0.2913037915352216,0.5625569208843719,0.044389224176545894,nan
1741052933.1856892,-0.100672701440671,-0.07151064094889932,-0.07952541109052919,-0.003518388177723092,nan
1741052933.189594,-0.26186762429450533,-0.38074028191709075,-0.6290816135676238,-0.1427356670907926,nan
1741052933.19352,-0.3071123874692288,-0.4215207051890989,-0.7514297225761999,-0.25607133250258113,nan
1741052933.197425,-0.17869208514628812,-0.1680842077187276,-0.4093598008739762,-0.2015160668390753,nan
1741052933.2013297,0.0812282214270748,0.20208209487151785,0.12919047027472402,0.04783154494765357,nan
1741052933.2052345,0.335416880629121,0.4329682811542909,0.49400931282497623,0.3458927141677353,nan
1741052933.2091393,0.427100673876446,0.3639711216680647,0.4731949299790032,0.4655343084900807,nan
1741052933.2130442,0.28299149131598117,0.03616216240667577,0.14354447044359486,0.2791046783888028,nan
1741052933.216949,-0.028787568899722275,-0.3351308352078845,-0.2136053745865734,-0.11992677809965457,nan
1741052933.2208536,-0.3331221843350617,-0.4993233210563653,-0.33488985354929907,-0.465306641292079,nan
1741052933.2247584,-0.45652261737680255,-0.33174389849264735,-0.16369911932926484,-0.511528744045389,nan
1741052933.2286632,-0.3360433083744553,0.08189794650755151,0.12987785111725159,-0.22382425605598313,nan
1741052933.232568,-0.053260718584171876,0.4891440902619857,0.29830559698147385,0.18959853782874955,nan
1741052933.2364728,0.22677231350407262,0.6197624383700622,0.20994814325380434,0.4343809750011966,nan
1741052933.240398,0.3631556950464473,0.35594801349230937,-0.06102852338925994,0.3543851108222318,nan
1741052933.2443027,0.31619790324004515,-0.17775752357109045,-0.30576383931618006,0.04556464803107114,nan
1741052933.2482076,0.14751294438314463,-0.6679438559992518,-0.34496412360779527,-0.230494600509337,nan
1741052933.2521124,-0.041592702159147614,-0.7922644758997938,-0.15573751947786066,-0.2613326530849893,nan
1741052933.2560172,-0.1768197464252953,-0.42701370925375465,0.12772297284111908,-0.05162122573298383,nan
1741052933.259922,-0.2351088752822184,0.24908257478671297,0.3243173977010996,0.1905462746301673,nan
1741052933.2638268,-0.22407936026716424,0.8375070525811995,0.3319757597868017,0.2344137607778742,nan
1741052933.2677317,-0.15257465866199624,0.9578920395665699,0.17709544113275333,0.023671957730591504,nan
1741052933.2716365,-0.02690034795402086,0.49905327711957126,-0.03224885526622427,-0.2724175932890337,nan
1741052933.2755413,0.12760538876711056,-0.28663701634871264,-0.19345257207948885,-0.3955840039698427,nan
1741052933.2794461,0.2519969173282691,-0.92522393438836,-0.2629755500853305,-0.21143947118166176,nan
1741052933.2833507,0.27526467167510604,-1.0207310421628717,-0.2475585409326469,0.17379101384239837,nan
1741052933.2872734,0.16497941146315417,-0.5156780929466586,-0.1644117145267665,0.48688501098474396,nan
1741052933.2911782,-0.03454114560913172,0.26913159167132045,-0.02201420355296675,0.4936337594749408,nan
1741052933.295083,-0.21635407693521408,0.8487952274024054,0.15973042633778814,0.176111384453421,nan
1741052933.2989879,-0.2766942723908461,0.8955120854383413,0.3205698774561441,-0.2542403619481747,nan
1741052933.3028927,-0.18643830463322328,0.4416596143518705,0.3684828668724993,-0.5132646581856123,nan
1741052933.3067975,-0.012303083730420087,-0.17370439078011077,0.23757768822528422,-0.44717732435633667,nan
1741052933.3107023,0.13129344695361658,-0.5637711718230756,-0.04559232213000272,-0.1301836712622673,nan
1741052933.3146071,0.16418048207161842,-0.5585206395231626,-0.34856932440504057,0.20745913249655124,nan
1741052933.318512,0.09348712284194613,-0.2816548427100912,-0.4989032169999358,0.3550181763561236,nan
1741052933.3224168,-0.0017404574830268838,-0.0015052274087032536,-0.39254062620565905,0.2636700244349406,nan
1741052933.3263216,-0.03928550072521094,0.10442674208522669,-0.06892486658489969,0.05570384268701969,nan
1741052933.3302262,0.0005675786727986931,0.07315397200357074,0.30349238833414505,-0.09160267568969584,nan
1741052933.334148,0.06398304675080818,0.07551219307855989,0.524346924818471,-0.08760967789002108,nan
1741052933.3380527,0.07309560661995711,0.21718937851839193,0.4768372434714746,0.013504900144880675,nan
1741052933.3419576,-0.006066238785585818,0.4083638890432328,0.1889431554755605,0.07430689232248025,nan
1741052933.3458624,-0.1317992135655339,0.4266422347586085,-0.19020212246865548,-0.0013818347622094802,nan
1741052933.3497672,-0.2147859836849895,0.12577193284912086,-0.4737837769657378,-0.18119484793080476,nan
1741052933.3536718,-0.18281614633621912,-0.3922555262681303,-0.527547417209196,-0.32095071165736566,nan
1741052933.3575766,-0.03342018795644456,-0.8039628954961017,-0.32488715558458925,-0.2724830344664435,nan
1741052933.3614814,0.16155672859097997,-0.7898026416864268,0.04590600908649559,-0.0034274713243745846,nan
1741052933.3653862,0.2986200858705324,-0.2875955697878951,0.41541522980583134,0.3582556204273078,nan
1741052933.369291,0.30117103515059235,0.43096688631660157,0.5980961898740704,0.5905792349894526,nan
1741052933.373196,0.15851459296519482,0.9316438061137378,0.47637651302226297,0.5159959460886085,nan
1741052933.3771007,-0.07124576558812384,0.9130038928747732,0.0758831502191785,0.12482750636631693,nan
1741052933.3810213,-0.2885749949590377,0.4052654837933588,-0.4148240950714342,-0.3972467161378629,nan
1741052933.384926,-0.39386227104462324,-0.2695023163708875,-0.7181979267075385,-0.7620771617193594,nan
1741052933.388831,-0.32818401961477195,-0.7313447637281449,-0.6218923088140138,-0.7435770183675755,nan
1741052933.3927357,-0.10253811756098863,-0.7845217518349821,-0.13076320345785003,-0.3182588933162969,nan
1741052933.3966405,0.19586129710692465,-0.49546980129892976,0.4943148468080509,0.305454031631029,nan
1741052933.4005454,0.43082989433215035,-0.08105211140395562,0.8679063827623367,0.7942942309624417,nan
1741052933.4044502,0.4769965128827856,0.26924243349882876,0.7226129874045979,0.8770007123009038,nan
1741052933.408355,0.2891633359359225,0.48502880030478646,0.10641388238943754,0.5021973788583008,nan
1741052933.4122598,-0.05861063999843705,0.572480271094611,-0.615610503122633,-0.12884155021580007,nan
1741052933.4161646,-0.39696845658813357,0.5213909153791507,-0.9816231072137916,-0.6768746570129299,nan
1741052933.4200695,-0.5463695933985938,0.28325437324033054,-0.7401239409247697,-0.8584836110850425,nan
1741052933.4239743,-0.41925008786242646,-0.14562622606759743,-0.030960516682234776,-0.60166320926374,nan
1741052933.4278936,-0.07657250999225881,-0.626523138449183,0.6965876313210234,-0.0718380790795408,nan
1741052933.4317985,0.3008595637685886,-0.8942755249173066,0.9814652384860751,0.43922542407110515,nan
1741052933.4357033,0.5132841338366159,-0.7208780234811935,0.6586916611273496,0.6842528052607139,nan
1741052933.439608,0.4549810079563409,-0.11443074098221336,-0.039216791483987004,0.5843371294709543,nan
1741052933.4435127,0.17085904060837392,0.6212195240035028,-0.654991995808941,0.24104382967708063,nan
1741052933.4474175,-0.17572694884977852,1.0498794785109382,-0.8228152715187366,-0.15004737552776246,nan
1741052933.4513223,-0.4006205513943108,0.8937813726745307,-0.4989821739333076,-0.414275271860131,nan
1741052933.4552271,-0.4007922426339756,0.23799108948898104,0.047874835253155244,-0.4708323406888242,nan
1741052933.459132,-0.2020323602258714,-0.5149929308770833,0.45714976063903645,-0.33862601480391774,nan
1741052933.4630368,0.06878285460078525,-0.9167418018428171,0.5272235833285114,-0.09846423444691134,nan
1741052933.4669416,0.26298890522963925,-0.771598746345372,0.3140174541385466,0.14986039291865894,nan
1741052933.4708464,0.29177393249581796,-0.24365966229242145,0.030035271170349234,0.31646786857810116,nan
1741052933.4747643,0.16617913172616341,0.29491956626744936,-0.14564761990414388,0.3422737790258477,nan
1741052933.4786692,-0.02096604789350048,0.5417963995789891,-0.18348022860102578,0.22082502089396136,nan
1741052933.482574,-0.15560229225902833,0.4505437548005183,-0.16777320400751888,0.011597899636024755,nan
1741052933.4864788,-0.16936466873062314,0.19906255031250902,-0.17098581782796468,-0.17783900885167497,nan
1741052933.4903836,-0.07552645114699029,-0.0009899880279087732,-0.17050291750040006,-0.2479594179228105,nan
1741052933.4942882,0.04572355425361105,-0.07530981181793837,-0.08614016576702446,-0.17255907899355225,nan
1741052933.498193,0.10358831707338441,-0.10003760655462662,0.10667455740369422,-0.022055855360451102,nan
1741052933.5020978,0.05958607379846396,-0.1720634777722911,0.30968218654313534,0.08452620526939372,nan
1741052933.5060027,-0.04493684497438452,-0.27847220512913845,0.3609775788290321,0.07177062599233096,nan
1741052933.5099075,-0.11850024670653601,-0.29653158791467565,0.17920756339127114,-0.027562663413957092,nan
1741052933.5138123,-0.08927358105009704,-0.12396951354283633,-0.13862932965647567,-0.09551981104427823,nan
1741052933.5177171,0.034493596551613194,0.18932733700835186,-0.36850843020164664,-0.031076730123863576,nan
1741052933.521634,0.16207318727467776,0.44380246624426956,-0.33385391377622475,0.14886604268587,nan
1741052933.525539,0.1850085350433829,0.44071444184291125,-0.060156271525346236,0.30084405603268743,nan
1741052933.5294437,0.06499465944132324,0.15484468135199372,0.23052065230160337,0.2610902521276131,nan
1741052933.5333486,-0.12427498620472696,-0.22566720807869936,0.29584453162837687,-0.0090879882660618,nan
1741052933.5372534,-0.24209839369971914,-0.4368273548107565,0.08080186666325166,-0.35997807550872896,nan
1741052933.5411582,-0.18699937706135647,-0.34374990389805743,-0.22222129359628612,-0.5397310618640422,nan
1741052933.545063,0.015638891351121443,-0.042001492843631354,-0.3252779009534895,-0.3798515052603104,nan
1741052933.5489678,0.21920458032144702,0.22841875755269167,-0.09384790368606016,0.05938272103576322,nan
1741052933.5528727,0.26131385217251113,0.2803641114481791,0.3150986435103053,0.5053191705685249,nan
1741052933.5567775,0.09388875793185548,0.119802897330301,0.555430473349126,0.6542288581073064,nan
1741052933.560682,-0.1660277387828295,-0.08398650702839545,0.369275699332844,0.3903200846044674,nan
1741052933.5645869,-0.3144598491209231,-0.15997274276523465,-0.17924401249256114,-0.12200548963204995,nan
1741052933.5685134,-0.2168572671514887,-0.07868969097234524,-0.7136301818530693,-0.5470674504248613,nan
1741052933.572418,0.0766046268275677,0.04656523635039839,-0.8118459752514643,-0.6116614621511238,nan
1741052933.5763228,0.35319455068429695,0.08820743586569821,-0.33570713890691345,-0.2926495684141902,nan
1741052933.5802276,0.39090982809464675,0.030874964995574045,0.43449677325773406,0.17721140691129725,nan
1741052933.5841324,0.1314016907647444,-0.027474042974535623,0.977698902571194,0.48335000084555235,nan
1741052933.5880373,-0.261761640199477,0.003475195360981001,0.901650561014699,0.44937788815945845,nan
1741052933.591942,-0.5114300136006585,0.09110000162565747,0.2325085289502571,0.14281683747057325,nan
1741052933.595847,-0.4267571013879223,0.0982128534772414,-0.5930701386465153,-0.19895822334170346,nan
1741052933.5997517,-0.04658424552502126,-0.06743164189620836,-1.0306988047796601,-0.3516383242077367,nan
1741052933.6036565,0.3821410315858184,-0.31595619083308557,-0.8055211851751961,-0.25306474012427627,nan
1741052933.6075613,0.5762941164411234,-0.40532284614385256,-0.09250287178355965,-0.01734275116794169,nan
1741052933.6114662,0.41243010897914706,-0.1483919099294907,0.6217320669049845,0.17527951563265395,nan
1741052933.6153905,0.005211796748832298,0.3718411686834106,0.88395594021441,0.21306930005013125,nan
1741052933.6192954,-0.3819413284505606,0.7913321764040303,0.5737143673704042,0.11132958692347217,nan
1741052933.6232002,-0.5203484998800009,0.7175935368705844,-0.04670637528433451,-0.030695962269390538,nan
1741052933.627105,-0.3583289718998226,0.07001089226260211,-0.5448908751280716,-0.11908420368033097,nan
1741052933.6310098,-0.029402918618318417,-0.7796711546240408,-0.6226998485772193,-0.12337486272538946,nan
1741052933.6349146,0.260481863135756,-1.2248934774783107,-0.29544437546574437,-0.07029110691309427,nan
1741052933.6388192,0.370433758806797,-0.8718195707538505,0.1606253799579515,-0.0004907622348215286,nan
1741052933.642724,0.28997753430473233,0.12290231419578786,0.4272855668958817,0.0618489193739052,nan
1741052933.6466289,0.10623776135921784,1.111539506291305,0.3599237968061213,0.10502117411535426,nan
1741052933.6505337,-0.07685553004878823,1.402389670254918,0.05643488567733069,0.11238122222655093,nan
1741052933.6544385,-0.19622282531369237,0.7718779309033976,-0.24374103871229563,0.06453096100383678,nan
1741052933.6583433,-0.23360313999534418,-0.3533950370741698,-0.3371588780920555,-0.03425607574331311,nan
1741052933.6622665,-0.1905537290327311,-1.1982678916979936,-0.182912179350788,-0.13631797662575992,nan
1741052933.6661713,-0.07682135186363466,-1.2043657555938847,0.09377133950349033,-0.1706027504024088,nan
1741052933.6700761,0.07569982107560926,-0.42985120490976153,0.30192024189764965,-0.09763068698757255,nan
1741052933.673981,0.20156612245713942,0.5195970331391345,0.310191588581731,0.046648867599372465,nan
1741052933.6778858,0.2261644774165119,0.9664956088765619,0.11925965100963082,0.16491638410980705,nan
1741052933.6817906,0.12117778516544245,0.6675142371168546,-0.15088987233716297,0.169948088174222,nan
1741052933.6856952,-0.056144280887277756,-0.0404334110546356,-0.3386272614882889,0.05786446735449411,nan
1741052933.6896,-0.18720474050308036,-0.5498880132433948,-0.3338203967585906,-0.08249281553481154,nan
1741052933.6935048,-0.17611078639338135,-0.4823301848925607,-0.13725404545914902,-0.13939270622565264,nan
1741052933.6974096,-0.030781848226051716,0.027582520547881056,0.14160767396483148,-0.07247160441847875,nan
1741052933.7013144,0.1317718091690205,0.47901541779619644,0.3459319537187328,0.05027487114074966,nan
1741052933.7052193,0.17243526504790352,0.44386925700098134,0.35999123140999056,0.10960379547989063,nan
1741052933.709141,0.0458405231165255,-0.07176040413141517,0.17639792391173978,0.0414391575021182,nan
1741052933.7130458,-0.1516040583335916,-0.6363111521769734,-0.09848165948962048,-0.09960021145545246,nan
1741052933.7169507,-0.24988734933827544,-0.7538069874532571,-0.30762430804249974,-0.1798845382383423,nan
1741052933.7208555,-0.14289581088446573,-0.27442819367656524,-0.3382502841919278,-0.10212893040471378,nan
1741052933.7247603,0.1148286656258627,0.4783187095714582,-0.18811492196146998,0.10038102107986437,nan
1741052933.7286649,0.3363701541480661,0.9580948176630444,0.0404667395772106,0.27585691290107905,nan
1741052933.7325697,0.3415064765133514,0.8144124122138281,0.2130771645454281,0.2706969008797646,nan
1741052933.7364745,0.10017718104816613,0.1475604517637864,0.24941052840913833,0.05880194719841257,nan
1741052933.7403793,-0.23449734369674524,-0.5858282607892821,0.16272201544771697,-0.2245684380589608,nan
1741052933.7442842,-0.43353712813901124,-0.920186460761091,0.030425763417422265,-0.37776400762507645,nan
1741052933.748189,-0.3589279913943949,-0.7002270407936618,-0.0723671975346194,-0.28482110634849567,nan
1741052933.7520938,-0.062337879451635554,-0.14091332327027703,-0.11958323035884413,-0.004872430852788232,nan
1741052933.756014,0.25728847697772184,0.37941091154309814,-0.12827194123556154,0.2715140777493604,nan
1741052933.759919,0.3997857558780941,0.5982650698972696,-0.11734299802507779,0.3634482905989323,nan
1741052933.7638237,0.29932496307514345,0.5032566104739392,-0.0790228781090022,0.22731633666831647,nan
1741052933.7677286,0.051617472443726053,0.255356803110258,0.005638002253057678,-0.024548291341174824,nan
1741052933.7716334,-0.17445576042369706,0.014149253865005108,0.12410538931573588,-0.219392162249761,nan
1741052933.7755382,-0.2604814017645484,-0.1675864293461432,0.21250910757274502,-0.2509434053400727,nan
1741052933.779443,-0.20189779029648428,-0.31030713805691973,0.1919920667884352,-0.139470741982769,nan
1741052933.7833476,-0.07716721039643806,-0.4082090810803704,0.040038980362606856,0.00957745575085665,nan
1741052933.7872524,0.031945047037323426,-0.3897085678882383,-0.1669497801400129,0.09940012941117128,nan
1741052933.7911572,0.09432541367843995,-0.18703088121125025,-0.2899657467514348,0.10607055035685674,nan
1741052933.795062,0.12150335934618005,0.1584713564678775,-0.2278056364929661,0.06967443472968755,nan
1741052933.798967,0.12480088734274435,0.4745491587767996,-0.00484007104356031,0.03750036583087972,nan
1741052933.8028862,0.09242382430127408,0.5636544457265327,0.23164576780547955,0.020233989806511542,nan
1741052933.806791,0.011286503596902172,0.3554582828895229,0.3139146908425809,-0.001939686369815552,nan
1741052933.810696,-0.0950156603511618,-0.027749978413043323,0.18114666903621432,-0.04070326929027528,nan
1741052933.8146007,-0.1620915474970549,-0.3562741805750358,-0.07054248633964108,-0.07593804170565549,nan
1741052933.8185055,-0.1314587734745056,-0.46047649681066405,-0.25975560350555027,-0.0737594578333615,nan
1741052933.8224103,-0.009650608276804556,-0.33997021656087695,-0.2586639532001252,-0.025842150838930208,nan
1741052933.8263152,0.12032009833216854,-0.12831689143105562,-0.08761269211115487,0.034547876679501856,nan
1741052933.83022,0.15743398019740976,0.04206561753148233,0.11058862594257758,0.060704207017955085,nan
1741052933.8341248,0.06778955989743947,0.1435450757211855,0.19254647856168622,0.03835484726322337,nan
1741052933.8380294,-0.07878969139029611,0.23224350948390782,0.12779369482204886,0.0009960289758107258,nan
1741052933.8419342,-0.15983356046163472,0.3355104223735977,0.008591946404965039,-0.005093434453247192,nan
1741052933.845839,-0.10189767507533001,0.3752692855902221,-0.04735898893469684,0.026661269630624165,nan
1741052933.8497574,0.05320668214954718,0.2233760805647737,-0.00980864598955858,0.0492335470105098,nan
1741052933.8536623,0.17825647573681946,-0.14768322252750066,0.04050794115767538,0.008777085308593731,nan
1741052933.857567,0.16562909020369673,-0.5658809229916856,0.0006968058419304064,-0.08856163289790635,nan
1741052933.861472,0.0192997468744327,-0.7357778041658769,-0.13595318636698775,-0.16017731348135636,nan
1741052933.8653765,-0.14634123182003872,-0.4620684770956038,-0.24861973921961908,-0.1119473886763877,nan
1741052933.8692813,-0.20178177150154872,0.15581130458224823,-0.18733557034982598,0.06353429097517357,nan
1741052933.873186,-0.11042647735691356,0.740364259585949,0.07659742045667521,0.24890195216513658,nan
1741052933.877091,0.0441710851439322,0.8865227789963352,0.38566221302153547,0.27791296251630926,nan
1741052933.8809958,0.13498143473017662,0.4682180012584248,0.4930519750208271,0.07870923354518475,nan
1741052933.8849006,0.10329160596917372,-0.24439725541893506,0.26010854344767026,-0.2363878263669092,nan
1741052933.8888054,0.00544841205005661,-0.7671087865556634,-0.2051691059133503,-0.42874190308078863,nan
1741052933.8927102,-0.04709975238237888,-0.7555245012246481,-0.5959839155502469,-0.314760952055388,nan
1741052933.8966272,0.0011840122425928867,-0.2577400269401186,-0.6229960336431168,0.06829085008092371,nan
1741052933.900532,0.09192980281307207,0.3340119445126017,-0.23832077452360992,0.4582163904565145,nan
1741052933.9044368,0.1056985270452515,0.5940885750218466,0.3120631195446013,0.5512649411805347,nan
1741052933.9083416,-0.018443826488398922,0.3874982116966286,0.6585318015190126,0.24177547307423672,nan
1741052933.9122465,-0.20684885220001284,-0.050002835543653326,0.57583195064728,-0.2742082503518328,nan
1741052933.9161513,-0.29658341740079613,-0.33110689929556864,0.1434854016908394,-0.627869730103136,nan
