timestamps,TP9,AF7,AF8,TP10,Right AUX
1741084972.4705992,-1.190189794421147,-0.015189084755254151,0.04770240699352433,-0.4331492507630335,nan
1741084972.4745004,-0.814543713551138,0.8891082695641899,0.05495326135408086,-0.45749925472861475,nan
1741084972.4784017,0.06314260761295755,1.1493930198926507,0.1442168561753972,-0.18480717598105084,nan
1741084972.482303,0.9222389798940169,0.7533867767367849,0.26954914633360233,0.1751169593979051,nan
1741084972.4862041,1.2393571281949816,0.08739933372927677,0.2996344703222854,0.3733308097733256,nan
1741084972.4901056,0.8432025207308882,-0.39585194434024834,0.13870608562245532,0.3070667349343915,nan
1741084972.4940069,0.019100456820091396,-0.4945418938255644,-0.16952555049059823,0.07446954774667038,nan
1741084972.497908,-0.7080227033963633,-0.33334093361730277,-0.4492280176377572,-0.13031426288990863,nan
1741084972.5018094,-0.9398671278730807,-0.17797467660918123,-0.5124307789768563,-0.1805040313748482,nan
1741084972.5057106,-0.6455338127030159,-0.17176190146567216,-0.2983849520977174,-0.10032418629540057,nan
1741084972.509612,-0.11663764901246222,-0.22024994126430097,0.07789403216680042,-0.010941181959854784,nan
1741084972.5135133,0.2935654172090019,-0.11091589473145946,0.404632621120567,-0.002508200890707451,nan
1741084972.517474,0.4214920088192765,0.2472670073310287,0.5156207526143605,-0.05341108427144766,nan
1741084972.5213752,0.34650091333591165,0.6812515857949425,0.3867956795025916,-0.06573479661187841,nan
1741084972.5252767,0.24180837140789851,0.8466115201398713,0.12298087203848716,0.02378613027586309,nan
1741084972.529178,0.18613061660689992,0.4989324505491773,-0.13724402362542923,0.16620532543079589,nan
1741084972.5330791,0.11098737114446319,-0.268307011464989,-0.3109166883880556,0.23260521430935222,nan
1741084972.5369804,-0.08315395409479243,-1.0224146434853063,-0.38670132727147083,0.1308070411692385,nan
1741084972.5408816,-0.37025019707515827,-1.257505389694161,-0.3755627105452972,-0.09811289981073171,nan
1741084972.544783,-0.5665829064956638,-0.75165609232277,-0.2641031968323787,-0.29442071951987403,nan
1741084972.5486844,-0.4704121824769301,0.24452862096643105,-0.02881617683951423,-0.30119117470696205,nan
1741084972.5525856,-0.05647813231800501,1.139408557269633,0.298981748228758,-0.09446536993991402,nan
1741084972.5564868,0.4536901616219986,1.3775544688079475,0.5895767135531657,0.18745970203849638,nan
1741084972.560388,0.726783585275239,0.8084464374030853,0.658913802333491,0.34380010539367895,nan
1741084972.564348,0.5637289969573908,-0.2093542908182479,0.3923634425456993,0.26271194983756563,nan
1741084972.5682492,0.06060037219515617,-1.0436659517515625,-0.14011433374514845,0.005080626294001393,nan
1741084972.5721507,-0.4505418950325897,-1.2033236882390594,-0.6795089364310725,-0.2435576734358206,nan
1741084972.576052,-0.6406580546491019,-0.6487673822251655,-0.9132023542085516,-0.3124371854426058,nan
1741084972.5799532,-0.41816490760311253,0.20837676334439076,-0.6724522310924029,-0.16714073023486695,nan
1741084972.5838544,0.020397191334160247,0.8046690756252372,-0.05708890072780217,0.07594470478856964,nan
1741084972.5877557,0.35452719309850866,0.8062289045219514,0.606156726837033,0.2444662814936718,nan
1741084972.5916572,0.38198666198596753,0.30803832217916155,0.9530218145545168,0.23502092014786147,nan
1741084972.5955584,0.1499648333575013,-0.2739727740297682,0.7983960035661651,0.07532578442677662,nan
1741084972.5994596,-0.11465787658295619,-0.5227850980532911,0.24181609873442925,-0.11207867479838708,nan
1741084972.603361,-0.20273709194125408,-0.3138278624879423,-0.40087487006548217,-0.2046846694947353,nan
1741084972.6072621,-0.08190002107168647,0.12356363466378029,-0.788992972596752,-0.15879998992749725,nan
1741084972.6112218,0.10287729786698299,0.4054679546637635,-0.7482194225930872,-0.022795827633625303,nan
1741084972.6151233,0.17021811896249814,0.29358330225247836,-0.3495302089856862,0.10962249410854807,nan
1741084972.6190245,0.05719381858285577,-0.12804563983810444,0.15757294878536254,0.162490226630599,nan
1741084972.6229258,-0.1377030609496283,-0.5239101376241985,0.5024075141819112,0.11548855866685057,nan
1741084972.626827,-0.24700589135619647,-0.5643878801991254,0.5416351380306319,0.003907577649558383,nan
1741084972.6307285,-0.1750306651644847,-0.1753728012054404,0.3178148856742231,-0.10676174462917984,nan
1741084972.6346297,0.029633408771586177,0.4014741141795324,0.0069645922528062355,-0.1536567189432148,nan
1741084972.638531,0.22001600666493965,0.7770526032214516,-0.2026052976622956,-0.10602997281196225,nan
1741084972.6424322,0.26692265058537434,0.6865172875231335,-0.22413692118847459,0.01575407268422394,nan
1741084972.6463335,0.1492116389379601,0.17083100823996958,-0.11218263490083157,0.1424417537239402,nan
1741084972.650235,-0.04470215516513929,-0.4542368480414083,-0.007050640258884373,0.18848845654028817,nan
1741084972.6541362,-0.1908395906654942,-0.8114452286005885,-0.02143643039465371,0.10666573505630726,nan
1741084972.658095,-0.21341962824654917,-0.7048743227756257,-0.14658180649678196,-0.0682219219115206,nan
1741084972.6619964,-0.12008012283285398,-0.22955892096108252,-0.2487804586823173,-0.22565816428035926,nan
1741084972.6658976,0.02123138034989167,0.3131694420562247,-0.16989731945792366,-0.24631320210185026,nan
1741084972.6697989,0.13162180510530447,0.6214648493347574,0.1317109289060302,-0.0912023324773815,nan
1741084972.6737,0.16016951373722305,0.573875305444389,0.506995383217977,0.15416068534631405,nan
1741084972.6776013,0.09912104273472085,0.2716710114637623,0.6840765180273348,0.3249502381324955,nan
1741084972.6815028,-0.017556353912795915,-0.06592408444849994,0.4550167569757316,0.29022105477632054,nan
1741084972.685404,-0.12574529382697022,-0.26277821143146735,-0.14202311765180342,0.054061214855422327,nan
1741084972.6893053,-0.15651764951082348,-0.2859055721729986,-0.7903944137640566,-0.23559227387843545,nan
1741084972.6932065,-0.07596922867917567,-0.2245628295476465,-1.0675987063555619,-0.3851512190512182,nan
1741084972.6971078,0.07988462643338219,-0.1820458149096473,-0.7286784400174403,-0.29206748958300777,nan
1741084972.7010093,0.2090556649630698,-0.17522489177265158,0.0940303913809735,-0.018092069975725534,nan
1741084972.7049727,0.20291611956676014,-0.12437758759576097,0.9335464989919545,0.25642241102045293,nan
1741084972.7088742,0.03149882279298601,0.058510271551797756,1.2705423337722388,0.36152196395444675,nan
1741084972.7127755,-0.21096171487840754,0.35585906708872006,0.8756432397575749,0.2514532264197542,nan
1741084972.7166767,-0.3514988149647619,0.605557828736343,-0.02608123477311398,0.020808524578630198,nan
1741084972.720578,-0.25953515147576517,0.5880882534276802,-0.8920336733387331,-0.17927771335290515,nan
1741084972.7244792,0.04114924238926087,0.19495748103869007,-1.2130483163829773,-0.2504096872932728,nan
1741084972.7283807,0.363890047411698,-0.441391603880531,-0.8373136421599784,-0.19636733635235523,nan
1741084972.732282,0.4781302230604152,-0.9705176512920057,-0.04598244898228112,-0.08687058533337806,nan
1741084972.7361832,0.2784758834238392,-1.0194359706345828,0.6605616601051744,0.016025669868872123,nan
1741084972.7400844,-0.12389990711408533,-0.452669026563466,0.901178990016997,0.09710684653555625,nan
1741084972.7439857,-0.4660290212008818,0.48153816894738205,0.6350334521603243,0.16489364345996593,nan
1741084972.7478871,-0.5154621306008501,1.2477627272977108,0.1265626316096565,0.20449028889396556,nan
1741084972.7518444,-0.23736209080625284,1.3378415603751033,-0.28681620551347614,0.16835828710460796,nan
1741084972.7557456,0.1798063412957509,0.6165286622478382,-0.4293186341999682,0.025206375884382532,nan
1741084972.759647,0.46023069527092697,-0.5398549681694392,-0.3534927306770526,-0.17951812858181695,nan
1741084972.7635484,0.4355986610372439,-1.4363938261491827,-0.22165586473664875,-0.32250004492438145,nan
1741084972.7674496,0.15349969964603857,-1.489735553910103,-0.13353897489269423,-0.28403118892673745,nan
1741084972.7713509,-0.17529783395301954,-0.6228284217102121,-0.05653148402091089,-0.05442164325315268,nan
1741084972.775252,-0.3399545264195223,0.6508822584650132,0.09420789103765262,0.23053686285111333,nan
1741084972.7791533,-0.2730495601601712,1.5352025648956371,0.31936502679949275,0.37303989965597245,nan
1741084972.7830548,-0.07135214574155062,1.4643544907392407,0.4852435435115341,0.2629978848335339,nan
1741084972.786956,0.10456910874854528,0.48068368185367244,0.4196016052033446,-0.025597034712558458,nan
1741084972.7908573,0.15748292195022584,-0.7855321237667106,0.07550234549811688,-0.2796520329583786,nan
1741084972.7947586,0.10553664594669024,-1.5290201680388276,-0.385193708474097,-0.3088852287605096,nan
1741084972.7987206,0.03297017675133315,-1.2977609065823021,-0.6766100173919,-0.09857497021188624,nan
1741084972.8026218,0.0005533721584274531,-0.2776753854877232,-0.5891092011177349,0.1743727770482337,nan
1741084972.806523,0.0007439561838242325,0.8540536685428083,-0.1510315844697762,0.2822853243609924,nan
1741084972.8104243,-0.010769274669410063,1.3931130596925676,0.37754085028901085,0.13401800573789294,nan
1741084972.8143258,-0.050995251025732304,1.061172366608318,0.6781842395571602,-0.14572328783148136,nan
1741084972.818227,-0.08375646334970428,0.14424890015098557,0.5853649366708111,-0.3150716893015873,nan
1741084972.8221283,-0.05906399488359792,-0.7499035242786106,0.18255282017641755,-0.2151812409864471,nan
1741084972.8260295,0.024270647437747487,-1.113432170674033,-0.2747846055113607,0.09198681057678923,nan
1741084972.8299308,0.10131427683881371,-0.8345823242766256,-0.5364715018710455,0.36503871143571576,nan
1741084972.8338323,0.09474338071671608,-0.18890857095932806,-0.5008562840710504,0.37474423523113015,nan
1741084972.8377335,-0.006576314356846889,0.41464433514016136,-0.23713131535693976,0.09206103882165162,nan
1741084972.8416348,-0.1217669598682101,0.7095644620621309,0.09638985569245455,-0.2811165821373564,nan
1741084972.845596,-0.13949532511151105,0.6737071337338028,0.35290184591197377,-0.4657993096672642,nan
1741084972.8494973,-0.019993124873469915,0.43397632881569653,0.4472024092669809,-0.3222865139647503,nan
1741084972.8533988,0.15441604998271716,0.1106958113451339,0.3537539960014034,0.04293911421057349,nan
1741084972.8573,0.23486039080835935,-0.24421893173185225,0.09746914417775233,0.36248292531869214,nan
1741084972.8612013,0.13006303961277674,-0.5841958459014042,-0.23580323153112756,0.4140904726822154,nan
1741084972.8651025,-0.10485717793061446,-0.7865145520545781,-0.4955185615807274,0.18326945724989974,nan
1741084972.8690038,-0.2973096334398775,-0.6794441306613945,-0.5173497869139,-0.14059944949469486,nan
1741084972.8729053,-0.28962841056427585,-0.1898785012971959,-0.23095457894732221,-0.3211142893079718,nan
1741084972.8768065,-0.06977737084039837,0.5175039101292319,0.24831186783180245,-0.25306209854321415,nan
1741084972.8807077,0.20990491148509505,1.0660749284663047,0.6410844044688873,-0.024092554420560228,nan
1741084972.884609,0.34684043899060935,1.0891307043026328,0.6662444955539171,0.17523902593241955,nan
1741084972.8885105,0.24549279064354795,0.5016347701668735,0.25005978171976445,0.2069127274048946,nan
1741084972.892471,-0.009938636857467055,-0.39535201671764114,-0.37894111019823135,0.07914548643383193,nan
1741084972.8963723,-0.2264946502604244,-1.0842612883840423,-0.8101218282714753,-0.08467942343767375,nan
1741084972.9002736,-0.25746004418380397,-1.1691187533585192,-0.7278091149686932,-0.15849159373528343,nan
1741084972.9041748,-0.11294737675326375,-0.6362210935743132,-0.1513297486144253,-0.10668634787642985,nan
1741084972.9080763,0.06304843577247757,0.1559757382986351,0.5508335470709,0.010465716096452004,nan
1741084972.9119775,0.12441679355672447,0.7428643307716223,0.903788166108497,0.10457792555708093,nan
1741084972.9158788,0.04760358337743434,0.8653951490862559,0.6607148510032578,0.12892913488935984,nan
1741084972.91978,-0.05779797170787037,0.5943281210582735,-0.015960795059981513,0.09344132072629022,nan
1741084972.9236815,-0.058834406074927355,0.198379329747748,-0.6655121836255613,0.029545685056424343,nan
1741084972.9275827,0.06980286503659819,-0.10242646463920003,-0.8544840800401141,-0.045051041544399956,nan
1741084972.931484,0.21196709505996048,-0.2789207956686544,-0.47868254678675237,-0.12351085001665578,nan
1741084972.9353852,0.20791143366039805,-0.42566309264729785,0.17726942252468006,-0.18142431837574177,nan
1741084972.9393451,0.0027084646070290575,-0.5789915993208274,0.6579991685124518,-0.16883774409805538,nan
1741084972.9432464,-0.2839693026566542,-0.6186217807753331,0.6633104122297991,-0.04843425446752798,nan
1741084972.9471476,-0.43420631016103284,-0.3663628225803235,0.24196461805790856,0.14916833096982438,nan
1741084972.9510489,-0.3006736682458579,0.2006647394018575,-0.275292521455979,0.3138491812084023,nan
1741084972.9549503,0.0657037402515811,0.8318160839014049,-0.5332219839378073,0.3195568990000647,nan
1741084972.9588516,0.4348751197492519,1.1238707622982438,-0.3985480108727791,0.12474674258319349,nan
1741084972.9627528,0.5553069517805964,0.8160195089207046,-0.022359757393898616,-0.17411147387258483,nan
1741084972.966654,0.33367622135111097,0.023264004067496725,0.3027844044174874,-0.39273349785540923,nan
1741084972.9705555,-0.09683167924819179,-0.8009551431943789,0.3632025317592147,-0.3861178487125822,nan
1741084972.9744568,-0.4678508739694577,-1.1683777393621595,0.15727267437431708,-0.1562913417541038,nan
1741084972.978358,-0.5568049492773866,-0.8971262384152828,-0.13628817035401933,0.14701037020142577,nan
1741084972.9822593,-0.3272478579848982,-0.22190397657257152,-0.3050945226480032,0.3360973850000325,nan
1741084972.9862185,0.06336693908909999,0.4096368046927998,-0.24598288393736945,0.3186399291474177,nan
1741084972.9901197,0.38029478722255955,0.6794868483940818,-0.013117418969374212,0.14940598471035454,nan
1741084972.9940212,0.46130045295414357,0.5967060646473361,0.2372429010066544,-0.03436513363966763,nan
1741084972.9979224,0.2995146487756007,0.4003370269484859,0.34880256118695246,-0.13068585031158236,nan
1741084973.0018237,0.01946698016668081,0.28078179170396733,0.24893725915334422,-0.14014691613487232,nan
1741084973.005725,-0.2178948412543889,0.19128776275818443,-0.019217950035233265,-0.13114543906983966,nan
1741084973.0096264,-0.3090505118850115,-0.06765326190875652,-0.31728904102102995,-0.14701906042221324,nan
1741084973.0135276,-0.24698352932572123,-0.5698051871287209,-0.473377550702779,-0.15120971192825025,nan
1741084973.0174289,-0.09882087170406864,-1.069229433171391,-0.36871170534556974,-0.06735638459239184,nan
1741084973.02133,0.047891355618095675,-1.1173987963746355,-0.017628421722244676,0.12320963874926705,nan
1741084973.0252314,0.13321323367690158,-0.4424087836994438,0.40879522119949074,0.3254735717855551,nan
1741084973.0291328,0.14550737242004377,0.7225351181922607,0.6548170578315817,0.38350289983284225,nan
1741084973.0330913,0.11261657624633124,1.6822762297379763,0.53152128369561,0.20939881850704878,nan
1741084973.0369925,0.07392553962947443,1.7324487725533246,0.06030586743959448,-0.1221629594324913,nan
1741084973.040894,0.049899865958537036,0.7061603851295928,-0.5024552343375512,-0.40594014227791875,nan
1741084973.0447953,0.027583894154286998,-0.8234805545617223,-0.8058161291854512,-0.4519908939726871,nan
1741084973.0486965,-0.02545483651361773,-1.8878154285508943,-0.6350157458273579,-0.23118137767148544,nan
1741084973.0525978,-0.12389808704313388,-1.7928906523612937,-0.07279712351703564,0.10078334771072997,nan
1741084973.0564992,-0.2312818301290277,-0.6203973960446433,0.5376153872667985,0.32359329504927786,nan
1741084973.0604005,-0.2646345524090757,0.8272198145445855,0.8174022650948873,0.3187274777528807,nan
1741084973.0643017,-0.14892032717171305,1.6049357047854491,0.6087379217498321,0.14552571784558177,nan
1741084973.068203,0.10955835669639372,1.2920563397933444,0.07448353656991534,-0.03083549302125942,nan
1741084973.0721042,0.3907783192032315,0.24888133745033952,-0.4319046905623787,-0.08957853980123587,nan
1741084973.0760057,0.5130301378314973,-0.7111126195323112,-0.6224605241574275,-0.048276672058478555,nan
1741084973.079964,0.35202799825705877,-0.9546731079593275,-0.4582459439843345,-0.021216340422634348,nan
1741084973.0838652,-0.052065292651037084,-0.4683794167129796,-0.12810485743508276,-0.08804029666202592,nan
1741084973.0877664,-0.48750476433249,0.21521027345301233,0.13751816041924383,-0.20077708568416822,nan
1741084973.091668,-0.6886730013435739,0.5028624126155073,0.24616617273241811,-0.22152518433884852,nan
1741084973.0955691,-0.509670122629159,0.21934837138620705,0.2657983078092179,-0.060391924482403145,nan
1741084973.0994704,-0.03284036822866421,-0.3007313098210237,0.29204702240297115,0.2149120146494803,nan
1741084973.1033716,0.47165195283523026,-0.5467269942662598,0.30794045370676854,0.40828517957384186,nan
1741084973.107273,0.7144461150074308,-0.2807585698229392,0.1881467458371782,0.3511508049811976,nan
1741084973.1111743,0.5688315176039056,0.2791279519279174,-0.14462557673971954,0.05406245613959841,nan
1741084973.1150756,0.1407683979991523,0.6724735559408411,-0.5651659634392237,-0.2831397404226059,nan
1741084973.1189768,-0.3150051705501378,0.5961849977697378,-0.7702859655547254,-0.42202226963326306,nan
1741084973.122878,-0.5636471409990563,0.13959628019806028,-0.5070859654681186,-0.27538621712658756,nan
1741084973.1268406,-0.5212419261035184,-0.32933269468803544,0.17112752466108772,0.024648277031669493,nan
1741084973.130742,-0.26773431598434266,-0.4979825027080243,0.8607876767902005,0.24001575507295025,nan
1741084973.1346433,0.04194202245726027,-0.3543417533129174,1.0630701602690027,0.22532317714012529,nan
1741084973.1385446,0.28232499786454707,-0.1370227741170308,0.5691073346589348,0.04125221738919236,nan
1741084973.1424458,0.4007159783130644,-0.06355487476122919,-0.3341156928578195,-0.11336920681788215,nan
1741084973.1463473,0.3924470264029673,-0.11004410390288374,-1.0330869128742566,-0.0877342365810914,nan
1741084973.1502485,0.26252090972993936,-0.05597090673026898,-1.0328071436143627,0.08362459006746516,nan
1741084973.1541498,0.025955455902647244,0.25092501285649316,-0.3391696594928901,0.2153662397248446,nan
1741084973.158051,-0.2575531481421967,0.6724210485478533,0.5330241540191886,0.14652366819730805,nan
1741084973.1619523,-0.4691766040128926,0.8360474037896651,0.9496427145193203,-0.10229208859566864,nan
1741084973.1658537,-0.48082122303939123,0.4523350428198549,0.6444672689382765,-0.3342608637190049,nan
1741084973.169755,-0.2486278180293231,-0.3775600444014453,-0.08467939533775252,-0.3441053177972085,nan
1741084973.1737168,0.12734973055947396,-1.154317817237778,-0.6304853850083495,-0.1009994968548986,nan
1741084973.177618,0.44327477042521046,-1.3198487336554754,-0.5744437202080991,0.21732462416119952,nan
1741084973.1815195,0.5189965516057081,-0.688618544506717,-0.020313708667628008,0.37245936233033355,nan
1741084973.1854208,0.32132699709228824,0.3804493883505138,0.5107710112542732,0.2658061289469343,nan
1741084973.189322,-0.014678232830620672,1.222861959132244,0.5328092824486903,0.014298631187883689,nan
1741084973.1932232,-0.28577119390938205,1.3378034106949892,0.01338147375140406,-0.16432446471472492,nan
1741084973.1971245,-0.3625902057200011,0.7232273476412419,-0.5957038039024474,-0.15023224517546577,nan
1741084973.201026,-0.2616448887955842,-0.17079879234359854,-0.74296286143087,-0.021266757729262422,nan
1741084973.2049272,-0.09802640673864448,-0.804347797472599,-0.25279507776118126,0.038075129730980796,nan
1741084973.2088284,0.026987553882713785,-0.9172725962380793,0.5115615959614458,-0.06794143618636819,nan
1741084973.2127297,0.09798281445288956,-0.6258364603716503,0.9392530503658716,-0.2349035394060217,nan
1741084973.2166312,0.1581204417560855,-0.22244031431576672,0.6753975663916176,-0.2468403571243236,nan
1741084973.2205927,0.22331674958501144,0.0966722666940138,-0.08491626121860808,0.006228629009885632,nan
1741084973.224494,0.2367027256495822,0.3261925707009209,-0.757717793142702,0.3844417053731743,nan
1741084973.2283952,0.12096124634575484,0.5231417875092255,-0.8482648091014989,0.5793396212388043,nan
1741084973.2322967,-0.11746323374263917,0.6363344927985781,-0.34339482190536613,0.3725209994713981,nan
1741084973.236198,-0.34374754188066764,0.5067617839800703,0.30620753895624425,-0.14828975574819567,nan
1741084973.2400992,-0.3778145549581218,0.059427580702357784,0.5857675498126339,-0.619612417844808,nan
1741084973.2440004,-0.1520124212219551,-0.5170392554280242,0.34712795806132524,-0.6785758625496825,nan
1741084973.247902,0.19764664417947012,-0.8315273987405828,-0.09785146484558721,-0.26433838918838043,nan
1741084973.2518032,0.4099433312677598,-0.6004370082190279,-0.28926184870684757,0.3153302874738355,nan
1741084973.2557044,0.3052593219730415,0.053569353771755174,-0.04979340105183949,0.6232151698299683,nan
1741084973.2596056,-0.04819271657421901,0.6222293207200552,0.35281885444858613,0.4465534492087235,nan
1741084973.263507,-0.36512572803311966,0.6049600919236812,0.45745898803126095,-0.03223439710868475,nan
1741084973.2674677,-0.3685249060846143,-0.02660000315086498,0.0509073370473543,-0.3966951260721253,nan
1741084973.271369,-0.0313053460627193,-0.7200138939922863,-0.5995898924778614,-0.3543557114594359,nan
1741084973.2752702,0.3779380255844416,-0.7576725468583522,-0.9427577114200795,0.01655709563406383,nan
1741084973.2791715,0.5038059079837744,0.09473483498396647,-0.6121150853717918,0.34666175261413923,nan
1741084973.2830727,0.20586075077080396,1.2626096950346852,0.23569004377764213,0.311921698767898,nan
1741084973.2869742,-0.3038744353081075,1.7143772760487481,1.0130228140780475,-0.07054476862722868,nan
1741084973.2908754,-0.6194613607564303,0.7951129797559779,1.157380726722249,-0.4529931144228477,nan
1741084973.2947767,-0.4760170985664862,-1.1111579516525267,0.5721971767269273,-0.4693163559401029,nan
1741084973.298678,0.02098904293934148,-2.693331622672416,-0.313520665961266,-0.07199442226036513,nan
1741084973.3025794,0.4769399504738639,-2.625538406037752,-0.9046587648425749,0.4126846523215048,nan
1741084973.3064806,0.5409939729179875,-0.6356834726316841,-0.9012660745812671,0.5697565987659401,nan
1741084973.310382,0.20600967299783757,2.12222272586631,-0.4721623216874627,0.2703116651088529,nan
1741084973.3143418,-0.19259099365161425,3.7713330426919054,-0.021374159173132092,-0.20617718968191948,nan
1741084973.318243,-0.2879111517535374,3.0450449510545585,0.2057341884748828,-0.4244774358435596,nan
1741084973.3221445,-0.029025196174806346,0.27033513759216615,0.2987753744158335,-0.20089800515097778,nan
1741084973.3260458,0.2589820992497484,-2.7721666425826497,0.4862854611524388,0.21126952243363498,nan
1741084973.329947,0.18100881278688338,-4.062102103550324,0.7832241439851991,0.34896106515117287,nan
1741084973.3338482,-0.31622455162763474,-2.759695159022949,0.8667940386528108,-0.0072824886298306305,nan
1741084973.3377497,-0.8149007595533619,0.21023453213808857,0.35909249471267063,-0.5716011805566228,nan
1741084973.341651,-0.7466624847898145,2.8370230577921767,-0.7122717493398578,-0.7589000081109796,nan
1741084973.3455522,0.0727051004635444,3.452904830719093,-1.7334650786257435,-0.21987965610122837,nan
1741084973.3494534,1.1648000735856696,1.856717782542903,-1.8682980680675967,0.761911829456164,nan
1741084973.3533547,1.6694839418015786,-0.6612559018284747,-0.7479356496791424,1.4070936769432312,nan
1741084973.3572562,1.0240528762040486,-2.343281251944743,1.0862284415875767,1.0627275572270358,nan
1741084973.3612154,-0.49931525776488567,-2.2226210838696145,2.4360358984523356,-0.18984182902845081,nan
1741084973.3651166,-1.8851822890883476,-0.6916318143708686,2.2957003214282503,-1.4898965552902803,nan
1741084973.3690178,-2.0980644015750793,0.9584691306970552,0.6610341004927331,-1.8251290057002092,nan
1741084973.372919,-0.9008464978800186,1.5750924665365433,-1.3805518069120888,-0.8605540052790158,nan
1741084973.3768206,0.9006183915614114,0.9329303663141513,-2.421289158201004,0.7266499956524979,nan
1741084973.3807218,2.032167882528069,-0.26577036772304224,-1.7991575128452062,1.7370703299104426,nan
1741084973.384623,1.726593479004461,-1.0586607034792783,-0.10673240161634225,1.4101108392596853,nan
1741084973.3885243,0.3221582632254375,-0.9558762352101707,1.2959417274501748,0.06887786785519431,nan
1741084973.3924255,-1.0211841847710554,-0.18476995892646397,1.3940495966668018,-1.1237169577316837,nan
1741084973.396327,-1.2805720377194614,0.6349844890754544,0.3442418239864217,-1.1430022401650888,nan
1741084973.4002283,-0.41997210833281046,1.0117561352758708,-0.6939005435252485,-0.012011709959837467,nan
1741084973.4041295,0.595734585403939,0.8523040987933244,-0.6096813803495172,1.160618734582012,nan
1741084973.408088,0.6680411154542434,0.3490263321609202,0.606291254387199,1.118393412077444,nan
1741084973.4119892,-0.4019930343885823,-0.2843701500738322,1.748652564166985,-0.37412647056973697,nan
1741084973.4158907,-1.6244513874039705,-0.9185840918711704,1.4073214385547181,-2.1511941849281975,nan
1741084973.419792,-1.6055203756987804,-1.3913275424041804,-0.6903602384233181,-2.488729000335331,nan
1741084973.4236932,0.17734290351119525,-1.3951200299669893,-3.171121730727618,-0.5838768986888779,nan
1741084973.4275944,2.686800334633793,-0.6232147702739469,-3.908282719780278,2.536510003901076,nan
1741084973.431496,3.914780272708907,0.8605574448101875,-1.7373675210294304,4.542821247232185,nan
1741084973.4353971,2.425924039693554,2.3809829304272085,2.355160098421382,3.5197863482524907,nan
1741084973.4392984,-1.3153579259761925,2.8975609220908107,5.638890659070105,-0.39212227402918975,nan
1741084973.4431996,-4.964878249127586,1.7133144632468928,5.518116442832901,-4.7778686268936825,nan
1741084973.447101,-5.825257719402221,-0.8446118238089982,1.5540231241784215,-6.493958284921382,nan
1741084973.4510024,-2.8487013292629815,-3.3803437089167256,-3.9402706156623086,-3.9553894016057174,nan
1741084973.45496,2.386094488606367,-4.218838780449195,-7.321711899627354,1.5270085308306591,nan
1741084973.4588614,6.556367497648452,-2.5666242865086413,-6.13831616651751,6.446335314375604,nan
1741084973.4627628,6.816162307912952,0.7984693936074224,-0.9425615394636402,7.449851670102557,nan
1741084973.466664,2.8050773127252824,3.8933864850210798,4.966363514748373,3.7006181759678385,nan
1741084973.4705653,-3.0134638284401647,4.785824235979336,7.752008427889835,-2.4589486870945136,nan
1741084973.4744666,-6.966832358394025,2.8901231118488107,5.654077609695904,-7.055756047329331,nan
1741084973.478368,-6.622689109245059,-0.6217441849717824,0.15432684949091371,-7.1714744165653785,nan
1741084973.4822693,-2.3640409999144114,-3.5997181852137183,-5.1070595894646615,-2.8780098865006423,nan
1741084973.4861705,2.974218953553709,-4.33460241962827,-6.848816735700263,2.9067711037650623,nan
1741084973.4900718,6.082504402298464,-2.617798558102822,-4.294837560923578,6.476104006015763,nan
1741084973.4939733,5.336859092641646,0.2641294680039003,0.512510382056154,5.808534921710052,nan
1741084973.4978745,1.6715468517502612,2.5132539554912827,4.321476776375867,1.7510461860495055,nan
1741084973.5018315,-2.3113950909331185,3.0149270157022223,4.937490906569357,-2.796958332967926,nan
1741084973.5057328,-4.218726977316447,1.905173328968993,2.525669588472026,-4.9785496099938715,nan
1741084973.5096343,-3.3544405340170664,0.21716507241470243,-0.8427938676640361,-3.818990705522195,nan
1741084973.5135355,-0.8699556005478329,-0.9904673342598257,-2.8725624724630423,-0.6020315969330673,nan
1741084973.5174367,1.331971622063064,-1.311733190854263,-2.6189426549998793,2.2937996774535487,nan
1741084973.521338,1.9982442533305227,-1.0337193209782898,-0.8645726848311329,3.1156212160988694,nan
1741084973.5252395,1.2172468597459076,-0.6604033684374087,0.7846239560893205,1.778164391214399,nan
1741084973.5291407,0.044422113258328545,-0.4204872934974893,1.2233881437921652,-0.37292869200249257,nan
1741084973.533042,-0.48093277238559295,-0.17473600283898005,0.5466326144942326,-1.7153621152951009,nan
1741084973.5369432,-0.1101703248084029,0.27998296026847724,-0.29563036910146795,-1.4912618007197032,nan
1741084973.5408447,0.57746672578253,0.8700847190725666,-0.44800555857606694,-0.16554892832908233,nan
1741084973.544746,0.7763591534624983,1.2226939708985378,0.14223771236805802,1.1045578490634764,nan
1741084973.5487077,0.14391870055996006,0.9864474238948104,0.796181965770938,1.3749417425455723,nan
1741084973.5526092,-0.9479370324248676,0.18746876133944743,0.793136932904999,0.5240001184223312,nan
1741084973.5565104,-1.7225012617537991,-0.7233594900298906,0.03139172289750395,-0.7805856741540553,nan
1741084973.5604117,-1.5723714800248334,-1.1932869408037778,-0.8967169125256712,-1.6180925552130623,nan
1741084973.564313,-0.4684377260971509,-0.9869337460526865,-1.2335088804384535,-1.4259484708805272,nan
1741084973.5682144,1.037364084167315,-0.34296880713289496,-0.701674398974144,-0.3061331678052917,nan
1741084973.5721157,2.152055678481125,0.2554504442969458,0.2809680547000654,1.0898472705990327,nan
1741084973.576017,2.2748403410052687,0.4820555005961048,0.9697992723704963,1.9595817724449558,nan
1741084973.5799181,1.2890330992756887,0.38823027637210034,0.9050634839434893,1.7875952609704953,nan
1741084973.5838196,-0.390473336104975,0.2691740751308363,0.25033451389493383,0.6138385234029741,nan
1741084973.5877209,-1.9972230272857938,0.3272257639052185,-0.3985345689868263,-0.9754847859454245,nan
1741084973.591622,-2.7441895520137343,0.4604265292625939,-0.538049494645612,-2.1320073273578233,nan
1741084973.5955832,-2.195272806818644,0.3756365447973487,-0.15963555637866428,-2.188875311191211,nan
1741084973.5994847,-0.5262423372058004,-0.08525640773925562,0.2930565709703621,-1.0516343402182864,nan
1741084973.603386,1.4853439689909163,-0.7231594090086616,0.3457936928643001,0.6958237184658064,nan
1741084973.6072872,2.808443158642946,-1.0914319656823062,-0.08204750734109106,2.0818071068871706,nan
1741084973.6111887,2.714470095345177,-0.8604922037976668,-0.6085814960583086,2.3089945233375984,nan
1741084973.61509,1.2282368836446005,-0.11791832211883577,-0.7215369182805159,1.2544591854229346,nan
1741084973.6189911,-0.8392069441390972,0.6714622840219195,-0.22335501697216065,-0.43409531954617275,nan
1741084973.6228924,-2.350060494876043,1.0240450424413978,0.5816837484384387,-1.7427290472526877,nan
1741084973.6267939,-2.5260049806919764,0.8078477303592667,1.1081894802623264,-1.943813262505544,nan
1741084973.630695,-1.4092355000592462,0.30431095435316924,0.9371833518754428,-1.050022041971503,nan
1741084973.6345963,0.21868437636109633,-0.08334690756212791,0.13740367230244363,0.24846685429889087,nan
1741084973.6384976,1.395956453606753,-0.19996063263389202,-0.7806088086911265,1.1071994965273952,nan
1741084973.6424584,1.6081497548458352,-0.23903978256534952,-1.228903153793292,1.1147875286408506,nan
1741084973.6463597,1.0366251972566336,-0.47705653639573503,-0.9438014625365727,0.510761263140408,nan
1741084973.6502612,0.28459008350204934,-0.8973779415902425,-0.13878815650456036,-0.10055832282595296,nan
1741084973.6541624,-0.155828244402905,-1.090275668419197,0.673643089589148,-0.2768470082092778,nan
1741084973.6580637,-0.24962517305694484,-0.5843981134684172,1.0337772957945994,-0.0660548991804888,nan
1741084973.661965,-0.3175843563962296,0.64175776577063,0.8052022975968034,0.11691303239051626,nan
1741084973.6658664,-0.6198898175613042,1.9399008328207525,0.20294387240346254,-0.07079158562136233,nan
1741084973.6697676,-1.0246890255606904,2.3443744657884413,-0.3942518345663929,-0.5457906725560991,nan
1741084973.6736689,-1.078278638133095,1.3026335661801578,-0.6875264413711291,-0.8482915689104131,nan
1741084973.67757,-0.4316766885471932,-0.7786855605420981,-0.59904365357467,-0.558758629705438,nan
1741084973.6814716,0.7509820277996636,-2.6619394420001186,-0.2563789927736846,0.2820377609005605,nan
1741084973.6853728,1.7867199160462628,-3.07478125716322,0.12476778543364027,1.1288126638117286,nan
1741084973.6893435,1.9281378973229208,-1.6270924684808785,0.36466508934430114,1.329896104257814,nan
1741084973.6932447,0.94169381383919,0.8434120529379064,0.388069370962904,0.6550932250831198,nan
1741084973.697146,-0.6545106930197643,2.793916404340957,0.22948988035442783,-0.48329095733612887,nan
1741084973.7010474,-1.9053179008879315,3.018104866538651,-0.0023698684229580074,-1.3125016110239263,nan
1741084973.7049487,-2.0653583088704184,1.4585654956157037,-0.17936627252779402,-1.2725018611038523,nan
1741084973.70885,-1.0969290266040488,-0.7939748192479287,-0.21358541308777523,-0.4299248650535181,nan
1741084973.7127512,0.3430490911016288,-2.2947488242822383,-0.10295782339448363,0.5896921356023243,nan
1741084973.7166526,1.3913946752066935,-2.233873505333153,0.06397151702876701,1.0873433097981964,nan
1741084973.7205539,1.5546895090960564,-0.907101395924576,0.15923825984934564,0.8029859568719518,nan
1741084973.724455,0.9536387253965918,0.624285541761548,0.10156245921400218,0.0603507834094079,nan
1741084973.7283566,0.10924567988041159,1.3645352105114812,-0.07850376265932066,-0.5401195054600314,nan
1741084973.7322578,-0.4954836388801527,1.0548269819105878,-0.24799792168358323,-0.6041885538858709,nan
1741084973.736217,-0.7100512377543756,0.21711436005605436,-0.26056230984846473,-0.2100322907559007,nan
1741084973.7401183,-0.6756343968245881,-0.3793429443113848,-0.06763960294014862,0.22793563590193544,nan
1741084973.7440195,-0.5661399760962249,-0.34905535373611657,0.23086853435470567,0.34285782096518086,nan
1741084973.747921,-0.3945162001312963,0.07860923149731153,0.4414239288239231,0.10663255876387824,nan
1741084973.7518222,-0.061769559126331135,0.3562763337893159,0.4055959010445692,-0.20051276817725203,nan
1741084973.7557235,0.43306416043652585,0.13979795742401932,0.11379999630854763,-0.27866402135242074,nan
1741084973.759625,0.8675335046327931,-0.4168306539004998,-0.27778207213037853,-0.07831157624249031,nan
1741084973.7635262,0.9181413353393052,-0.8160082697864347,-0.5413653777565572,0.1830680329223707,nan
1741084973.7674274,0.44569126562135014,-0.6576451367022719,-0.519458863500496,0.24986613733934543,nan
1741084973.7713287,-0.3198865237619034,0.016518914237749382,-0.22024973812629606,0.07538421527815883,nan
1741084973.7752302,-0.8945524355418376,0.7512425277679536,0.19223015560244328,-0.14331299372389328,nan
1741084973.7791314,-0.8946833076146085,1.0344760396953905,0.49958615366440856,-0.16759523539609128,nan
1741084973.7830899,-0.34528978945147293,0.6810346092038968,0.5525977226201322,0.0401372719301052,nan
1741084973.7869911,0.3271351188188989,-0.05318558099853404,0.34277503396803055,0.2664753394303184,nan
1741084973.7908924,0.6290625002087609,-0.6863293247700468,-0.010054532061675786,0.2434753685297165,nan
1741084973.7947936,0.3927137749143584,-0.8588212533904515,-0.332895656559595,-0.08502981279031106,nan
1741084973.798695,-0.10083911536366967,-0.5460831195174212,-0.48707831579945754,-0.4759636397220955,nan
1741084973.8025963,-0.3746167757887389,-0.009902789211632514,-0.4237726169659644,-0.5733390006010473,nan
1741084973.8064976,-0.1726446084138608,0.42363252877608903,-0.1904503253938701,-0.21847125530418995,nan
1741084973.8103988,0.31430310565793335,0.5663837533618292,0.10248967349227281,0.3847099472033485,nan
1741084973.8143003,0.6106917196612077,0.42262359806032285,0.3331191779290853,0.8030508051489716,nan
1741084973.8182015,0.3731733150721626,0.11482501288376702,0.41575988187585067,0.7078757361139721,nan
1741084973.8221028,-0.29133166696615503,-0.21194747233589883,0.32959173499826033,0.1380210331109957,nan
1741084973.826004,-0.883074163636148,-0.43211270024662707,0.1204018876606752,-0.5233633226919335,nan
1741084973.8299623,-0.9057702239562064,-0.44528821407324387,-0.12292641329025274,-0.8381103069532827,nan
1741084973.8338635,-0.27845120673328927,-0.2059079831587923,-0.30604526914501096,-0.6330225460043483,nan
1741084973.837765,0.5787754865032594,0.2129982418493873,-0.3644361130823594,-0.09977972156028618,nan
1741084973.8416662,1.060461731507878,0.5924399395568076,-0.28293832583610135,0.38563230023528466,nan
1741084973.8455675,0.8397234698718649,0.6568981497913541,-0.09578944710616276,0.5559549565054146,nan
1741084973.8494687,0.10854153518716982,0.26639692681805227,0.1276007902236561,0.41603594510088887,nan
1741084973.8533702,-0.5904601483849915,-0.4233587249054839,0.304073787750932,0.16665550408701757,nan
1741084973.8572714,-0.7928104734247056,-0.9904361634955718,0.36204291135137934,-0.009130081198954886,nan
1741084973.8611727,-0.4510800107019312,-0.999726232445119,0.2688950676745036,-0.09096315416576978,nan
1741084973.865074,0.0774087228807355,-0.3271668311402005,0.05281520089017821,-0.177859396557058,nan
1741084973.8689754,0.3584261230555447,0.6895526711977402,-0.1963571187677629,-0.32429908033324634,nan
1741084973.8728766,0.23607514440831515,1.4206132249719214,-0.3598945353014125,-0.43589340128138226,nan
1741084973.8768337,-0.07570455294166947,1.3495080198057197,-0.3500529071889705,-0.3410939815530344,nan
1741084973.880735,-0.21991862505725784,0.43989254280312884,-0.1656187874497521,0.02160289955256475,nan
1741084973.8846362,-0.028062911024503017,-0.804141572077861,0.0967511556711483,0.4846437088049992,nan
1741084973.8885374,0.3322510794041572,-1.6429825916727718,0.29292536261557633,0.7353142426608948,nan
1741084973.892439,0.5116059139946253,-1.5704862274820328,0.3180930502606791,0.5554895319237056,nan
1741084973.8963401,0.2915482763833201,-0.6298112171217823,0.1730224391828657,0.01867148582316384,nan
1741084973.9002414,-0.2163523870877569,0.6293507525502956,-0.03877044400357555,-0.5346687417243372,nan
1741084973.9041429,-0.6515483484317718,1.5061467173781975,-0.18385240363077834,-0.741031206352094,nan
1741084973.908044,-0.6914902716680488,1.5666135001073447,-0.1899642062461265,-0.4860601391267055,nan
1741084973.9119453,-0.30265315628177136,0.8581700701526658,-0.08837796304829641,0.016571580848671837,nan
1741084973.9158466,0.24513604825053723,-0.18214678467875314,0.022413180597879157,0.4031071178951152,nan
1741084973.919748,0.5977440149122002,-1.0205790848280776,0.059976987576852894,0.4449751334612905,nan
1741084973.9237099,0.5780635273498004,-1.3121307319638085,0.02005975335846561,0.20598329049389802,nan
1741084973.927611,0.2814782004729774,-1.0218851708857377,-0.031267965599458845,-0.04986230043737489,nan
1741084973.9315124,-0.047783607416467165,-0.3637679521457352,-0.024727814676954243,-0.10687804373710288,nan
1741084973.9354138,-0.22879852337983936,0.3520303623367845,0.0461918062336565,0.019607130613756733,nan
1741084973.939315,-0.2579415760885971,0.8568658406874818,0.11831957321378127,0.12262031475049963,nan
1741084973.9432163,-0.24599558086238937,0.9980041038579118,0.1163151140467414,0.020641015104245094,nan
1741084973.9471176,-0.2643987728795536,0.7598318838365444,0.02300413511463264,-0.25008475547244446,nan
1741084973.951019,-0.25962047808036304,0.2552571226844924,-0.100553787603216,-0.44773146535748487,nan
1741084973.9549203,-0.11761931223721916,-0.3106664187546835,-0.1639654856226512,-0.3380403748592727,nan
1741084973.9588215,0.18867524930613597,-0.7137739935069045,-0.1228205221854271,0.07765390685531993,nan
1741084973.962723,0.518314673196254,-0.806113321508755,-0.014227334398555905,0.5263803040471197,nan
1741084973.9666243,0.6391843499556443,-0.584939333307913,0.07815791545425237,0.6648717260575128,nan
1741084973.9705856,0.41004846733490424,-0.18554831737358396,0.09713851511902419,0.35808984946271694,nan
1741084973.9744868,-0.08505468379128843,0.20474058626424405,0.05660163061859586,-0.19761657922201367,nan
1741084973.978388,-0.5698047605026942,0.45358777615082396,0.018045010297882413,-0.6146505215512824,nan
1741084973.9822896,-0.7585046792017394,0.5351887431948291,0.023107586904968443,-0.6084229099454379,nan
1741084973.9861908,-0.5489174096250565,0.495659437749155,0.04858080395563896,-0.2097508973664297,nan
1741084973.990092,-0.08012662049768796,0.3751825681889922,0.03056693510358549,0.27175975859023166,nan
1741084973.9939933,0.3775847172685401,0.16603724452469362,-0.06181953938511185,0.4961748518593568,nan
1741084973.9978948,0.6039341859113302,-0.15068700010859523,-0.1750310340733688,0.34834772709342904,nan
1741084974.001796,0.5433444427993382,-0.5256944543444513,-0.2004948853545266,-0.00037669714539901835,nan
1741084974.0056973,0.28811602967321265,-0.8054332546595943,-0.07104165521219895,-0.25715305020981494,nan
1741084974.0095985,-0.022545027044395233,-0.7973292851974575,0.1581027517957028,-0.24889597493328036,nan
1741084974.0135,-0.28724242482990375,-0.4068909393048642,0.32565503997682443,-0.040400001037829175,nan
1741084974.0174603,-0.4532647289493819,0.25559926279882117,0.2821742363501658,0.15269265858832975,nan
1741084974.0213618,-0.48164418207070714,0.8937396031390419,0.021210925169357384,0.1628330510275367,nan
1741084974.025263,-0.33605511580086145,1.176476624530499,-0.28980470791355517,0.004881036344882157,nan
1741084974.0291643,-0.025592081461112786,0.9300095654887998,-0.42018635928417375,-0.1594934978933441,nan
1741084974.0330656,0.34413989927548794,0.24464321808558828,-0.25294459427476795,-0.17898334277574762,nan
1741084974.036967,0.5871556013714129,-0.5704009000091712,0.11109346000134476,-0.04400272624714203,nan
1741084974.0408683,0.5427994080858785,-1.149037142381912,0.41352696823340385,0.11910941181944354,nan
1741084974.0447695,0.20240765979799047,-1.2442733489873004,0.4270660820464756,0.17281838809475075,nan
1741084974.0486708,-0.25252118024846126,-0.8249956019610445,0.13062270840893755,0.09067517324051329,nan
1741084974.0525723,-0.5528382462977858,-0.0660199405931266,-0.26734066413741336,-0.03210098019001198,nan
1741084974.0564735,-0.5227647220110057,0.7349374061264233,-0.4800968881274677,-0.08000086184538269,nan
1741084974.0603747,-0.20374816944091959,1.2643218944699,-0.35491666008309913,-0.02854037614799622,nan
1741084974.0643346,0.1783286160519936,1.2958957948825542,0.015765747977694877,0.039892452979619235,nan
1741084974.0682359,0.38026198984954473,0.778755759940441,0.3673630347133676,0.026843472046654167,nan
1741084974.072137,0.3131598804002652,-0.1128100016614898,0.4604003512239714,-0.07533449040579879,nan
1741084974.0760386,0.08652810484264646,-1.0104682537242602,0.2492904244459075,-0.16605622844629084,nan
1741084974.0799398,-0.1015331631232356,-1.4915538435744955,-0.10103981684159642,-0.12933692096924684,nan
1741084974.083841,-0.12956893086411678,-1.2896919710665427,-0.35117285504495815,0.047647926581302555,nan
1741084974.0877426,-0.035721301057674244,-0.4651644559197355,-0.36094858376481037,0.2431174960240039,nan
1741084974.0916438,0.042404439980126406,0.5877596434921495,-0.1687050883450243,0.2932257044633531,nan
1741084974.095545,0.007339683709973324,1.3349158200298759,0.0692067209635227,0.13295604247840753,nan
1741084974.0994463,-0.10714980877938565,1.400519330464993,0.21084437801116457,-0.13780212754522825,nan
1741084974.1033478,-0.17252867837522567,0.7852976243674977,0.2195563173689612,-0.3248442163551999,nan
1741084974.107249,-0.09235356255821874,-0.14180130584115103,0.15165290031333428,-0.2915535377203615,nan
1741084974.1112082,0.09798333503916057,-0.8765989766819834,0.07482559267707134,-0.06629592854447086,nan
1741084974.1151094,0.25093929695928435,-1.0819096103908348,0.004758563746611519,0.1829545361748689,nan
1741084974.1190107,0.23131768277974193,-0.7593285893466882,-0.08351598751780825,0.28291979735266637,nan
1741084974.1229122,0.03721295318589254,-0.19041828770446867,-0.19284007396831424,0.18529600286889697,nan
1741084974.1268134,-0.18942828201799322,0.2861273687187867,-0.2647388153804718,-0.010876690606535353,nan
1741084974.1307147,-0.27463294679111944,0.4879725520933932,-0.214654966920673,-0.15322128685154673,nan
1741084974.1346161,-0.15346292709901088,0.4497050294406794,-0.01655548962985852,-0.15874665639316543,nan
1741084974.1385174,0.07762408844762529,0.3198629656469745,0.24336038309359168,-0.06273621776241817,nan
1741084974.1424186,0.2394995245403953,0.2077796798240362,0.4049170832070108,0.0354306088451527,nan
1741084974.1463199,0.21298358989439892,0.11208422251296576,0.3460048021706677,0.06763183881465835,nan
1741084974.1502213,0.027986832441817395,-0.027577544636953544,0.08109537764060809,0.04417603141487132,nan
1741084974.1541226,-0.16913887665540478,-0.22662001918700067,-0.23702945889131,0.018879419807236293,nan
1741084974.1580868,-0.23569687092491706,-0.4076927065410145,-0.4191753432600622,0.019285149016197992,nan
1741084974.1619883,-0.13813036056128067,-0.45420910821601274,-0.3679662817663149,0.018405026211531055,nan
1741084974.1658895,0.03798982017058193,-0.31156014242348445,-0.13503320339256972,-0.023780395007730538,nan
1741084974.1697907,0.16890000491261786,-0.03949510322470946,0.1302568699091879,-0.09663051597860597,nan
1741084974.173692,0.18736747404681142,0.23159597328530243,0.2908687494040406,-0.12773561384959614,nan
1741084974.1775935,0.11429103879406036,0.39652680839551396,0.3013417102501466,-0.04841563791108712,nan
1741084974.1814947,0.015284710829416771,0.4335182512418998,0.20397848076914166,0.12165029984692831,nan
1741084974.185396,-0.06359515202132657,0.377242988153699,0.06600532907031903,0.25966618870625924,nan
1741084974.1892974,-0.1185899767090238,0.24737327841939385,-0.07329285287598272,0.2280442956603043,nan
1741084974.1931987,-0.15799807210604833,0.019966752824102395,-0.20019110713385752,0.0011659479861879007,nan
1741084974.1971,-0.16391233306269481,-0.31535863693047395,-0.28799268423493535,-0.28343584264909444,nan
1741084974.2010012,-0.09700232729704343,-0.6664407179843816,-0.28108142398527836,-0.4111011721856169,nan
1741084974.2049592,0.053607086929146515,-0.8261617873211847,-0.13526481704438242,-0.2580558242236247,nan
1741084974.2088606,0.22751984962694735,-0.5931716450512716,0.11736120460077795,0.09450507603107874,nan
1741084974.2127619,0.31258616866228245,0.04264000711368829,0.3503664051385087,0.4041153066363523,nan
1741084974.2166631,0.22627493390953224,0.8066263522032857,0.4117003614000973,0.4461743131123696,nan
1741084974.2205646,-0.005776166091664179,1.253923110690857,0.23895806849984866,0.18950794876010635,nan
1741084974.2244658,-0.24850216088273072,1.0518579976003886,-0.0744890593553719,-0.17585295686491254,nan
1741084974.228367,-0.3476323432773727,0.23825083911604883,-0.330884505818813,-0.3860688833088689,nan
1741084974.2322683,-0.24481903265602462,-0.7508084430434399,-0.3698150735528535,-0.3090574640879816,nan
1741084974.2361698,-0.022635818314408772,-1.3364057548087402,-0.18982958523814125,-0.041028190232369234,nan
1741084974.240071,0.16166849015977539,-1.174288837978556,0.053730339199932434,0.18414045338139085,nan
1741084974.2439723,0.20120424428741204,-0.3870169506375603,0.17881304076253565,0.1950279096457272,nan
1741084974.2478738,0.11852226628054294,0.5223599913774551,0.1277373165492999,0.023009207141066235,nan
1741084974.2518306,0.03130817716291533,1.0167433660344347,0.008278699020841343,-0.13553278715121214,nan
1741084974.2557318,0.035136049777622996,0.8800791115962425,-0.015301683511780219,-0.10163741036832617,nan
1741084974.2596333,0.10821776166585668,0.325759826937312,0.1116198297959335,0.11727595253416474,nan
1741084974.2635345,0.12729205948817046,-0.20688994303626232,0.2625423179422365,0.3210157546584175,nan
1741084974.2674358,-0.012439416953941818,-0.3968831268603011,0.23083848315817396,0.28499910178527543,nan
1741084974.271337,-0.2760972586131614,-0.25690416172517105,-0.07042313851464913,-0.03490397441121466,nan
1741084974.2752385,-0.4802384880887843,-0.06378519828981431,-0.4837741606374975,-0.43638277589374697,nan
1741084974.2791398,-0.4213491033054435,-0.08034774909077913,-0.6865263008757323,-0.6091626711572563,nan
1741084974.283041,-0.049145372128513956,-0.3090742142604833,-0.43765200546676564,-0.37604870688435166,nan
1741084974.2869425,0.45623058677145834,-0.48495285361036816,0.1962138195350435,0.15329335620199208,nan
1741084974.2908437,0.778739524493286,-0.3141177630349773,0.8314670769908552,0.6416232574981208,nan
1741084974.294745,0.6773055854576102,0.24019169766725648,1.013308360625347,0.7575509652713068,nan
1741084974.2987068,0.16351321426573578,0.8672636704164297,0.5505188773028118,0.41016298237195187,nan
1741084974.302608,-0.4856872916015947,1.1051131675508798,-0.3136746036455466,-0.1871951205917474,nan
1741084974.3065093,-0.8951073758229747,0.6861421073858461,-1.0387962628829501,-0.6652733614478062,nan
1741084974.3104107,-0.8255161178922796,-0.22963510106731352,-1.1486039532173147,-0.7455329834947663,nan
1741084974.314312,-0.31811560604794287,-1.119652583715977,-0.5605002703177889,-0.40938629033385165,nan
1741084974.3182132,0.34012584359156706,-1.4294373079877514,0.3554053187730492,0.11582505842934873,nan
1741084974.3221147,0.7961744971345969,-0.940830572177905,1.028912382246741,0.5228961602509739,nan
1741084974.326016,0.8324800187885666,0.07794079938734916,1.0696728414169585,0.6143652203862389,nan
1741084974.3299172,0.4688578619514319,1.0405977278996776,0.5058444074866516,0.39341109786141176,nan
1741084974.3338184,-0.07860123984259737,1.409679258981889,-0.27221282885388276,0.02155800514066207,nan
1741084974.33772,-0.5341667358602852,1.0155977651421264,-0.7981662496383753,-0.2997607903947295,nan
1741084974.3416212,-0.7039284848064788,0.12965641056915778,-0.8268580379113489,-0.43606833170260306,nan
1741084974.3455827,-0.5505853164071763,-0.7321522043070334,-0.4421153532928408,-0.3625485758743239,nan
1741084974.3494842,-0.18256695514873875,-1.126111197170685,0.06471549115868316,-0.1458175259989325,nan
1741084974.3533854,0.2165927954875617,-0.9146601397830628,0.41876490901748625,0.10234272322883543,nan
1741084974.3572867,0.4760978418435906,-0.29391185896396876,0.5136167188275753,0.2726454642283576,nan
1741084974.3611882,0.5065995370322752,0.3653473629253873,0.40656329534507557,0.29830139372439085,nan
1741084974.3650894,0.32753419168288195,0.7392789388503552,0.2089909402471693,0.1821722857602992,nan
1741084974.3689907,0.04591595349512069,0.7028249574240305,-0.008594171768908311,-0.0023644270710315054,nan
1741084974.372892,-0.20291480084716132,0.34927762103824483,-0.22223330748272122,-0.14872695700571303,nan
1741084974.3767934,-0.32347800034773233,-0.09890542114014836,-0.39737394904627577,-0.18092833219894133,nan
1741084974.3806946,-0.3001764003643507,-0.41732196558742135,-0.45526656812704464,-0.10356646762526303,nan
1741084974.3845959,-0.18670753119388533,-0.4790017511759829,-0.31702001190733087,0.003698655319956794,nan
1741084974.3884974,-0.05585260305182951,-0.29355620006930766,0.007944434158861176,0.0505599955683916,nan
1741084974.392458,0.050580879917513547,0.014471208432762103,0.37884720399814664,0.01158641387755864,nan
1741084974.3963592,0.13321098001172382,0.271318586465151,0.5861232728008237,-0.05195532213168105,nan
1741084974.4002607,0.2036247444492488,0.3385661112219859,0.4885888685982867,-0.048685851247451055,nan
1741084974.404162,0.2453322940504339,0.18402076890345914,0.12241095691543709,0.05210656366789293,nan
1741084974.4080632,0.21131871913494943,-0.09588115151580492,-0.3081352471768969,0.1770532248288214,nan
1741084974.4119647,0.06876523386393377,-0.32255312912246414,-0.5588688969990154,0.20068313621872208,nan
1741084974.415866,-0.14722638778901553,-0.3365824081290977,-0.5014521823411305,0.058161387353443686,nan
1741084974.4197671,-0.3274737138947923,-0.10150835151763768,-0.19559337008860395,-0.17744711071089914,nan
1741084974.4236684,-0.35221898211832636,0.25626658032012534,0.16680975535794076,-0.33092276818066724,nan
1741084974.4275699,-0.18383443988406686,0.5087228731097656,0.39414639556625525,-0.2594522662163478,nan
1741084974.431471,0.08762541953565585,0.46420070167612765,0.4043972470594616,0.018716457464735683,nan
1741084974.4353724,0.2942017573603168,0.10110208480324875,0.24341773254540044,0.31462862044396783,nan
1741084974.4393375,0.30771028520400817,-0.39352796115013333,0.021863730485089956,0.40131987115352025,nan
1741084974.4432387,0.13645415183196172,-0.7197224202365298,-0.1637730817108287,0.19305510349270497,nan
1741084974.4471402,-0.07945548593880253,-0.6476820765640077,-0.2671993971532489,-0.17305823956534086,nan
1741084974.4510415,-0.1767585851692749,-0.1760377772388701,-0.27879489451541434,-0.4280185933844967,nan
1741084974.4549427,-0.09817629654775165,0.44336193209646857,-0.2004037629016876,-0.3728330312744098,nan
1741084974.4588442,0.06290213054529717,0.8445195749445137,-0.044454800501010514,-0.03600245462975769,nan
1741084974.4627454,0.14165582910101523,0.7730344108799323,0.1457156018713956,0.3400890573740734,nan
1741084974.4666467,0.04299266089008654,0.25555819362148513,0.28982819436984736,0.47829727853565984,nan
1741084974.470548,-0.1710435359551606,-0.40412115772578894,0.30529730081895,0.27478894060522824,nan
1741084974.4744494,-0.3224464317750307,-0.8107579562368897,0.16635837296179007,-0.1243044888182448,nan
1741084974.4783506,-0.25782930277984734,-0.7300587183216894,-0.061977454819392166,-0.43492544290084145,nan
1741084974.482252,0.02290133132360701,-0.2400505412631848,-0.25328563977322943,-0.44616151331547965,nan
1741084974.486211,0.3533538310327457,0.3251740545729182,-0.29990333121070756,-0.16746016355607138,nan
1741084974.4901123,0.5150220547506121,0.6055181786871783,-0.18556177352953276,0.19450501764590475,nan
1741084974.4940135,0.3912485744064909,0.46064374513413975,0.006517514258322114,0.39950845679844477,nan
1741084974.497915,0.04514712726067772,0.05673531097226201,0.1568039438213872,0.34368110490445275,nan
1741084974.5018163,-0.33011791344059654,-0.2700498664266762,0.19347540129308682,0.10921675902347568,nan
1741084974.5057175,-0.5409990997887165,-0.27445615810984214,0.13175282956643783,-0.12686965545030202,nan
1741084974.509619,-0.5028564922857122,0.008361134745693366,0.042754558702339615,-0.23464922997442206,nan
1741084974.5135202,-0.2600833705629665,0.29292119996459115,-0.014384520677123806,-0.206958734026188,nan
1741084974.5174215,0.07181597181411287,0.277230181684109,-0.03573075189146811,-0.1229079957564533,nan
1741084974.521323,0.37597954996543614,-0.09659451763094604,-0.056751242221081515,-0.05284499038231906,nan
1741084974.5252242,0.5629773890097334,-0.5639748996757277,-0.09907767261166787,0.00037337835731608617,nan
1741084974.5291255,0.5648390934465342,-0.7202112000090554,-0.1353960443463809,0.07573708065524816,nan
1741084974.5330837,0.34072810556230726,-0.3398471076368507,-0.10970446588796032,0.18147415776575893,nan
1741084974.536985,-0.08032421173771152,0.4100021485335949,0.003352900250976899,0.2569026237633909,nan
1741084974.5408864,-0.5547726057603162,1.0423382206033829,0.15614238658237553,0.2143221000312254,nan
1741084974.5447876,-0.8469701020809856,1.0801177317691821,0.2478151386892928,0.026611171123122477,nan
1741084974.548689,-0.7481489588259477,0.4130081400626766,0.19788124114381467,-0.2225423597095472,nan
1741084974.5525904,-0.23192824917434277,-0.5863776518205369,0.01574590044332655,-0.38064076490053145,nan
1741084974.5564916,0.4738674532220639,-1.2893830776027484,-0.1932819623177006,-0.33486529251159375,nan
1741084974.5603929,0.9836695960520818,-1.233395386865664,-0.2958219425699544,-0.10035508015193192,nan
1741084974.5642943,0.9838162443499845,-0.4417478941915356,-0.22306072645615607,0.18510939530391166,nan
1741084974.5681956,0.4466533728337708,0.5885096405114574,-0.018862325004828644,0.3570051380399232,nan
1741084974.5720968,-0.32957636411254665,1.2230410408101555,0.1912253084650218,0.3343564031124646,nan
1741084974.5759983,-0.8990518644661847,1.1105611255380365,0.28445671693892194,0.16050144550464857,nan
1741084974.579956,-0.9504080678725993,0.3923626599133138,0.21639826101421644,-0.047968476937502814,nan
1741084974.5838575,-0.49795785533539216,-0.43269354947215155,0.038103656491156164,-0.1914564260238522,nan
1741084974.5877588,0.14862543481002596,-0.8698999505849274,-0.1468888164524868,-0.24048426040921683,nan
1741084974.59166,0.6058811323872884,-0.746601757907698,-0.2467167104867188,-0.2190961600173725,nan
1741084974.5955615,0.6641611972141808,-0.2699651877726136,-0.22318330300776598,-0.15260881143451177,nan
1741084974.5994627,0.38890296774804545,0.18342560709163755,-0.09593062416955625,-0.0410560367808573,nan
1741084974.603364,0.02366445688214614,0.3584889231441146,0.07719634097836496,0.115219218326791,nan
1741084974.6072652,-0.20822708481080615,0.26898486876786676,0.22306347378090205,0.27180580146220884,nan
1741084974.6111667,-0.24513835534483594,0.11431686228341494,0.2735207556103719,0.33751728757400923,nan
1741084974.615068,-0.1787757319777519,0.06821323673385947,0.18974472902173162,0.23483152311559854,nan
1741084974.6189692,-0.13175114754044875,0.13009600407453037,-0.009728958376146336,-0.020807753584173513,nan
1741084974.6228707,-0.1406244292344108,0.1558378037370436,-0.23692727274327807,-0.2987451398836384,nan
1741084974.6268275,-0.14090487912394195,0.021629129640058854,-0.3636172782952116,-0.4252381018591389,nan
1741084974.6307287,-0.05133539183424592,-0.2363716498136805,-0.29275323559375366,-0.30674517384359734,nan
1741084974.6346302,0.13015961448445248,-0.4339995597702836,-0.033117281152884315,-0.008746581452446788,nan
1741084974.6385314,0.30764042652936435,-0.39227891784353186,0.28131188820276404,0.2795933491267546,nan
1741084974.6424327,0.3591924603362147,-0.0975405654490701,0.4582464935993217,0.3763559491391588,nan
1741084974.6463342,0.2338015367982978,0.27124553458817297,0.36916969109717573,0.2359883041620571,nan
1741084974.6502354,-0.008968158314089208,0.47362357134243405,0.045575111609261615,-0.023021513503132796,nan
1741084974.6541367,-0.24352150314037047,0.3893459848008919,-0.3251248197366492,-0.2127370070700182,nan
1741084974.6580381,-0.3627039278240213,0.1024403533405567,-0.512500765720339,-0.2172019103732226,nan
1741084974.6619394,-0.3331847844831162,-0.17629979778250557,-0.39363639344961737,-0.07029897695528842,nan
1741084974.6658406,-0.1896415445430344,-0.27800500472078044,-0.037770170139164366,0.08630377930051818,nan
1741084974.669742,0.007333654898331317,-0.1945225065471087,0.3358786321811074,0.12434041466337953,nan
1741084974.6737094,0.2021035434269254,-0.05566343208851957,0.4998367909419081,0.028466389254344363,nan
1741084974.6776109,0.3437218520014112,0.0035156728522715975,0.3632338900156381,-0.10268449667749002,nan
1741084974.681512,0.37756657193112325,-0.0365926689974951,0.023411416825059442,-0.14662358500886427,nan
1741084974.6854134,0.2624307328840069,-0.07598504073832034,-0.30504056229428406,-0.05878051313231437,nan
1741084974.6893148,0.012957948067229804,-0.0053798691526395805,-0.4299764108021076,0.09619060484983893,nan
1741084974.693216,-0.27420300523970376,0.17265019088287573,-0.29595539802764315,0.20191993281269033,nan
1741084974.6971173,-0.45355588130271535,0.3248006670313831,-0.004718295534432264,0.18248599320931444,nan
1741084974.7010188,-0.4178445657394071,0.2936428384251168,0.2598699092981802,0.05376676209832137,nan
1741084974.70492,-0.1777037050318257,0.041764605394325444,0.3462089750715793,-0.09960905843298089,nan
1741084974.7088213,0.13481973003199202,-0.29177272212101885,0.21822032725075446,-0.19199964785960968,nan
1741084974.7127228,0.3512342973172271,-0.47896188423908553,-0.034044473202874286,-0.1898057508913647,nan
1741084974.716624,0.37785392731197426,-0.372410382233864,-0.25284005290620176,-0.114395484797359,nan
1741084974.7205856,0.2458911716791922,-0.02490738946442237,-0.303427734340421,-0.008267718843552931,nan
1741084974.7244868,0.06391763255006037,0.33754957024339366,-0.15033683150106994,0.09521734783493338,nan
1741084974.728388,-0.07920590328108201,0.47331917468132917,0.1181337063913537,0.17394936403519326,nan
1741084974.7322896,-0.17123680881164127,0.2971269331691977,0.3327613764792206,0.20318639292422402,nan
1741084974.7361908,-0.245337557902339,-0.06018850068218126,0.3390031474960657,0.15570307415309695,nan
1741084974.740092,-0.3012132525413519,-0.3463592872395978,0.09902545418072631,0.026956130123527378,nan
1741084974.7439933,-0.2703665749411567,-0.3661534633130711,-0.2625718091779676,-0.13852130038590832,nan
1741084974.7478948,-0.07753080437649695,-0.11588239772662184,-0.5130528953292992,-0.25527321370951794,nan
1741084974.751796,0.24953060257607051,0.21771203961110933,-0.4523230336497992,-0.24792227392979577,nan
1741084974.7556973,0.5358807507919667,0.3887471953998712,-0.06044450685929087,-0.10995891480944628,nan
1741084974.7595987,0.5550240236586625,0.2614844040403068,0.45318405671024886,0.08119777969021498,nan
1741084974.7635,0.21401402382889353,-0.09460218308602607,0.7555533365593055,0.2133238783257557,nan
1741084974.7674606,-0.32395591808504237,-0.4437227747532476,0.6036797274222645,0.21848024947659328,nan
1741084974.7713618,-0.70874423736902,-0.5314566529178387,0.02961182974733194,0.11858760982109241,nan
1741084974.7752633,-0.6460214556206317,-0.25147977152097045,-0.6420679045054437,-0.0005235175998613719,nan
1741084974.7791646,-0.13818614072076077,0.26935087134904456,-0.9807663061338865,-0.06386915719900547,nan
1741084974.7830658,0.4790592183115496,0.7240765103260971,-0.732410149964492,-0.0654091028645252,nan
1741084974.7869673,0.7622453667694192,0.7978212640056022,-0.007808426090767745,-0.058863585199355556,nan
1741084974.7908685,0.49361357424686725,0.3690504524940469,0.7639514094776823,-0.09176805077422863,nan
1741084974.7947698,-0.13659360245391278,-0.37994939816101103,1.1013754262399922,-0.1464448624329841,nan
1741084974.7986712,-0.6569808568247997,-1.0280902637811526,0.7840753917467059,-0.14739696594639584,nan
1741084974.8025725,-0.6692730543317906,-1.1461228109026345,0.0013946781087635913,-0.03426903477612175,nan
1741084974.8064737,-0.15960288078844093,-0.5734356966488612,-0.7676311124282076,0.16406495308973978,nan
1741084974.8103752,0.48218254651961645,0.4335153099150523,-1.062941109274767,0.32682687601397353,nan
1741084974.8143346,0.7595098077331697,1.303548312899555,-0.7325842983855081,0.32410145205481566,nan
1741084974.8182359,0.4542158360404162,1.477571875167131,-0.012276652989228996,0.12282695252673018,nan
1741084974.8221374,-0.2033934671805556,0.7738501471849394,0.6463903165039571,-0.17273341376396165,nan
1741084974.8260386,-0.7149141068013583,-0.45090226845490416,0.871112159858764,-0.3853171095624839,nan
1741084974.8299398,-0.7013886404117345,-1.4800879847939612,0.5872339443419982,-0.3875066021255774,nan
1741084974.8338413,-0.19048652125562024,-1.6715996103375697,0.027418679447899087,-0.1879429714565994,nan
1741084974.8377426,0.42053242796262613,-0.8769224284013553,-0.4494457890064373,0.08412818311612329,nan
1741084974.8416438,0.6870860153417118,0.4403593378675388,-0.5911171535075684,0.2776744072960061,nan
1741084974.8455453,0.4591470206490023,1.4844890855519788,-0.38371560062621185,0.3188557408767763,nan
1741084974.8494465,-0.029262761122744774,1.6331123752505552,-0.017198455091759966,0.23513634913259177,nan
1741084974.8533478,-0.38024068334143263,0.8326076121808594,0.26500178034271227,0.10029712770364073,nan
1741084974.8572493,-0.36482146162701007,-0.3840942522086386,0.31935304921367885,-0.035928944994499695,nan
1741084974.8612082,-0.08851602068010131,-1.264775885448176,0.16659462037276682,-0.1657370979908965,nan
1741084974.8651094,0.1377272532496634,-1.3308115396717861,-0.05221131853788353,-0.2813865922098319,nan
1741084974.8690107,0.09437055801267248,-0.6557037012167821,-0.180391903833052,-0.3317427576821774,nan
1741084974.8729122,-0.14758930527629266,0.24653212371122826,-0.1410122723597763,-0.24044500877620933,nan
1741084974.8768134,-0.29886719607537005,0.8141473455507997,0.026211449730236196,0.01470599696934047,nan
1741084974.8807147,-0.12895513046697726,0.8102927057222157,0.19658264444572465,0.33460597678609244,nan
1741084974.8846161,0.29922381046206753,0.41403006048429813,0.23806003790122576,0.5258035358342064,nan
1741084974.8885174,0.6502550623396209,0.00014662148388710916,0.09438002027531998,0.42859856930531487,nan
1741084974.8924186,0.58648648629966,-0.1840596005392215,-0.17004384697741218,0.055571353345070275,nan
1741084974.89632,0.06423586723975577,-0.17780284843203972,-0.3939778904420949,-0.3807212730336919,nan
1741084974.9002213,-0.596534939249658,-0.19187806380767478,-0.410164644622235,-0.5966095440479096,nan
1741084974.9041226,-0.9370844409009595,-0.3479237591062734,-0.15835446525307637,-0.44050567117586603,nan
1741084974.9080813,-0.7042696156212915,-0.5206007575118988,0.25154511214814695,-0.014802120246763676,nan
1741084974.9119825,-0.041145756882842624,-0.4361682759204674,0.5817766961637104,0.3882374484225415,nan
1741084974.9158838,0.6231419344304633,0.04922404901297167,0.6065307400917415,0.49818641772213706,nan
1741084974.9197853,0.8887153221915137,0.7390365051190707,0.2674497561206518,0.2658701457258622,nan
1741084974.9236865,0.6538166812142475,1.164218847489103,-0.26428551511254306,-0.1062790021168192,nan
1741084974.9275877,0.1393122234671281,0.9165563883605253,-0.677186046462363,-0.32839421224898385,nan
1741084974.9314892,-0.320098236700952,0.0023772242028810976,-0.7142396489667535,-0.2515541833648261,nan
1741084974.9353905,-0.5244248190261875,-1.075911144529634,-0.3448875525318507,0.022440118760766833,nan
1741084974.9392917,-0.49651513658593005,-1.614001311522332,0.2086234715139263,0.2365506626826543,nan
1741084974.9431932,-0.37090701424334704,-1.1909665423069027,0.6151104112571162,0.19830244043801842,nan
1741084974.9470944,-0.22243154577992835,0.0032626463250670303,0.6508108593399127,-0.058470171812039125,nan
1741084974.9509957,-0.010523183502775143,1.2525590263586481,0.33658212913020136,-0.3034291416891592,nan
1741084974.9549592,0.3141107601575018,1.773689943614999,-0.09749093610795416,-0.30551856881731987,nan
1741084974.9588606,0.6637225042807101,1.2373841252612947,-0.38577703244875056,-0.031557300192136775,nan
1741084974.9627619,0.8013571710149203,-0.012625176967309703,-0.40538339652160643,0.31778238634369704,nan
1741084974.9666631,0.5135751859631364,-1.1943707266059995,-0.23047219742979044,0.4655514334480757,nan
1741084974.9705646,-0.16544047144641558,-1.607612988156429,-0.03694555407913607,0.28126598505555955,nan
1741084974.9744658,-0.8889467087076814,-1.075761595603851,0.05152309803806014,-0.1122591336663261,nan
