timestamps,TP9,AF7,AF8,TP10,Right AUX
1741086032.2881012,0.9693584208808884,0.5806616769850641,0.4614156281774296,1.0372763625467452,nan
1741086032.292006,0.3700212389728197,1.4964353305371805,0.3559833471356509,0.5602049501834991,nan
1741086032.295911,-0.39410219465259516,1.9071933602462807,0.13092522725779074,-0.17259005140281988,nan
1741086032.299816,-0.8700682028129668,1.5110492093460992,-0.127979321659301,-0.6648024892121344,nan
1741086032.3037207,-0.8125577475893844,0.33465293574264415,-0.3435485903122645,-0.6507720847798698,nan
1741086032.3076255,-0.3230528569567183,-1.1294500711666449,-0.4476111552070979,-0.2537247444405435,nan
1741086032.3115304,0.2485176370901814,-2.110237314124075,-0.38681877772401096,0.15873727649828184,nan
1741086032.3154352,0.5565527600528872,-2.0108035814661642,-0.15192266780602026,0.2873686275460873,nan
1741086032.3193402,0.48108106086866675,-0.8242393051322208,0.18780821502486109,0.12430476584310816,nan
1741086032.323245,0.1684682942066321,0.8050609627277127,0.4862162344592115,-0.08441456106337754,nan
1741086032.3271499,-0.11592281839265907,1.9531758375934731,0.5814683630444808,-0.08652394095957253,nan
1741086032.3310547,-0.19508107515698161,1.985938844435555,0.39226983564002493,0.14020484625846175,nan
1741086032.3349757,-0.09005439378557638,0.9433071994035703,-0.014149275899002743,0.36693517953802957,nan
1741086032.3388805,0.03588266213886685,-0.51313892285454,-0.43856186714974166,0.32363436142817337,nan
1741086032.3427854,0.034865618544422425,-1.5368339337300365,-0.6537947863058481,-0.043505796255754396,nan
1741086032.3466904,-0.10030695229527489,-1.6123631585293592,-0.5369694888897762,-0.4933641215377679,nan
1741086032.3505952,-0.23876882955629627,-0.8202420403690971,-0.14600282125285688,-0.6671642870382501,nan
1741086032.3545,-0.22911759329976863,0.2845242826081553,0.31050843630714464,-0.3824240109695448,nan
1741086032.3584049,-0.030369992609645607,1.0553117404791943,0.5925251403173896,0.1990313292359311,nan
1741086032.3623097,0.24781169630803007,1.1311409552351652,0.5631749238999166,0.6744352312744095,nan
1741086032.3662145,0.42240632749388957,0.5896975368913088,0.2582308452523453,0.7011038206772913,nan
1741086032.3701196,0.36786487593475925,-0.17002634157272842,-0.14572150658243882,0.2594094088151329,nan
1741086032.3740244,0.10229967450653527,-0.69830349795034,-0.43769773160868586,-0.3304139379670388,nan
1741086032.3779292,-0.22762916669701624,-0.7428986851030532,-0.48624826734007776,-0.6510363315487421,nan
1741086032.3818514,-0.44271499888010785,-0.35116745723499765,-0.2977788014148709,-0.49960478344556586,nan
1741086032.3857565,-0.43622979424065045,0.19694166713399144,0.00452372176805646,-0.027065033820603605,nan
1741086032.3896613,-0.22282236337626232,0.5642515199890746,0.25867973293514435,0.39528233699789295,nan
1741086032.3935661,0.08523776200325849,0.5428962329030397,0.3501461257804568,0.46753051501582954,nan
1741086032.397471,0.3441872267815564,0.16223686501187776,0.26149006372733946,0.1795848777505276,nan
1741086032.4013758,0.4437749186393708,-0.33300143677797717,0.06638968690132235,-0.20635979631633156,nan
1741086032.4052806,0.34559208888397425,-0.6256170493677515,-0.12081155939133836,-0.3796354049834966,nan
1741086032.4091856,0.09226816583974772,-0.5167043283364602,-0.20882166857018777,-0.2237359016087122,nan
1741086032.4130905,-0.20718111608610018,-0.05459298461881436,-0.17277006967831265,0.11095502660504845,nan
1741086032.4169953,-0.41506721095236604,0.48373685820186446,-0.05738543599071501,0.3466908770758748,nan
1741086032.4209,-0.42357149817783557,0.7589902662711817,0.05749691965068317,0.3039085189239952,nan
1741086032.424805,-0.21536612073412945,0.5847670076593466,0.10668335433325567,0.03037803161469032,nan
1741086032.4287257,0.1102683126864298,0.05106777063219085,0.07513985999819552,-0.2566969587492477,nan
1741086032.4326305,0.3767398607379587,-0.529622198353843,-0.00022056289504932878,-0.35161555004532474,nan
1741086032.4365354,0.4278104253185376,-0.8195572902516847,-0.060505808432750254,-0.21091739088727982,nan
1741086032.4404402,0.22904015508241943,-0.6630787132250983,-0.06498515056740031,0.038247090701745604,nan
1741086032.4443452,-0.09854810665085148,-0.16739377908395864,-0.014955534950183445,0.2188367569270896,nan
1741086032.44825,-0.3474218560768543,0.38540577636051715,0.05219084411798695,0.24049982443107729,nan
1741086032.4521549,-0.3585227173113425,0.7187309942261717,0.09114513097797658,0.14263223571199135,nan
1741086032.4560597,-0.13165403959887073,0.705896539726733,0.07770561161664492,0.027204641930425582,nan
1741086032.4599645,0.17037482105404894,0.39770746675769714,0.019944939681365584,-0.0412306153752241,nan
1741086032.4638693,0.33332091248579704,-0.04955500652565408,-0.051778121084154013,-0.07524787531497198,nan
1741086032.4677744,0.24318630723888357,-0.4653802040826709,-0.10442274176801451,-0.1187270891124653,nan
1741086032.4716792,-0.031015760430185526,-0.7128141970810484,-0.11690699885062608,-0.17367297140583296,nan
1741086032.475601,-0.28565853059760155,-0.6974483965912222,-0.08397677398098212,-0.1802475456526495,nan
1741086032.4795058,-0.3293637947318545,-0.3848448971144864,-0.013966269851134685,-0.07482816234189936,nan
1741086032.4834108,-0.12258384579567597,0.15284240137407226,0.07279835421451168,0.12853965010816004,nan
1741086032.4873157,0.19176865816886327,0.7055962704143525,0.1449786081779595,0.3164150602098849,nan
1741086032.4912205,0.38931537961136026,0.9816947834250358,0.16715556411999072,0.34729832040823416,nan
1741086032.4951253,0.32393887627888573,0.7666896369914487,0.11653284200010292,0.16503474645989757,nan
1741086032.49903,0.031619867592876015,0.09674972017096437,0.0020745142214196872,-0.14033967992105992,nan
1741086032.502935,-0.2945017147877954,-0.6965578021008407,-0.12976764649912995,-0.3816653227300063,nan
1741086032.50684,-0.4377999620306909,-1.1484116424396205,-0.21363244885645727,-0.4027404353888362,nan
1741086032.5107448,-0.3048722923273198,-0.9546040819182423,-0.2015119467958429,-0.1891886582884524,nan
1741086032.5146496,0.01565055725250749,-0.1981139221075699,-0.09375746755616216,0.12207378978342819,nan
1741086032.5185544,0.3178893352312302,0.6717213750460742,0.05803721223833291,0.34008395012320775,nan
1741086032.5224762,0.4169559387689307,1.1199680568431227,0.1802819347568702,0.34845592690439814,nan
1741086032.526381,0.264840637135302,0.8824517145248648,0.2192433372523904,0.17154414523405886,nan
1741086032.5302858,-0.029484541473814817,0.14323483351927116,0.1671065828888574,-0.06149159553116988,nan
1741086032.5341907,-0.2802098225909358,-0.5993821719638014,0.05720514490791,-0.21558280144011913,nan
1741086032.5380957,-0.34478699361064,-0.8827156757889874,-0.06244841503419374,-0.2326450888723093,nan
1741086032.5420005,-0.20515968454293537,-0.5897794017033805,-0.1539420073081711,-0.1447876592035201,nan
1741086032.5459054,0.034992046249408874,0.0024062166323061377,-0.196346401256881,-0.025810458097060177,nan
1741086032.5498102,0.22494962444392425,0.4568214030188016,-0.1788508313660078,0.06725488272599373,nan
1741086032.553715,0.26013700038269855,0.5021206620043441,-0.09741199884140594,0.1169027334658571,nan
1741086032.5576198,0.13724114546837224,0.2022768211093772,0.03513541568602614,0.12838614536667461,nan
1741086032.5615249,-0.05502603005424859,-0.14167055813213653,0.17594031112010874,0.10484337660804456,nan
1741086032.5654297,-0.1959103052658597,-0.2558200232279762,0.2580465691112272,0.04427109483877865,nan
1741086032.5693512,-0.2041266563597431,-0.10200887195551529,0.2250338397504135,-0.04246730676986243,nan
1741086032.573256,-0.08103484771000173,0.12707127180919214,0.07545805617424427,-0.1194491688946093,nan
1741086032.577161,0.09475455692780163,0.1996526450643178,-0.120162924355864,-0.14117707537539478,nan
1741086032.581066,0.2148102124258987,0.04828584176748555,-0.25359081522071486,-0.08762886681660241,nan
1741086032.5849707,0.20315699615587884,-0.1848868999650573,-0.24844196377543507,0.013149446451115326,nan
1741086032.5888755,0.059990788379436784,-0.2858627620759366,-0.11527595586950214,0.09969944711108883,nan
1741086032.5927804,-0.13652841375082658,-0.15924898414179736,0.05363571509080367,0.12090722640503354,nan
1741086032.5966852,-0.27209565128811786,0.09421511945914034,0.1513079500746573,0.07299152326055497,nan
1741086032.6005902,-0.26010653142092865,0.27210859352916905,0.13510072652892272,-0.001749088304350306,nan
1741086032.604495,-0.09297283776125147,0.24557132480186394,0.05415931933964476,-0.05240726290455521,nan
1741086032.6083999,0.14840609355846882,0.060573366903035906,0.0008620353117138356,-0.059199762501820706,nan
1741086032.6123047,0.3343848688038359,-0.1168097872087142,0.025375394212413728,-0.040869458159557205,nan
1741086032.6162262,0.35570269967082446,-0.15352617420820774,0.08691366114491776,-0.02649882918102124,nan
1741086032.620131,0.18509784466128526,-0.06090415328747388,0.08816764153709422,-0.022258019150904012,nan
1741086032.6240358,-0.10249216950121216,0.032098741014764356,-0.030994454143480704,-0.007551490744336254,nan
1741086032.6279407,-0.3635230358339194,0.01292390586126462,-0.22019784230154227,0.035193508234136396,nan
1741086032.6318457,-0.4574856143191133,-0.10011498320069762,-0.33619448165105487,0.08856816731997076,nan
1741086032.6357505,-0.3209520788870231,-0.1703881066800199,-0.24996693989901583,0.10334061620568352,nan
1741086032.6396554,-0.0062635017069068025,-0.07407986834654261,0.03683634525121438,0.0416888913855463,nan
1741086032.6435602,0.33682315833214643,0.1677050592273156,0.36454533009598056,-0.07639955509215719,nan
1741086032.647465,0.5313653490287776,0.37923625934542593,0.5124753450105954,-0.17127683837514562,nan
1741086032.6513698,0.4640011665183921,0.36263281857730756,0.3570616277544229,-0.15919990466664088,nan
1741086032.6552749,0.1510726841913804,0.06813314346920844,-0.027216891298061367,-0.025286158603283277,nan
1741086032.6591797,-0.2581771783266869,-0.3405334511576314,-0.40625542662109576,0.14942220099604242,nan
1741086032.6631007,-0.5511573535835027,-0.5875281154312829,-0.5428552359075479,0.23845397209397676,nan
1741086032.6670055,-0.5645141941597429,-0.4816501809955408,-0.35914568084334003,0.16556721407449138,nan
1741086032.6709104,-0.28004973666082655,-0.06039496536978857,0.013847707589935625,-0.029566077592027052,nan
1741086032.6748154,0.154970165947952,0.42660424846820844,0.33391175753201185,-0.21273861850259135,nan
1741086032.6787202,0.5038118915989507,0.68121478305406,0.41724550137012506,-0.25271545449767735,nan
1741086032.682625,0.5751116246978099,0.548682351121156,0.2544021253165259,-0.12071347588617802,nan
1741086032.6865299,0.33699095247957184,0.1076063195085323,-0.006430878805465687,0.08708031721749113,nan
1741086032.6904347,-0.0632246328133028,-0.3905148941437899,-0.18414173117803304,0.22287782356639768,nan
1741086032.6943395,-0.39065462382524624,-0.6767624489171379,-0.19469992436979314,0.19878215105378946,nan
1741086032.6982446,-0.46930389571401193,-0.6102122069219309,-0.0901375700989024,0.048457763362247504,nan
1741086032.7021494,-0.28726975887328743,-0.23579158673261716,0.01000662986794556,-0.10750991853994417,nan
1741086032.7060542,0.009272916597509062,0.2558779560876966,0.026417811119377455,-0.16051166567748082,nan
1741086032.7099752,0.22634416261782092,0.6262839789311824,-0.023782979777273634,-0.09474547353745476,nan
1741086032.71388,0.2558963051293818,0.6944899956492798,-0.06050656002116865,0.013336340207133498,nan
1741086032.717785,0.13670511336499327,0.4155503529219039,-0.02397347887095798,0.06978115222402097,nan
1741086032.7216897,0.0023801025848517346,-0.09053350457166441,0.06924878802031201,0.04369513550629808,nan
1741086032.7255945,-0.036932746889026265,-0.5775633633625826,0.1435429042168656,-0.015272944146556779,nan
1741086032.7294993,0.017581042110843364,-0.7825870029692032,0.13369603956083628,-0.03287058999230732,nan
1741086032.7334044,0.06619921571613328,-0.5697279570483067,0.04185371803593039,0.015127770021318902,nan
1741086032.7373092,0.01101360138750175,-0.029816893155886034,-0.06689853182862864,0.07894543127945557,nan
1741086032.741214,-0.14296089829844405,0.5432253669466001,-0.1220747395607567,0.08314995452599075,nan
1741086032.7451189,-0.27579423135671377,0.8127409309019917,-0.10433985490980233,0.0022592194357940517,nan
1741086032.7490237,-0.24695324351566364,0.6109118877786043,-0.051914803084946885,-0.1073184296687885,nan
1741086032.7529285,-0.022130377677888967,0.059579931732210954,-0.016001549290497904,-0.1513925177377149,nan
1741086032.756851,0.275000724225955,-0.4970995524914367,-0.010550059977250155,-0.08148974276350085,nan
1741086032.7607558,0.4387002579306266,-0.7169726477576513,-0.004158861082658762,0.05672193946829129,nan
1741086032.7646606,0.3343187273862306,-0.48925559012953307,0.03985545006597555,0.15619110159143146,nan
1741086032.7685654,0.010185144377411961,-0.002782522103078712,0.1155726585847303,0.13749045175591346,nan
1741086032.7724705,-0.3249660319972463,0.39917847538934126,0.16721084083783846,0.01769933028603655,nan
1741086032.7763753,-0.4492537890681369,0.46960630435281386,0.13343516385784904,-0.10243780507209034,nan
1741086032.78028,-0.2896686078665834,0.22485358020653498,0.005553239905929564,-0.12453943119313535,nan
1741086032.784185,0.026677997724012432,-0.09509298980951547,-0.15322836107518328,-0.03813781874484412,nan
1741086032.7880898,0.2728659060598293,-0.23329953971375697,-0.24776108685123538,0.07006729145709746,nan
1741086032.7919946,0.2954049298925965,-0.11921569495372104,-0.21905062207019213,0.09399840413863148,nan
1741086032.7958996,0.1236214374736458,0.09344543204316744,-0.0850555244025823,0.006486883430842578,nan
1741086032.7998044,-0.06997225510339702,0.176735630725283,0.07724707168642064,-0.11005055108197799,nan
1741086032.803725,-0.12236713522025809,0.033603059808321255,0.18964973085311246,-0.13282324129605602,nan
1741086032.80763,-0.017431291677045768,-0.21679526010860553,0.22002647719628654,-0.012288923737142325,nan
1741086032.811535,0.10743585790038987,-0.34361470823070434,0.1834621732667015,0.16932708278536637,nan
1741086032.8154397,0.09125586526305053,-0.2065200029987142,0.10693043926535059,0.25320073471060683,nan
1741086032.8193445,-0.09483105206371675,0.11845765201916449,0.0001685731059468361,0.1359291310852907,nan
1741086032.8232493,-0.3031153977013085,0.3963546469258081,-0.13529198167096837,-0.1291208776926204,nan
1741086032.8271542,-0.32345194956999085,0.4236495348333479,-0.2707727526893787,-0.35225233096298514,nan
1741086032.8310592,-0.06876915883882234,0.18913662794005226,-0.33438427192081777,-0.3456298446128617,nan
1741086032.834964,0.3233663275767586,-0.12837709426738786,-0.24790615438500957,-0.07641167743198664,nan
1741086032.8388689,0.5694719884373389,-0.31621983158918643,0.0008642074322249088,0.28854100614264344,nan
1741086032.8427737,0.4517674673035535,-0.29688231810086824,0.31219390548995496,0.49107016801308373,nan
1741086032.8466785,0.0012703814712277104,-0.16375657139706137,0.5094512196858834,0.36914362440763715,nan
1741086032.8506005,-0.49808282292527967,-0.062056718295661034,0.4486185876705994,-0.01632628061490448,nan
1741086032.8545053,-0.7013608967600795,-0.03573143025395345,0.12874906142035727,-0.4138624564116306,nan
1741086032.8584101,-0.45371905989774,0.008178281073105562,-0.2844599561484211,-0.5538269923666292,nan
1741086032.862315,0.08875183873417596,0.17818554430631214,-0.5524177045750248,-0.33701714204615635,nan
1741086032.8662198,0.5640384362547293,0.43615541417103015,-0.5168041517953892,0.09638323951567186,nan
1741086032.8701248,0.660639236244109,0.5656081416135451,-0.20466313306546657,0.46485713179182786,nan
1741086032.8740296,0.33578818993282383,0.33567341406280193,0.1909348465611375,0.5372800278994756,nan
1741086032.8779345,-0.16491732055023206,-0.25836677339125613,0.4408593449902849,0.282013780799785,nan
1741086032.8818393,-0.49588347776213065,-0.8961420714043506,0.4267003068074734,-0.12534564582183616,nan
1741086032.885744,-0.4616469903882216,-1.1046583463437891,0.20205584984563557,-0.42979828290599564,nan
1741086032.889649,-0.14161122622392758,-0.6110520231415788,-0.06639549756739452,-0.46312076866430274,nan
1741086032.893554,0.195414573076897,0.39048802519060644,-0.2238598846463746,-0.23611956657883515,nan
1741086032.8974757,0.30896129240857934,1.2951999833895538,-0.22273785081373543,0.0920725410204921,nan
1741086032.9013805,0.1631522379063193,1.4733570924394286,-0.12618880290574086,0.32936021680676714,nan
1741086032.9052854,-0.07010184908030771,0.7268107768264673,-0.03389504330704146,0.3648108611835721,nan
1741086032.9091902,-0.17082793791064046,-0.5252425265233698,0.00045609849840625685,0.2134175239959581,nan
1741086032.913095,-0.056892898291967364,-1.494337575264828,-0.004046143664113819,-0.018485008175352965,nan
1741086032.9169998,0.15397822703242342,-1.5501877878167911,0.005951370905828036,-0.20697971480182784,nan
1741086032.9209049,0.25066323393175277,-0.6564284001073536,0.05829477793008813,-0.27273743922376026,nan
1741086032.9248097,0.11182447601894235,0.6012509594813974,0.1280654498015141,-0.20499233628441813,nan
1741086032.9287145,-0.18462724523162644,1.4180846656015202,0.16088691971797675,-0.0511543382449141,nan
1741086032.9326193,-0.4140313758073633,1.3154708654775649,0.11993123215362593,0.11082687153653886,nan
1741086032.9365242,-0.3778645337903686,0.4413630432845015,0.014609848589757807,0.2047883526908797,nan
1741086032.940429,-0.06180308090619771,-0.5744648478357443,-0.10841817075369997,0.1876633535178149,nan
1741086032.9443507,0.3425873086874122,-1.0835390665044533,-0.19676986942209224,0.07183032907488153,nan
1741086032.9482555,0.5681913968469751,-0.8529243513530108,-0.21734078686676897,-0.07550488285322655,nan
1741086032.9521604,0.45711233289897,-0.16776946157513078,-0.16105262477526072,-0.1652713969127651,nan
1741086032.9560652,0.06693659272519188,0.4380094661202336,-0.03759732404176381,-0.14074015562629436,nan
1741086032.9599702,-0.3710689781236648,0.5903191181876942,0.1235896984426634,-0.01961334277724503,nan
1741086032.963875,-0.6036378779154266,0.311055940861393,0.26698720582805774,0.11064602483482862,nan
1741086032.9677799,-0.5085003365662355,-0.07037705550296347,0.3188237849681645,0.15011458804976252,nan
1741086032.9716847,-0.15252687314404556,-0.2231626487310825,0.22359933044800903,0.06095949020493814,nan
1741086032.9755895,0.26627960803776046,-0.07760109175837812,-0.006096312663038578,-0.09648117779804155,nan
1741086032.9794946,0.5388095891624893,0.1565517574063123,-0.26863007742364375,-0.1997640151266007,nan
1741086032.9833994,0.5480288624664834,0.20531213006337148,-0.41515792935515683,-0.1533777505000801,nan
1741086032.9873042,0.3070028930716191,-0.0170736000162807,-0.3420465482170252,0.03276509169198449,nan
1741086032.9912255,-0.06671239929319904,-0.33085178733062487,-0.07259455166913345,0.23767506587464968,nan
1741086032.9951305,-0.40941696619659784,-0.4460125523568917,0.2397353560721776,0.30826731992840284,nan
1741086032.9990354,-0.5737468264706961,-0.2145112335321145,0.4033882295845723,0.17064603636195033,nan
1741086033.0029402,-0.4818990413577366,0.23139869325227372,0.3188237264806635,-0.10727328878504831,nan
1741086033.006845,-0.1613071370333796,0.5689287249807696,0.051877171109542104,-0.3516054749769681,nan
1741086033.0107498,0.2528151260832505,0.531964463811063,-0.20954992231844213,-0.3964699217639629,nan
1741086033.0146546,0.5645882710589106,0.12095798453304557,-0.28950087736116403,-0.1980550454955194,nan
1741086033.0185597,0.609027159098131,-0.38792091325418077,-0.15121352951858233,0.13135236578121565,nan
1741086033.0224645,0.3468953234706741,-0.6410745120223103,0.07873452420742066,0.3938559459854894,nan
1741086033.0263693,-0.09752313952072157,-0.4627849075036413,0.20934182050926092,0.4326506513540512,nan
1741086033.0302742,-0.4927071884405633,0.021354075502633626,0.13303076792892066,0.22919752729353307,nan
1741086033.034179,-0.6280911188310613,0.4784513454638413,-0.09017829316004126,-0.09154776840484741,nan
1741086033.0381002,-0.43788270793745704,0.6043702996273864,-0.2768891004025613,-0.34548003853371306,nan
1741086033.042005,-0.03919814399732566,0.3291060455989449,-0.2600595956384413,-0.4023077176942053,nan
1741086033.04591,0.3427530267660548,-0.1488257064786468,-0.019161577692800195,-0.25367221122136213,nan
1741086033.0498147,0.5129328809761352,-0.5104342237986236,0.29649255394579127,-0.0005563831652792792,nan
1741086033.0537195,0.41586877824680857,-0.532391363039051,0.4684313748943471,0.21962352715269343,nan
1741086033.0576246,0.1474832900990234,-0.22188796421606394,0.3605498381277152,0.3116290437351524,nan
1741086033.0615294,-0.12753152176613622,0.2090633836559937,0.01445944490239913,0.25967364521466607,nan
1741086033.0654342,-0.2848549557937833,0.49454197355572654,-0.3746343897757645,0.1130566049718397,nan
1741086033.069339,-0.2985989247634668,0.4798065438302844,-0.5803244179280302,-0.05540670823196846,nan
1741086033.0732439,-0.21950999795138681,0.19743283120505797,-0.48163976568608735,-0.18489236288559502,nan
1741086033.0771487,-0.10907458162940523,-0.1762219075730374,-0.128957189153428,-0.23981658967427755,nan
1741086033.0810537,0.00696056463695712,-0.437158266410685,0.2926311870679082,-0.20775671288242847,nan
1741086033.0849745,0.13031155140459463,-0.4632459042146211,0.5698793286766347,-0.09759061115398468,nan
1741086033.0888796,0.24736682294282947,-0.26087819425413633,0.5715610826238487,0.05671719654135733,nan
1741086033.0927844,0.30485852341129654,0.058477586612840686,0.3059994633679069,0.19656633807606072,nan
1741086033.0966892,0.2383303230090788,0.3421621200657994,-0.09355757520611341,0.2564099314530698,nan
1741086033.100594,0.03505149561824498,0.4637880567914959,-0.43876987897833714,0.1976787459355687,nan
1741086033.1044989,-0.2259562217206533,0.370866721828841,-0.5746175255835159,0.038939474044712104,nan
1741086033.1084037,-0.4027685318386949,0.10353314175652015,-0.447948616330799,-0.14319183870174407,nan
1741086033.1123087,-0.3792487803402476,-0.219115102148903,-0.12817870777200105,-0.251519721741274,nan
1741086033.1162136,-0.15110152474073238,-0.44550951442683107,0.22885097025067938,-0.2253188302424699,nan
1741086033.1201184,0.15887545549437662,-0.46042340588479547,0.45821291671735354,-0.08016348824267892,nan
1741086033.1240232,0.3745440203026781,-0.24777797340851296,0.46682405114400255,0.09854018872288707,nan
1741086033.127928,0.379850404221132,0.09004797943028216,0.2749410947941848,0.2072463248837749,nan
1741086033.1318488,0.19108860504342237,0.37833476430909624,-0.004809902095985241,0.188496573787576,nan
1741086033.1357539,-0.0627004861614712,0.46495459421102675,-0.23660681916154075,0.06517944831234772,nan
1741086033.1396587,-0.23342893837686426,0.3102207737250338,-0.3342555211371906,-0.07777408743367412,nan
1741086033.1435635,-0.2505990140602301,0.012256358787087439,-0.2930262627442544,-0.1509821352241364,nan
1741086033.1474683,-0.15209410130734807,-0.2540552156378177,-0.1675912860437778,-0.11787063505937778,nan
1741086033.1513731,-0.03452091393395471,-0.3478130953472765,-0.02245573629144408,-0.01365704353264113,nan
1741086033.155278,0.02979484104129926,-0.24815938637697146,0.1032797098403227,0.08411921941087978,nan
1741086033.159183,0.04112726531460983,-0.055761580647294924,0.19502025072403723,0.1103465793851728,nan
1741086033.1630878,0.05183037379254287,0.09008076088692374,0.240096677022633,0.053868653985900634,nan
1741086033.1669927,0.10160196514585701,0.11578880133701301,0.21680269255418833,-0.04050165238943261,nan
1741086033.1708975,0.16854758414356555,0.05961078151120482,0.11241219203566323,-0.10668585963087932,nan
1741086033.1748023,0.18054903419871995,0.024608454789104058,-0.0473583031205312,-0.10180605519675376,nan
1741086033.1787229,0.07930242535015616,0.07777752045569017,-0.19358817961515984,-0.030487263446184486,nan
1741086033.1826277,-0.11622869189564276,0.18006364690941004,-0.2512928055439037,0.0633123348272968,nan
1741086033.1865327,-0.3024926035225737,0.2103534667731599,-0.194156734415743,0.1262929129613022,nan
1741086033.1904376,-0.3530022941331078,0.07106337103057492,-0.0683508958731882,0.1255408610276987,nan
1741086033.1943424,-0.20772237029340662,-0.20807108376257352,0.0422839181489495,0.061627771596884644,nan
1741086033.1982472,0.07474344513628964,-0.45913907799661824,0.08526767747385688,-0.03658337809323334,nan
1741086033.202152,0.34263199643606396,-0.48209554297681567,0.08173721415246897,-0.12659883357541168,nan
1741086033.2060568,0.4405600912793703,-0.1980464877452661,0.09845961263605457,-0.16776939396689097,nan
1741086033.209962,0.30525852950556137,0.26638074040043236,0.1690034910507057,-0.13510661857975226,nan
1741086033.2138667,0.0057770974397854235,0.6380634206387485,0.23743114057458709,-0.031702054833878196,nan
1741086033.2177715,-0.29633969691397843,0.6708040457858702,0.18892833442413492,0.10441404909156082,nan
1741086033.2216763,-0.4403290765779745,0.31558000643539647,-0.04205492722490083,0.20837724847020517,nan
1741086033.2255983,-0.3554056073855398,-0.2346176065593902,-0.3747337619102958,0.21705699250833008,nan
1741086033.2295032,-0.09496610913704649,-0.6615478199206234,-0.5948527269024338,0.10847053464608346,nan
1741086033.233408,0.19911050958251095,-0.7219735103785164,-0.49592381862203716,-0.07297321085104184,nan
1741086033.2373128,0.37655423323443377,-0.39541556555415663,-0.05426906012148739,-0.2298808895299802,nan
1741086033.2412176,0.3564830816920576,0.11615936744270443,0.505877140410517,-0.2657545915685188,nan
1741086033.2451224,0.16288396421686882,0.5261803855320465,0.832962696580381,-0.14942818944664557,nan
1741086033.2490275,-0.09575850365330339,0.6369272185019825,0.6873393701111223,0.05548617701301911,nan
1741086033.2529323,-0.28689941795498297,0.43493681747703944,0.12646068545537203,0.22394383318416428,nan
1741086033.2568371,-0.32111481404171954,0.0631504730255445,-0.5124032424478151,0.2500048035292915,nan
1741086033.260742,-0.19307216123135643,-0.28643297289509223,-0.8341912366627112,0.12074143670661658,nan
1741086033.2646468,0.021325780721166455,-0.4746344341604285,-0.6566263786079181,-0.07166759748538169,nan
1741086033.2685516,0.20745748250342436,-0.45522177809062164,-0.12963982561336226,-0.19330487086979262,nan
1741086033.2724733,0.27161827404282796,-0.25876738097934676,0.38457752821708,-0.16463699812585517,nan
1741086033.2763784,0.18792728860591873,0.03748979988749085,0.5769023401483052,-0.01871327014112813,nan
1741086033.2802832,0.00939430940211611,0.32610393373438573,0.39889722225096963,0.12421491311225631,nan
1741086033.284188,-0.1621401512190331,0.48453019021447913,0.060731651100856494,0.1490460753938456,nan
1741086033.2880929,-0.23168910987593513,0.4170577722924424,-0.16327645338664837,0.03581837112510317,nan
1741086033.2919977,-0.1632707293354515,0.12119301812431527,-0.1544007609042442,-0.1228757676167671,nan
1741086033.2959025,-0.0002110614781786094,-0.27118514867189936,-0.01765452507581382,-0.19289289212106303,nan
1741086033.2998075,0.1587806204013056,-0.5365696440257621,0.04430824397534205,-0.104759054375829,nan
1741086033.3037124,0.21632911211126998,-0.4904560068641411,-0.06924949808380505,0.08758874623690442,nan
1741086033.3076172,0.1349893624766201,-0.12805437681183668,-0.26095451349490295,0.24329882806625813,nan
1741086033.311522,-0.036945454119117746,0.33779052751415406,-0.3240229960055054,0.2404058260157911,nan
1741086033.3154268,-0.19088852504143172,0.5966927368499658,-0.13509095744401958,0.0699971424881094,nan
1741086033.3193483,-0.22363953018742364,0.454592007217682,0.219443750543302,-0.15446567735945252,nan
1741086033.3232532,-0.10549494043167508,-0.011206563247471685,0.49615224935310276,-0.280471835321082,nan
1741086033.3271582,0.09356948571479175,-0.48440470534534924,0.48482873049458375,-0.2282786506294412,nan
1741086033.331063,0.24224955914620955,-0.6253334261465442,0.17748875025112107,-0.04548261858947339,nan
1741086033.3349679,0.2326892397723559,-0.3205993454162426,-0.22365824429933073,0.13554910745329043,nan
1741086033.3388727,0.05859386734397627,0.2222574133333871,-0.46255053420276504,0.20078548507805005,nan
1741086033.3427775,-0.1696141318680822,0.6167280065618811,-0.4178673321137329,0.1356047536816811,nan
1741086033.3466823,-0.2919260198602112,0.5783668724924447,-0.17216595812528418,0.02203159805626006,nan
1741086033.3505874,-0.21016735430435948,0.13542260266480582,0.0819717775700768,-0.040078655607208885,nan
1741086033.3544922,0.03272521182863988,-0.3924042774305849,0.20437026616618995,-0.018926882266447887,nan
1741086033.358397,0.2690771593665705,-0.6326518027120133,0.19604112121738235,0.02841395107725681,nan
1741086033.3623018,0.3188071423728905,-0.43403485879215004,0.15077592576151377,0.01588603724240497,nan
1741086033.3662233,0.12494740934140379,0.03305131838553277,0.13453645871285155,-0.0841496958110756,nan
1741086033.3701282,-0.18828802652840373,0.4210731136382974,0.11776521452096221,-0.20315230314588117,nan
1741086033.374033,-0.3895329167794603,0.4747189642865171,0.025193036363992904,-0.2246298904543916,nan
1741086033.3779378,-0.30616311063988155,0.21144656718855528,-0.15326856735772382,-0.08260667345241715,nan
1741086033.3818426,0.03462262260112801,-0.12194803308899423,-0.31196596383198805,0.16957567955795042,nan
1741086033.3857474,0.40178613518126727,-0.2678034436413444,-0.30542735323489034,0.37975575928573696,nan
1741086033.3896525,0.5133027920653338,-0.1638528209612309,-0.0907494823005778,0.39745726755247357,nan
1741086033.3935573,0.24658095007813197,0.030653013509132448,0.20077540884973316,0.18224988809112544,nan
1741086033.3974621,-0.24868936195179117,0.09953451333633813,0.34848275880770707,-0.15973597024520578,nan
1741086033.401367,-0.6322588207543584,-0.02596889259156879,0.2273808081275891,-0.43821773401756764,nan
1741086033.4052718,-0.6075763178628413,-0.2040530730654109,-0.06730585459718791,-0.49612267063262167,nan
1741086033.4091766,-0.1462763316266453,-0.21594115552485588,-0.2806160409104268,-0.3021253105881603,nan
1741086033.4130979,0.4663920430832088,0.021452255708308093,-0.2107591583937041,0.03853030013042474,nan
1741086033.4170027,0.8132701051966237,0.3540862284042768,0.10212255242117639,0.35250055543912967,nan
1741086033.4209075,0.6357233287968332,0.49935319359669883,0.3850463720312414,0.4944501064481371,nan
1741086033.4248126,0.026284543409920855,0.283300355951868,0.3521747731324213,0.4125201319884681,nan
1741086033.4287174,-0.6214303127827495,-0.19132702879133076,-0.03866850972640694,0.1567010082425394,nan
1741086033.4326222,-0.8782356940310078,-0.595995570984674,-0.516021242979028,-0.15750353949977117,nan
1741086033.436527,-0.5750159965738565,-0.6193214898580646,-0.6903084581777619,-0.40064767655997335,nan
1741086033.4404318,0.0820389593614823,-0.21424554778721866,-0.36965452226095835,-0.47483774712437615,nan
1741086033.4443367,0.6581406827084513,0.34962729093704,0.26309482355767566,-0.34659717960387526,nan
1741086033.4482417,0.7911529675374988,0.6772070400910694,0.7694573462506197,-0.06385543110830486,nan
1741086033.4521465,0.4310858265547431,0.5393201991361413,0.7867402640284772,0.2530565839512818,nan
1741086033.4560513,-0.1476796668902065,0.04147600353489298,0.30778232893003477,0.456373207545678,nan
1741086033.4599724,-0.5573561790181458,-0.45729885603238046,-0.3186651808680204,0.4428197206088576,nan
1741086033.4638772,-0.5674308252168015,-0.6100233375075444,-0.6664513380369355,0.21625144340025867,nan
1741086033.467782,-0.23983714668659686,-0.32902603603205977,-0.5587296124058091,-0.10392623903864154,nan
1741086033.4716868,0.15369777360162581,0.16531111910605,-0.1753341806309951,-0.34611041488806943,nan
1741086033.4755917,0.34955660458912496,0.5176582026976121,0.1372709757871778,-0.3888663066093225,nan
1741086033.4794967,0.2726963478425219,0.49255212055619574,0.17736126499368657,-0.2347717140230451,nan
1741086033.4834015,0.05359163714693899,0.12449281475293858,0.044780788794930505,-0.0017649798227691513,nan
1741086033.4873064,-0.10789689836543864,-0.32882681638864697,0.00939944330725766,0.16395781388971112,nan
1741086033.4912112,-0.10717249218541403,-0.5735092697339499,0.21795567617287914,0.18959085414808077,nan
1741086033.495116,0.002385775989320335,-0.4635724807760356,0.5155219090846107,0.11532433101530189,nan
1741086033.4990208,0.08292551634008329,-0.06783293292019427,0.5601286649041645,0.04359878336413335,nan
1741086033.5029259,0.04392715870011829,0.3943919801295024,0.14453613039269647,0.04252207954236621,nan
1741086033.5068467,-0.08287172376990108,0.6800602997390238,-0.5602772809364002,0.08591124045285084,nan
1741086033.5107515,-0.18073794951661035,0.6327830154721173,-1.0768821113810898,0.08212139836551048,nan
1741086033.5146563,-0.1543084344286622,0.24170231172928439,-0.9796557832835753,-0.03201734426964946,nan
1741086033.5185611,-0.009652082383489927,-0.34757435501926914,-0.2530400086019985,-0.2145619252790031,nan
1741086033.522466,0.15525335306708052,-0.8670393664792183,0.6577596221028665,-0.33179044250103407,nan
1741086033.5263708,0.23198804228823006,-1.019278446139437,1.1651816872092453,-0.2604087027011823,nan
1741086033.5302758,0.1807968967852252,-0.6280703285899194,0.9778903874824241,0.0008294900128739915,nan
1741086033.5341806,0.04560789483891192,0.2137895474693272,0.30257849877395826,0.30566623250237207,nan
1741086033.5380855,-0.09412746840206698,1.1109760362264511,-0.3535345079838209,0.4526632017819682,nan
1741086033.5419903,-0.18184314484285058,1.5286859208798327,-0.6053759651059895,0.33165926571937,nan
1741086033.545895,-0.2028329231350177,1.109134816049581,-0.47371134943653415,0.011808658787196495,nan
1741086033.5498,-0.1622294401627153,-0.04414382200598345,-0.29101294038295755,-0.30106231822034785,nan
1741086033.5537207,-0.0619049169265912,-1.3351025436628692,-0.32783639907365647,-0.40964001019551566,nan
1741086033.5576255,0.09007320710696605,-1.9819207135930255,-0.49325967620221856,-0.2637280041920659,nan
1741086033.5615304,0.24885515161136582,-1.5088365310563159,-0.40464432698256153,0.012524778042589875,nan
1741086033.5654354,0.32692868634333994,-0.10233790784094723,0.2112956371318457,0.2222435833665444,nan
1741086033.5693402,0.24237811432256215,1.4406590715551397,1.1453936087250491,0.24333215799614435,nan
1741086033.573245,-0.005555475068176334,2.184332227784169,1.7362788483510547,0.1063305476261117,nan
1741086033.5771499,-0.3017696774853948,1.655943404178762,1.3511644387312571,-0.05209599811118296,nan
1741086033.5810547,-0.4691572247429028,0.17103549730261194,-0.04288427822334187,-0.11190662972556881,nan
1741086033.5849597,-0.385967782266949,-1.3562894191277826,-1.7082680058463384,-0.06146060266334777,nan
1741086033.5888646,-0.0793622276342267,-2.0049640042033583,-2.572780183527482,0.01562806830196902,nan
1741086033.5927694,0.2832703787903138,-1.4422668097281075,-1.9884551193231625,0.03685720873232288,nan
1741086033.5966742,0.5039701090472455,-0.11616499758333956,-0.2373193522234627,0.004532511362882158,nan
1741086033.600596,0.47996786867585145,1.0808748584993761,1.6275664080271193,-0.005527831216647171,nan
1741086033.604501,0.24893596829634942,1.4310783391391848,2.5078591509841606,0.058911039994872655,nan
1741086033.6084058,-0.06934576582580193,0.8547654229880237,2.005772641798275,0.14141570898897646,nan
1741086033.6123106,-0.3656571342935103,-0.09786946362608487,0.6259115986928708,0.10318551217114316,nan
1741086033.6162155,-0.5764015653422414,-0.6962621054366136,-0.6938860580009423,-0.13743488846156604,nan
1741086033.6201203,-0.641490864785824,-0.5750248488014651,-1.3125416783820776,-0.46875392822365014,nan
1741086033.624025,-0.4633272925812128,0.025901069869707492,-1.2736470829392308,-0.5995009249819053,nan
1741086033.6279302,0.037180647088361524,0.49074490681093796,-1.0623249882817545,-0.26497728477035903,nan
1741086033.631835,0.7721528961681715,0.3401906876538399,-0.9987350897809597,0.5034201860012499,nan
1741086033.6357398,1.3866335438900552,-0.36728418212931874,-0.8582529620089222,1.2730232301019804,nan
1741086033.6396446,1.3759149309826026,-1.0532471572216984,-0.10780969656081138,1.4189177775089392,nan
1741086033.6435494,0.4382130797582152,-1.052774045406021,1.4201944081679765,0.5694137170180228,nan
1741086033.6474712,-1.1575588092508116,-0.14966401704523366,3.045077760564012,-1.0092061236423628,nan
1741086033.651376,-2.5257147857232742,1.1857609041775972,3.4928570481709054,-2.4148373358643496,nan
1741086033.655281,-2.616644480322377,2.054027443651769,1.8408653762988565,-2.599876233671967,nan
1741086033.659186,-0.969456097156015,1.7288044452553524,-1.537259435801408,-1.0977217244833826,nan
1741086033.6630907,1.755098364623074,0.2007153013775941,-4.85240719934871,1.5003732304187243,nan
1741086033.6669955,3.9516579113616968,-1.7227370609060066,-5.888253866523881,3.7191840525076927,nan
1741086033.6709003,4.005489399663035,-2.8642880497575165,-3.5247036201151696,4.029411615403513,nan
1741086033.6748052,1.4494766464702025,-2.411388176747915,1.2806587164863672,1.8709682551541917,nan
1741086033.6787102,-2.478459661136965,-0.4734692683810838,5.852784006573581,-1.8060077903622551,nan
1741086033.682615,-5.401161246611688,1.9111943390170718,7.389766025420654,-4.927219537048897,nan
1741086033.6865199,-5.266656764003574,3.355608175843047,4.774222686708033,-5.479753807489889,nan
1741086033.6904247,-1.7924012701479384,2.9549513046242777,-0.6219582193015476,-2.8112026823366323,nan
1741086033.6943462,3.136929463715202,0.8595818740237489,-5.719364365269268,1.800904047637135,nan
1741086033.698251,6.513144840253635,-1.7754268397554163,-7.611718729263209,5.758330788063428,nan
1741086033.7021558,6.1021516275167285,-3.4525127375192723,-5.322126113868696,6.646104535152945,nan
1741086033.7060606,1.9594214743634133,-3.213854445337874,-0.31623212265193984,3.738803621483384,nan
1741086033.7099657,-3.491649538765264,-1.2083745217377657,4.496362739378411,-1.4506950428029686,nan
1741086033.7138705,-6.939434535980403,1.4031903462012418,6.556064400343633,-5.983425983859591,nan
1741086033.7177753,-6.282184031859653,3.14492688856305,5.076457118130609,-7.2203459408577855,nan
1741086033.7216802,-1.962102821462908,3.093648580231121,1.2736676331105263,-4.414667683610981,nan
1741086033.725585,3.3462748106418627,1.388996411467398,-2.5867337750006114,0.8233564633799719,nan
1741086033.7294898,6.469069983875771,-0.9089827465509603,-4.589852812324986,5.489699228732238,nan
1741086033.7333949,5.720008584695506,-2.496340472947675,-4.125828155376113,6.982498810003221,nan
1741086033.7372997,1.8432185858316579,-2.5940923075459494,-1.9324989145918947,4.616300810084801,nan
1741086033.7412212,-2.6359223256241817,-1.3386968865611213,0.601324995067827,-0.06486842855979197,nan
1741086033.745126,-5.117694061871355,0.40647707230224517,2.2995094472437128,-4.3188570344198,nan
1741086033.7490308,-4.503716507265462,1.64249150955487,2.7017230725072174,-5.880843780472529,nan
1741086033.7529356,-1.6466879629758764,1.8216785531132846,2.0378667111772324,-4.2201068960874695,nan
1741086033.7568405,1.4744724777174363,1.0755443197085777,0.8683853636386322,-0.649195090658202,nan
1741086033.7607455,3.1436984578908453,0.003073561171132663,-0.28535394523323454,2.666921613949572,nan
1741086033.7646503,2.873532089105303,-0.7725207495360183,-1.1154763893221313,4.070197328575663,nan
1741086033.7685552,1.3938595934296296,-0.9607212913726653,-1.509032528532423,3.2564125832393036,nan
1741086033.77246,-0.1345132131867854,-0.6731716359068857,-1.4609120012256267,1.1666654142780992,nan
1741086033.7763648,-0.9798791380862975,-0.2325540559031401,-1.0241598821261977,-0.8431170909498761,nan
1741086033.7802696,-1.1534521756093206,0.08865173314598673,-0.31291529302260485,-1.8885516816756927,nan
1741086033.7841747,-1.0799183558839938,0.21093970614615484,0.4891843651872538,-1.9125714258502589,nan
1741086033.7880957,-1.0385215242707468,0.21493424365817357,1.1555223285890426,-1.3979194031378217,nan
1741086033.7920005,-0.8976135832207371,0.2132851272006974,1.475904580740322,-0.8037179815740131,nan
1741086033.7959054,-0.33790547394658405,0.24919557102741813,1.3214631069062803,-0.22720741729238833,nan
1741086033.7998104,0.6929805423976274,0.2834167306573161,0.6944479324141904,0.4797405540113282,nan
1741086033.8037152,1.7476758991731498,0.24545322272268716,-0.24506006458388135,1.3307755383501256,nan
1741086033.80762,2.116129310258404,0.08959509143777071,-1.1896394785786577,1.972750161006376,nan
1741086033.8115249,1.366918259202647,-0.17630444665433598,-1.759082342484847,1.8627104459885833,nan
1741086033.8154297,-0.24508510310831888,-0.48186727399481083,-1.6492906021579552,0.7380019130793651,nan
1741086033.8193345,-1.8535685196207903,-0.6952806783544491,-0.8080258232125159,-1.0212646563138823,nan
1741086033.8232396,-2.5157771393998694,-0.6535434709327056,0.46827582722319644,-2.4883773444843973,nan
1741086033.8271444,-1.8312062972257088,-0.24870677875961336,1.6160210479543748,-2.744665589727741,nan
1741086033.8310492,-0.20407391286503276,0.4515895114267703,2.0673196631460202,-1.5178641137197502,nan
1741086033.8349702,1.4261383603536681,1.1421547740302502,1.5647603127354008,0.568472535035384,nan
1741086033.838875,2.1825856712004446,1.3807960016710015,0.33258952676218434,2.343468373381982,nan
1741086033.84278,1.763295720941689,0.8565680777725851,-1.0231126000265118,2.8149404693773175,nan
1741086033.846685,0.5482108661214699,-0.3256493950885668,-1.842356365390974,1.7803372546111642,nan
1741086033.8505898,-0.7162087997159593,-1.5766895915706383,-1.7698922921813787,-0.08451748788045733,nan
1741086033.8544946,-1.39697283627382,-2.1032781265157157,-0.9242022922275616,-1.6938176354149348,nan
1741086033.8583994,-1.2983135792700442,-1.4210188879628503,0.21474780581431643,-2.2334095629533275,nan
1741086033.8623042,-0.6662125136707462,0.23618230414681873,1.104044524245235,-1.5972378570926262,nan
1741086033.8662093,0.05692898843301301,1.9444538432080414,1.4192698457847335,-0.33136418384568184,nan
1741086033.870114,0.5212354529068359,2.618905462584737,1.1567226954130334,0.8040710745534341,nan
1741086033.874019,0.6228083528167639,1.7351863729707233,0.5400204486716333,1.3091112964609284,nan
1741086033.8779237,0.47415448610171834,-0.2550338045839389,-0.15469061796614456,1.1465695959517743,nan
1741086033.8818445,0.26553049114340477,-2.1484182610146267,-0.7196135446508106,0.6101641331706642,nan
1741086033.8857496,0.1288131793985413,-2.7520568143305084,-1.0321626171771474,0.03800190176879226,nan
1741086033.8896544,0.07635326868740717,-1.6808632807048691,-1.020701281202143,-0.3864954178311474,nan
1741086033.8935592,0.02571459088281079,0.3699441457127615,-0.6613440932463314,-0.6361454979819758,nan
1741086033.897464,-0.11979094552841064,2.0857946339996687,-0.027512127461149317,-0.7213830467578426,nan
1741086033.9013689,-0.38053333803792283,2.4161582043167713,0.6688761419092418,-0.6101389054930348,nan
1741086033.9052737,-0.6497111226342127,1.2627515160315659,1.1251748872637983,-0.2697148318730105,nan
1741086033.9091787,-0.7245322331457705,-0.5057133987487713,1.096554830039575,0.2285782416796518,nan
1741086033.9130836,-0.42732619529029575,-1.7026341620906271,0.5586544676058186,0.6735102154531403,nan
1741086033.9169884,0.23830514327513427,-1.6512607017432952,-0.24031543850745332,0.816557938110933,nan
1741086033.9208932,1.0050831262038935,-0.5949351037252694,-0.8982686817820658,0.5484986339064752,nan
1741086033.924798,1.4298519183197345,0.576561789841659,-1.0868458356953803,0.003610017757034007,nan
1741086033.9287186,1.1472977063752088,1.0373592375472118,-0.7415136396687768,-0.5078326298708896,nan
1741086033.9326236,0.14964058658384669,0.6180215748500408,-0.08861964867917338,-0.7006709844785303,nan
1741086033.9365284,-1.1122238052145634,-0.15179258675487453,0.504507560367385,-0.5010994026784809,nan
1741086033.9404333,-1.9278481575106423,-0.5402612933542251,0.7517090403849475,-0.07965647749174966,nan
1741086033.944338,-1.7483797024745862,-0.22764132322028421,0.597614582371994,0.2862808236764123,nan
1741086033.948243,-0.5698492426755146,0.45193588894421827,0.21085642980845526,0.4073887651937935,nan
1741086033.952148,0.9974668018055588,0.8161990687365321,-0.15311870533669686,0.2875143135151434,nan
1741086033.9560528,2.0613836495797067,0.42473510813318543,-0.3153714695777636,0.07549552596792226,nan
1741086033.9599576,1.9932855175360882,-0.5275630173974161,-0.2595417617260095,-0.07475042270299026,nan
1741086033.9638624,0.8320075033896568,-1.3298724334661365,-0.10332141371401214,-0.11250642451739953,nan
1741086033.9677672,-0.7319443358529212,-1.2968877618503967,0.005511953064479885,-0.08908568334184301,nan
1741086033.971672,-1.7911678298602929,-0.3134656312803573,-0.00796783420521607,-0.07298507613708254,nan
1741086033.975594,-1.7874638065201593,1.0364743555657776,-0.10538382619374972,-0.07466900474693763,nan
1741086033.9794989,-0.8331032410965775,1.8581591289425088,-0.17261166487797638,-0.05085721361772828,nan
1741086033.9834037,0.4140959199797065,1.567528118433187,-0.10566515389812517,0.0268322293410203,nan
1741086033.9873087,1.2125628723947297,0.2986695661474724,0.1084334402413174,0.1180075217659516,nan
1741086033.9912136,1.2044026033669533,-1.183351413336646,0.36552925624636207,0.13725131738279847,nan
1741086033.9951184,0.5782970236543066,-1.9868618576649386,0.49488873167302133,0.03901871524391627,nan
1741086033.9990232,-0.14625445703956805,-1.6571403540826517,0.3654922232390063,-0.11891682958421906,nan
1741086034.002928,-0.5189984069375675,-0.428547490925283,-0.01246568001423208,-0.20431886468999957,nan
1741086034.0068328,-0.44276567169654785,0.9670007636563248,-0.4618398083532988,-0.11978850815301167,nan
1741086034.010738,-0.15934093825402862,1.7684537931193525,-0.7231623961178911,0.09913840009797083,nan
1741086034.0146427,0.007511384020109203,1.6128800579088016,-0.6127333766073894,0.2904672048493297,nan
1741086034.0185475,-0.07367048175237947,0.6777054083719949,-0.15562018404145897,0.28590876475119154,nan
1741086034.0224693,-0.26113004111308646,-0.49290764511094237,0.4054454860728719,0.05318412137368143,nan
1741086034.026374,-0.2926749861251015,-1.3197365229805063,0.7490050892853028,-0.25967868531950117,nan
1741086034.030279,-0.029392898547449847,-1.4691885469763244,0.6792243891136899,-0.4247156604753614,nan
1741086034.034184,0.40999032882909087,-0.9567819290640444,0.2554845197142348,-0.30736945820575057,nan
1741086034.0380888,0.7254552536310969,-0.07479885769628042,-0.24955037158538262,0.02368570863403764,nan
1741086034.0419936,0.6574033420288736,0.7729464642637335,-0.5382913330052772,0.341147340900662,nan
1741086034.0458984,0.18376814495872484,1.2398362256273927,-0.48717216967723626,0.4272620778582289,nan
1741086034.0498033,-0.449691898211298,1.155750624048625,-0.20993975006596793,0.23527512166087058,nan
1741086034.0537083,-0.8815681267646515,0.5771972915920927,0.056893929905821546,-0.08160963878951999,nan
1741086034.0576131,-0.8597106615048608,-0.2385086128981156,0.14914071441892707,-0.29402722023857203,nan
1741086034.061518,-0.39073679245019277,-0.9332163779784276,0.09099856610564482,-0.2723947935923576,nan
1741086034.0654228,0.27181238358018023,-1.1972120673509867,0.04092012325378819,-0.07580354119449384,nan
1741086034.0693443,0.7793787365206604,-0.9109308757398936,0.12110784445837304,0.111820732775767,nan
1741086034.0732493,0.8808509067942154,-0.2089678138447716,0.2850948770135391,0.1398946515163808,nan
1741086034.0771542,0.5473203463521434,0.5760370335905928,0.3466312897822151,0.011938369141977335,nan
1741086034.081059,-0.028385277550206037,1.0711271089673244,0.15252529314155303,-0.12761831415815444,nan
1741086034.0849638,-0.54443425173399,1.0456967618397834,-0.24968117967995707,-0.12485479844091926,nan
1741086034.0888686,-0.7495987001875094,0.5248892662613244,-0.6054088510855677,0.04600690489572157,nan
1741086034.0927737,-0.5682252321050096,-0.22531511304070825,-0.633634794184612,0.2535476105262457,nan
1741086034.0966785,-0.12961117325094745,-0.8333030730205664,-0.25747069358665275,0.3129795873753334,nan
1741086034.1005833,0.3118197647550871,-1.008068350156501,0.3072998174761232,0.13875345491257182,nan
1741086034.1044881,0.5228721599117191,-0.6827470251148912,0.69189462492873,-0.1770626242212587,nan
1741086034.108393,0.42259435121344124,-0.04367363011445593,0.6435951555206552,-0.4239212434823242,nan
1741086034.1122978,0.11970470690824815,0.5702421532708781,0.21417892405974226,-0.4245331808377371,nan
1741086034.1162193,-0.16863669846428417,0.8475626220812797,-0.2834312872507706,-0.1638840419796477,nan
1741086034.120124,-0.26548968438896065,0.6696741283851401,-0.5166645082298673,0.19949475911485476,nan
1741086034.124029,-0.15002320042903697,0.16981139000404935,-0.37969964797512046,0.4440516625689228,nan
1741086034.127934,0.04114369469723837,-0.3512763754158541,-0.049890312931851116,0.4329072650521999,nan
1741086034.1318388,0.12853540903831195,-0.6069350523416731,0.18227256701388897,0.19380448157265132,nan
1741086034.1357436,0.0346169231633195,-0.49380336132333535,0.15989151890695247,-0.11623383660997195,nan
1741086034.1396484,-0.15330194652677942,-0.1406953449282514,-0.024961712720857995,-0.3237718172553983,nan
1741086034.1435533,-0.2539696543501766,0.1951053345825273,-0.13783029382582593,-0.3435602130185817,nan
1741086034.147458,-0.1439925067061199,0.311834790876573,-0.029105894609849206,-0.20832129195245894,nan
1741086034.1513631,0.1301966041343068,0.19591165087515833,0.221479151805712,-0.02005208531412234,nan
1741086034.155268,0.37441697737075025,0.0071356051335971435,0.3717221984145919,0.12679777725883412,nan
1741086034.1591728,0.3925033340487678,-0.06870863746047194,0.23727583397627233,0.19250463110698834,nan
1741086034.1630938,0.1440408257394072,0.019658805686868036,-0.1290873418955199,0.18766829190994597,nan
1741086034.1669989,-0.2127872564467886,0.14834102623613035,-0.4612843663554283,0.13890523738223784,nan
1741086034.1709037,-0.4328504436760738,0.13495496061433748,-0.4938684636343555,0.06268298294191574,nan
1741086034.1748085,-0.36723191685973483,-0.08243579388034886,-0.18637994391877513,-0.032875199310104186,nan
1741086034.1787133,-0.07538536879611593,-0.36019297787714993,0.2350944462746448,-0.12954579393963828,nan
1741086034.1826181,0.22266258092542435,-0.44527315279680246,0.45864238506145694,-0.1906595501464185,nan
1741086034.186523,0.3171730383063585,-0.18955178137825074,0.33903137035325,-0.17787217421407725,nan
1741086034.190428,0.1679698657385238,0.2918913673563135,0.009004248084044715,-0.08218341656299723,nan
1741086034.1943328,-0.07314396268845678,0.6653211939399236,-0.24351059052768714,0.057923223658351376,nan
1741086034.1982377,-0.19252883822487468,0.6166971145635222,-0.22473651044055862,0.1709347165528107,nan
1741086034.2021425,-0.09128331924755621,0.11014487745816628,0.0046717899792418326,0.19415888207476364,nan
1741086034.2060473,0.13411066106506722,-0.5433583051717195,0.19574991206563006,0.11532951538821137,nan
1741086034.2099683,0.2715280893546653,-0.8836331335944769,0.14342141430061744,-0.016159332319875062,nan
1741086034.2138731,0.16905415819394434,-0.6348688806754456,-0.12137460141127608,-0.11883039533704656,nan
1741086034.217778,-0.13368824211527505,0.07311852510606497,-0.3519879398633094,-0.13183832240343088,nan
1741086034.221683,-0.4236811209229742,0.7728897559699119,-0.30524304033581223,-0.056022461167039385,nan
1741086034.2255878,-0.4697094030930132,0.9803076858991188,0.031299013534044844,0.04563382336410466,nan
1741086034.2294927,-0.19687490074654115,0.5387582940887252,0.40760126366464616,0.09112371807122878,nan
1741086034.2333975,0.2498319812120976,-0.2655228910720575,0.5120958404337276,0.03916327358913688,nan
1741086034.2373023,0.5976067181263314,-0.9014577933457625,0.2385008260541339,-0.07558567648489987,nan
1741086034.2412074,0.6245355566923086,-0.9588584109498421,-0.2121819749994464,-0.16012816591974668,nan
1741086034.2451122,0.29991483347795656,-0.4187349046997204,-0.48943523699093033,-0.12746651854288865,nan
1741086034.249017,-0.20217711485778167,0.3552773984096341,-0.38325918151926597,0.03339705614828495,nan
1741086034.2529218,-0.6121724433353358,0.8792768050242845,-0.0008529322696827443,0.2332965033407094,nan
1741086034.2568443,-0.7175369306287467,0.8649817018896421,0.32431244535071874,0.3303683076741358,nan
1741086034.260749,-0.46762063685485156,0.37308927290264043,0.31821547789398835,0.2258497750576748,nan
1741086034.264654,0.014252919226503756,-0.27293884270971586,0.004108275048786645,-0.0548865798794856,nan
1741086034.2685587,0.4988342728062773,-0.716258934214275,-0.31479384033677105,-0.35818897630054813,nan
1741086034.2724636,0.75591054910312,-0.7663979064330235,-0.3195649886798725,-0.48947587190762804,nan
1741086034.2763684,0.6538776245433845,-0.456360985805649,0.03586237476812548,-0.3415029115095308,nan
1741086034.2802734,0.22295383736308405,0.031664706589479945,0.46324863866661076,0.023145888506492837,nan
1741086034.2841783,-0.34268511653212447,0.48077453108841633,0.5702814895044946,0.39830334457773536,nan
1741086034.288083,-0.7594582426545895,0.717561933185399,0.19824651964232648,0.5598044485644162,nan
1741086034.291988,-0.7919634485213971,0.6463750949230544,-0.4173205270078504,0.4095048625805292,nan
1741086034.2958927,-0.39382011474227807,0.27366721467817334,-0.8094950802781096,0.0394496556353787,nan
1741086034.2997975,0.23642057288657972,-0.2670064608558923,-0.646507579546243,-0.3291098029896519,nan
1741086034.3037157,0.7437206845714599,-0.7288577288536165,-0.007789235831101291,-0.4898661610210543,nan
1741086034.3076205,0.8214339860170431,-0.8492134761411928,0.6593858940588306,-0.3787460043089818,nan
1741086034.3115253,0.41256899846681927,-0.5090472069057503,0.8762642360681948,-0.09879675755675864,nan
1741086034.3154304,-0.23399851018479492,0.1491395892648978,0.4979927145913655,0.1668119184911946,nan
1741086034.3193352,-0.7103636295653092,0.7592821933809044,-0.18103303085288744,0.28318986718678296,nan
1741086034.32324,-0.7159963132064824,0.9422320973267442,-0.6624873221210857,0.2391671842606127,nan
1741086034.3271449,-0.2634933625719556,0.5640530220797165,-0.6289037732999188,0.12325021936158437,nan
1741086034.3310497,0.32707536967191686,-0.14800449203388175,-0.17208493500638378,0.03282670625978428,nan
1741086034.3349547,0.650188612439415,-0.7391814425527845,0.308032564474857,-0.003233292137291171,nan
1741086034.3388596,0.49915493594841975,-0.8346853915727912,0.43933683748243324,-0.028194062301501455,nan
1741086034.3427644,0.007679188488434277,-0.4023991208721702,0.16999193024697243,-0.09381252710798157,nan
1741086034.3466692,-0.4547480740779637,0.22829061050786026,-0.214528018483574,-0.19275010612109775,nan
1741086034.350591,-0.5557178422449459,0.6120756999844456,-0.3500952292041123,-0.250546211700353,nan
1741086034.354496,-0.2386643105393903,0.515007232710434,-0.10539262416567007,-0.18647061607409834,nan
1741086034.3584008,0.2469556192733141,0.07477120340614161,0.31090039248491985,0.008554996239667594,nan
1741086034.3623056,0.5398597032465259,-0.3264084627492293,0.5286808594266956,0.2450575380894386,nan
1741086034.3662105,0.4341881667033983,-0.3722751707165202,0.32697375893489833,0.38588058424621846,nan
1741086034.3701153,0.020190030948630727,-0.05974873590147952,-0.17946559031281248,0.33823335618639133,nan
1741086034.3740203,-0.39780561072890136,0.3109749716079899,-0.6252942752809727,0.11769621482232437,nan
1741086034.3779252,-0.5319676393440347,0.39107475241941564,-0.676932081257108,-0.16173501180324706,nan
1741086034.38183,-0.3114587099307132,0.07565279495799979,-0.28462386227295544,-0.36002936787201234,nan
1741086034.3857348,0.08923606628303195,-0.4009756904783374,0.28848515431757843,-0.3908615614097677,nan
1741086034.3896396,0.39671019949516906,-0.644105644127192,0.6691300443183337,-0.2567417047191775,nan
1741086034.3935444,0.43447648306011616,-0.41139696952217214,0.6397810204357592,-0.028651880667629984,nan
1741086034.3974676,0.22284431083020395,0.18488085554824477,0.26651437466561084,0.2003673002615664,nan
1741086034.4013724,-0.07154114939786946,0.7434514490382078,-0.18662114052365994,0.3512345147757162,nan
1741086034.4052775,-0.2724121584779507,0.8590592166571346,-0.46314895587832355,0.3727930169957799,nan
1741086034.4091823,-0.30233557014091206,0.4151701349417272,-0.4710962572609126,0.2481714862229081,nan
1741086034.4130871,-0.19495893279693363,-0.3274550066081296,-0.2894265316148529,0.007785498407386382,nan
1741086034.416992,-0.03288642486016857,-0.9038946065508991,-0.05756560799307015,-0.26050945357276317,nan
1741086034.4208968,0.11569038363298306,-0.9515294307754859,0.1344066098115141,-0.43088890677090075,nan
1741086034.4248018,0.21221994948083908,-0.4388298800400765,0.267031709738299,-0.4002493599970977,nan
1741086034.4287066,0.2286043666101195,0.3264349594510942,0.3369374559602983,-0.1611545503957839,nan
1741086034.4326115,0.1420263077260359,0.8974032284397985,0.31054109955309134,0.16995988643652357,nan
1741086034.4365163,-0.0346247301215597,0.9566143570832617,0.14862471623538678,0.4074991609191375,nan
1741086034.440421,-0.22120908971617612,0.4889984017795817,-0.12169391903802092,0.4119058322100678,nan
1741086034.4443429,-0.293101521740503,-0.22813937050971178,-0.3731354405220219,0.18738261880907228,nan
1741086034.4482477,-0.1686459184315695,-0.7937073148744404,-0.4418768236989322,-0.11505961575637982,nan
1741086034.4521525,0.10180325023706037,-0.9061826719842933,-0.25435657349861884,-0.30068147915964727,nan
1741086034.4560573,0.3355666663246039,-0.5224832576841618,0.09013367646032229,-0.26847923942198076,nan
1741086034.4599621,0.33688311779560187,0.12589917355302285,0.3673540465784465,-0.0790260700683945,nan
1741086034.4638672,0.060080186981077414,0.6657723734541657,0.387182252549322,0.10108464317496557,nan
1741086034.467772,-0.31891273091712474,0.7954930103594952,0.14324545081986828,0.13511559414214333,nan
1741086034.4716768,-0.5057100907971338,0.46201221330506337,-0.17275077887624007,0.02359157697710165,nan
1741086034.4755816,-0.3105794717841973,-0.1063063661197434,-0.3145992930747348,-0.10401866081798276,nan
1741086034.4794865,0.17682866277462145,-0.543129711645399,-0.17551666461560847,-0.10628296367897774,nan
1741086034.4833915,0.6154061482837525,-0.5837391357186732,0.12294635070651762,0.042415128844593995,nan
1741086034.4872963,0.6498953417974247,-0.2435915794548848,0.323571417309366,0.22221770084199363,nan
1741086034.4912176,0.19183535346952105,0.19623765132902332,0.23930648154167108,0.2648067017077467,nan
1741086034.4951224,-0.477126821605692,0.3992905899264753,-0.09003600418599796,0.09888338544277575,nan
1741086034.4990275,-0.8812391154139232,0.2319978372232391,-0.4174846945908997,-0.17802041734270013,nan
1741086034.5029323,-0.6945432173922493,-0.1297986780579467,-0.474441231407194,-0.3658430550184918,nan
1741086034.5068371,0.0005180779085888837,-0.3420335252138135,-0.18025313341085444,-0.31728501653658076,nan
1741086034.510742,0.7447270064728596,-0.1824343588795042,0.28629321398040614,-0.05731996778908738,nan
1741086034.5146468,1.0172746123715206,0.24308478539973236,0.6096748855382211,0.23156892376157387,nan
1741086034.5185516,0.6108459021772709,0.5616446913380121,0.5625460297150446,0.3487403687702127,nan
1741086034.5224566,-0.21058898751297883,0.43593319525477175,0.16585254588169748,0.22815635852515384,nan
1741086034.5263615,-0.8923409958538888,-0.12832528333194168,-0.329895954045909,-0.017485755958326386,nan
1741086034.5302663,-0.9788613110359831,-0.7356819207207491,-0.6208795102260577,-0.19429759150299494,nan
1741086034.534171,-0.4293273094644815,-0.8850263992197531,-0.5506084479773032,-0.18414371036955038,nan
1741086034.5380924,0.3667947964862738,-0.37861322001083075,-0.19496537105665612,-0.032233378967915095,nan
1741086034.5419972,0.8760082896050366,0.47695114326239113,0.21370759884877935,0.10339384436468291,nan
1741086034.545902,0.792086457191255,1.0666905195478504,0.4517260831950173,0.09371003304056026,nan
1741086034.5498068,0.22515941420251134,0.9324439273456406,0.4349556871912758,-0.04950624242708504,nan
1741086034.5537117,-0.4111329412251252,0.144770079016379,0.23530292327934552,-0.18565800688126852,nan
1741086034.5576167,-0.7090085144819894,-0.7286827876721413,-0.003886177049237444,-0.16946930088328976,nan
1741086034.5615215,-0.5360827312980573,-1.0533777112620608,-0.17263311014286137,0.01862208678741071,nan
1741086034.5654263,-0.08155734328761785,-0.6223735966050965,-0.2424726961791626,0.24654744330947106,nan
1741086034.5693312,0.32327149366049707,0.18610851679171533,-0.2411894714501022,0.3324330997288971,nan
1741086034.573236,0.45028917576006666,0.7237129850091355,-0.19758582498326574,0.1914100437228502,nan
1741086034.5771408,0.30151395362477595,0.605587458773549,-0.11292371663862204,-0.09217371655676244,nan
1741086034.5810459,0.0492633123036638,0.019161978868413327,0.020487351594115587,-0.3253607427099601,nan
1741086034.584967,-0.1289525905417602,-0.4553967302828848,0.18087165597587257,-0.35093145700951145,nan
1741086034.5888717,-0.17485209587301886,-0.3655384993078825,0.30351398140427815,-0.16137143258927997,nan
1741086034.5927765,-0.14669234156541358,0.1990541816899275,0.3125490093120216,0.10362541951628645,nan
1741086034.5966814,-0.12183874111640353,0.6684482693250017,0.17641455643413834,0.2676063549895192,nan
1741086034.6005862,-0.11035728127637998,0.4993588827324909,-0.05748436999568852,0.2448424382925772,nan
1741086034.6044912,-0.058307803611148,-0.300900151264125,-0.27929087379880696,0.08813884061853569,nan
1741086034.608396,0.07323879882755022,-1.1053348147978672,-0.37680218990222075,-0.06997457945940058,nan
1741086034.6123009,0.23860263576046026,-1.1570342551466688,-0.30007859300098116,-0.12556702704223832,nan
1741086034.6162057,0.3211293473502542,-0.2359695486905442,-0.08912965107919749,-0.07313950695191218,nan
1741086034.6201105,0.22506127303778664,1.0678721757639356,0.1507945027886464,0.010049708067368551,nan
1741086034.6240156,-0.03279710007805499,1.7531059658541566,0.30809640791466436,0.03986639288525213,nan
1741086034.6279204,-0.313644068929273,1.1997793234346377,0.3212060523272255,-0.006545071850964305,nan
1741086034.631844,-0.4438743701903794,-0.281170660753703,0.20188035386331776,-0.08152200895402888,nan
1741086034.6357489,-0.3339642085400637,-1.6230444879689172,0.01800758770319829,-0.11367223657881632,nan
1741086034.639654,-0.039589353393384506,-1.8101956149558176,-0.1479215801069096,-0.06539567141243448,nan
1741086034.6435587,0.2769896494769248,-0.6905379023758044,-0.23818063494886896,0.04318929796157322,nan
1741086034.6474636,0.4508351340124898,0.8735955404321106,-0.23704059057204735,0.1532628432449596,nan
1741086034.6513684,0.40667188507680946,1.6710808948533724,-0.162803962900243,0.20537469838363046,nan
1741086034.6552732,0.18326900465796625,1.1116040365726076,-0.047367405221163277,0.16781804005961348,nan
1741086034.659178,-0.10856507429427031,-0.28697430281232067,0.07906314575744681,0.04564041835380914,nan
1741086034.663083,-0.34942588873003055,-1.313310985499825,0.1890272581760891,-0.12173943866765616,nan
1741086034.666988,-0.45370838662619584,-1.0679724002227517,0.25085418807781634,-0.2676500012764461,nan
1741086034.6708927,-0.38314325382398423,0.25673715046533446,0.22956087290425425,-0.3157889877971003,nan
1741086034.6747975,-0.15062616720542887,1.4879845238544327,0.10589850977341819,-0.215608152261178,nan
1741086034.6787183,0.1726631747521595,1.4288539786765941,-0.09499246970487434,0.015936461935480907,nan
1741086034.6826231,0.46043221051101124,-0.09449187082712533,-0.2911688364618355,0.2790122846003972,nan
1741086034.686528,0.5696653043662216,-1.9699559777929077,-0.3715367224806163,0.430328812701204,nan
1741086034.6904328,0.414817464753058,-2.6005390448094268,-0.2608394741986301,0.3677976131233756,nan
1741086034.6943376,0.03667457661645364,-1.1903627003903958,0.015700269174500896,0.10662604141566165,nan
1741086034.6982427,-0.3920728226652215,1.498324076654675,0.32008229442910774,-0.21510498501924558,nan
1741086034.7021475,-0.648748005156024,3.5710769669607765,0.46795481243567605,-0.417999272797661,nan
1741086034.7060523,-0.589412578320266,3.3618448332750095,0.3449351654200523,-0.39807099367156934,nan
1741086034.7099571,-0.2400377792735239,0.7300596156818185,-0.002313650821665226,-0.19230660932621008,nan
1741086034.713862,0.21588721493548504,-2.706038319906263,-0.3726660326928789,0.05834828037567832,nan
1741086034.7177668,0.5477186843005114,-4.630105538343352,-0.5272716724528628,0.21875022674462125,nan
1741086034.7216718,0.6102356227779404,-3.6457619868138282,-0.3486484408804279,0.25173290998709374,nan
1741086034.7255936,0.4099977844198034,-0.2853654860211862,0.06688172416523448,0.21743172006299402,nan
1741086034.7294984,0.07148447215387094,3.3228133846586205,0.4570651366869016,0.18667458045471552,nan
1741086034.7334032,-0.25526318691384436,4.890319209157326,0.5610930742553779,0.1546325819588517,nan
1741086034.737308,-0.469126818461395,3.4862293664597375,0.29735772751629524,0.044071783549480305,nan
1741086034.741213,-0.5298196614934622,0.09014949855496864,-0.17287300494359978,-0.1949388621747756,nan
1741086034.745118,-0.4272031709344701,-3.14594740599564,-0.545912523202113,-0.4808652388743516,nan
1741086034.7490227,-0.16425815546923175,-4.3438439238772295,-0.5759808346739944,-0.6069859677870575,nan
1741086034.7529275,0.21580346466651232,-3.033504016318586,-0.239118443584329,-0.3872030963394837,nan
1741086034.7568324,0.5896446987852936,-0.26590764480358237,0.2516836598643022,0.15995883497706045,nan
1741086034.7607374,0.7672071188304903,2.2381336566150516,0.5888456766852135,0.7513845163723119,nan
1741086034.7646422,0.5899378778915515,3.2111905439306963,0.5701926702943945,0.9898010694638275,nan
1741086034.768547,0.06328098185904787,2.471544858227949,0.22102214144683457,0.6443331829828961,nan
1741086034.7724688,-0.5842382134743846,0.7653426997738316,-0.2372279237265046,-0.1443557380360889,nan
1741086034.7763736,-0.9935489637205656,-0.8949487363394759,-0.5387175778446774,-0.9105372948767266,nan
1741086034.7802784,-0.8892527609294615,-1.8413713232688949,-0.5353256239259382,-1.1590806293676275,nan
1741086034.7841833,-0.2787314665787653,-1.939996129760245,-0.265090349736416,-0.7111470655186611,nan
1741086034.788088,0.5148966727699927,-1.3953073885150482,0.10094304862087182,0.15568266426066937,nan
1741086034.791993,1.0331025705399952,-0.47622779997319215,0.3773845884015352,0.8882561924444533,nan
