timestamps,TP9,AF7,AF8,TP10,Right AUX
1741085458.5951896,0.45146184784280735,0.5876457168109684,0.20634791210628342,0.19061610115637098,nan
1741085458.5990934,0.18709695768557869,0.11782004523549458,-0.06593408754817034,-0.06901777195882171,nan
1741085458.6029975,-0.19575251083593234,-0.35529477794170483,-0.17550820618323026,-0.27194183949003325,nan
1741085458.6069014,-0.46330330039854556,-0.52969856138184,-0.032988906738806764,-0.25373859871344107,nan
1741085458.6108055,-0.44227610867166883,-0.3205349686475786,0.21787981581650584,-0.022220962802342946,nan
1741085458.6147094,-0.14321274670839662,0.0893415540397535,0.32820445876054916,0.2428971304169353,nan
1741085458.6186135,0.23932386722197083,0.38361293301127747,0.15551656429559632,0.3279296125343028,nan
1741085458.6225173,0.45681348547878964,0.3397144451125043,-0.2113190257432673,0.15550420826686473,nan
1741085458.6264215,0.3756853606144249,-0.01010617936451097,-0.51199178650268,-0.14867537411647494,nan
1741085458.6303253,0.0631741004302805,-0.39903670710042227,-0.5111775824460297,-0.3499939755909762,nan
1741085458.6342294,-0.26887843959303226,-0.5155927262050316,-0.17845253374068193,-0.2891869078650589,nan
1741085458.6381333,-0.41486594155020623,-0.23092653610791755,0.2849302851287283,-0.01072798404664056,nan
1741085458.6420636,-0.30750914808762475,0.29693274840188094,0.5885643933464635,0.269433584195342,nan
1741085458.6459675,-0.04134868123419492,0.7178335228595267,0.5534660433501345,0.3340595137330624,nan
1741085458.6498716,0.2134961170614272,0.7216054130796958,0.22294817853007626,0.1378817588389437,nan
1741085458.6537755,0.32907066919335887,0.2516438128226643,-0.18724172365236935,-0.155837385837835,nan
1741085458.6576796,0.2814575124594923,-0.44298391117812447,-0.4471633554831998,-0.306681340989599,nan
1741085458.6615834,0.12879995464665497,-0.9519742433661766,-0.45482102090682086,-0.19196754924123388,nan
1741085458.6654875,-0.05224869355896342,-0.9526363138131217,-0.267017052397226,0.09210995895886327,nan
1741085458.6693914,-0.20833016268560223,-0.40809392882348444,-0.02070587972611828,0.3063031244786083,nan
1741085458.6732955,-0.30478522641091454,0.403635490913512,0.17273950154828055,0.26203175093530656,nan
1741085458.6771994,-0.30428832030966163,1.0428580305929447,0.275657546652185,-0.022049728693680246,nan
1741085458.6811035,-0.17361176616200552,1.1519029258607014,0.2969564630918303,-0.32757719359150295,nan
1741085458.6850076,0.0739553389602752,0.6524080272420569,0.2419204843385715,-0.4048372728122667,nan
1741085458.6889398,0.3436874917755567,-0.20862657580467403,0.1016344788595552,-0.17051373776686254,nan
1741085458.692844,0.4848968580962226,-0.9854941071302847,-0.10804212656009293,0.22067891882911359,nan
1741085458.696748,0.3819875347134495,-1.2662843360189078,-0.30884817270262127,0.48740247762018785,nan
1741085458.700652,0.050698777822209426,-0.892060429484882,-0.38217414091966406,0.4307469066027406,nan
1741085458.704556,-0.3425382953815241,-0.04860784369833171,-0.25287983638822487,0.0814349914421942,nan
1741085458.7084599,-0.5706207491325653,0.8227791901267639,0.03135054560264052,-0.32419182477113045,nan
1741085458.712364,-0.4919880343819088,1.2572362977098654,0.3044693144425252,-0.5167716486741981,nan
1741085458.7162678,-0.14878107724015535,1.0219044349690631,0.38732592546613803,-0.3827152445315466,nan
1741085458.720172,0.2577798291032668,0.25187004856902373,0.22188248748152195,-0.03173182342471847,nan
1741085458.7240758,0.4992949718050111,-0.6202134556149569,-0.074166427093853,0.2967329226677914,nan
1741085458.72798,0.46409769743973067,-1.1109526753383625,-0.28653064574085885,0.40769545357153075,nan
1741085458.7318838,0.21222843985819345,-0.9682547533538851,-0.26458573006870084,0.273882657967425,nan
1741085458.7358158,-0.08807147803694423,-0.315657585893587,-0.03873350968128358,0.02686693192347963,nan
1741085458.7397199,-0.28279394356228715,0.43458211877042074,0.20169075058881078,-0.16007979752235085,nan
1741085458.7436237,-0.3184335800426161,0.8457392528549154,0.2573451943096027,-0.19783476382304882,nan
1741085458.7475278,-0.23879778184325212,0.7258971272901091,0.07840175443646208,-0.1233940192337913,nan
1741085458.7514317,-0.11711570956361458,0.22589783928768972,-0.1933740686019297,-0.0405779480329837,nan
1741085458.7553358,0.005353527524193633,-0.2919061045744271,-0.33551442924103264,-0.020938322789595332,nan
1741085458.7592397,0.1237065410489831,-0.5126020982051384,-0.2213184371409369,-0.04866991616757296,nan
1741085458.7631438,0.22877890794143638,-0.3688433349902992,0.07854116808218461,-0.048592569887504926,nan
1741085458.7670476,0.2774524795095025,-0.04739928937175166,0.34930193154871814,0.033990095437762324,nan
1741085458.7709517,0.21522811619275845,0.184119435422882,0.39608654229613655,0.1721124763619469,nan
1741085458.7748556,0.03524814214724144,0.18523761780238593,0.18797436028891953,0.26648595206592784,nan
1741085458.7787597,-0.18586353264226674,0.025614554273055663,-0.1278732624513552,0.21945539692828547,nan
1741085458.7826915,-0.32160296851296055,-0.1072840186715203,-0.3446767609555106,0.01706726533462154,nan
1741085458.7865956,-0.2835010119923074,-0.08385248212764315,-0.34614323095511396,-0.24396135169726896,nan
1741085458.7904994,-0.09382690114844441,0.06086868806195481,-0.1713642218153374,-0.40808791877513184,nan
1741085458.7944036,0.12222053257932064,0.17390644530474214,0.04314856534744362,-0.35964068435593916,nan
1741085458.7983074,0.2264352339259727,0.13415383556721902,0.17982026941681598,-0.10321154354573654,nan
1741085458.8022115,0.1709221261242397,-0.032285309158155404,0.2123200837288736,0.22888533527213004,nan
1741085458.8061154,0.03069886522325021,-0.17477129528012675,0.18434621001920115,0.4504270965372242,nan
1741085458.8100195,-0.06282175611582436,-0.15807840190785222,0.13542155164890615,0.43255595369081945,nan
1741085458.8139234,-0.03390559669237947,0.007202325366296198,0.057652041562760895,0.18345420028147427,nan
1741085458.8178275,0.07284438033847339,0.1649989385874983,-0.07308263986151824,-0.15472562106062357,nan
1741085458.8217313,0.1306823061913461,0.15147628655310505,-0.23050483139422012,-0.39167699978558124,nan
1741085458.8256354,0.042518846653354196,-0.0481795086494466,-0.3178060294627639,-0.4043434755414104,nan
1741085458.829567,-0.16517280210023874,-0.26691668438482474,-0.23457709300873325,-0.20817139795376519,nan
1741085458.833471,-0.34610325754226806,-0.28788675208869574,0.01853017071582746,0.06174744637050311,nan
1741085458.837375,-0.3385539084680864,-0.037519988955487756,0.29922270485645147,0.24540519153858473,nan
1741085458.841279,-0.09312277037913037,0.32673331137308803,0.4066595008929901,0.26194510180032976,nan
1741085458.845183,0.27377623752931346,0.5210240491452944,0.2391874544475322,0.1503779211447136,nan
1741085458.849087,0.5438630306411162,0.35904373313389126,-0.1024757017114614,0.021367762173267205,nan
1741085458.8529909,0.5359020005371766,-0.08488548516608893,-0.3683435908856317,-0.03818161830138275,nan
1741085458.856895,0.22490314690281993,-0.5135272676421175,-0.3462936407442393,-0.02999101002025605,nan
1741085458.8607988,-0.23637526831258485,-0.6250723855408683,-0.040462918398983014,-0.02659039244217948,nan
1741085458.864703,-0.60374571959264,-0.3422173011770078,0.31157568848005424,-0.08819105902835661,nan
1741085458.8686068,-0.67834251194804,0.13119130379909735,0.41426879431287866,-0.18930836919195054,nan
1741085458.872511,-0.4128446074543504,0.4713018501835431,0.1539209804323967,-0.22592222093865516,nan
1741085458.8764422,0.0667770059026872,0.4816845809199058,-0.29054630002367404,-0.10645771587764132,nan
1741085458.8803463,0.5269675526909556,0.22667788963326851,-0.5677387159171345,0.14734724945257216,nan
1741085458.8842502,0.7410742574139577,-0.05207073789543204,-0.4240771627031716,0.3832613294316038,nan
1741085458.8881543,0.5981460865198838,-0.15571329480144852,0.08411611463896311,0.4169138744868365,nan
1741085458.8920581,0.15891601548860432,-0.0911620102121403,0.6098884877496014,0.1794150958061972,nan
1741085458.8959622,-0.366801209379474,-0.036208354915972935,0.7630043283272437,-0.20489190358120957,nan
1741085458.899866,-0.7168396940327744,-0.1420374579113897,0.40201373110060457,-0.486237243110824,nan
1741085458.9037702,-0.7085402063738242,-0.35628853941420363,-0.25189506648563426,-0.46551353762054815,nan
1741085458.9076743,-0.34093229010397763,-0.4389617025725678,-0.7677400047058353,-0.14788254311533106,nan
1741085458.9115782,0.19426675260792498,-0.17673512526360896,-0.8095018223427051,0.25031143396291167,nan
1741085458.9154823,0.611202911232293,0.38233484726671785,-0.3654418420393136,0.4561388251117731,nan
1741085458.9193861,0.690276367180201,0.8912675077773942,0.26155674042804966,0.3421494629120759,nan
1741085458.923317,0.40587314210268705,0.9314883908268341,0.6810525082068332,0.018774396626242515,nan
1741085458.927221,-0.06150664694665091,0.34878265215518994,0.6796507286570699,-0.2573559862469613,nan
1741085458.931125,-0.440335081098439,-0.570569768836273,0.3318662787625876,-0.2875211590504853,nan
1741085458.935029,-0.5362655002621288,-1.2489612767867644,-0.1005531300654365,-0.0841247050708869,nan
1741085458.938933,-0.341860999939413,-1.2093416374851205,-0.37573866227842817,0.15040882083260515,nan
1741085458.942837,-0.017880739435049857,-0.427680962145638,-0.41719354417875315,0.20052109465369305,nan
1741085458.9467409,0.23162886918392586,0.6236628211815924,-0.30494542196663293,0.02287158227811311,nan
1741085458.950645,0.2945013174189604,1.2875264324556572,-0.15672128453886308,-0.21550042143714718,nan
1741085458.9545488,0.20058102954299015,1.1682476610226484,-0.023267402160106105,-0.2803771289708527,nan
1741085458.958453,0.06374720956306326,0.3900804297655641,0.1148199147481781,-0.07673542631488298,nan
1741085458.9623568,-0.02302546674121603,-0.5136726760266527,0.2691940186963346,0.25620289216538755,nan
1741085458.966261,-0.049801272706219604,-0.9869342398192776,0.38132575999157675,0.44673400510973316,nan
1741085458.9701915,-0.06599197813834161,-0.8214761835606662,0.34999475265702973,0.31173567378562944,nan
1741085458.9740953,-0.10632894008371524,-0.24918946290834978,0.12915116993164094,-0.08294935799618602,nan
1741085458.9779994,-0.14346149872272335,0.28365872730441516,-0.19851212657078268,-0.4582075729556012,nan
1741085458.9819033,-0.11403008060309319,0.4618236724238249,-0.45213439880156053,-0.5314524980348858,nan
1741085458.9858074,0.007496398979091605,0.2976302580296238,-0.4752922240911382,-0.23639679548943912,nan
1741085458.9897113,0.1613045258701012,0.05063351085126339,-0.2530439230219633,0.221721309699528,nan
1741085458.9936154,0.23439235666199576,-0.030673193916736567,0.07495124218659656,0.5196713494201602,nan
1741085458.9975193,0.1530459670123982,0.08295288468315261,0.31752778413985305,0.45762085150557125,nan
1741085459.0014234,-0.04346415357059771,0.2078169280790145,0.3663224976906633,0.1007691032351202,nan
1741085459.0053272,-0.21828438878628204,0.1413735377826775,0.2532698539023939,-0.28322161766752896,nan
1741085459.0092313,-0.23835702914643275,-0.13727313957006038,0.09351133351350359,-0.43298541691334963,nan
1741085459.0131352,-0.08250553068620091,-0.43562659053447395,-0.024369808394575667,-0.2807885307834268,nan
1741085459.0170655,0.1347511327394149,-0.507566265703543,-0.0987120065207436,0.02140052515420766,nan
1741085459.0209696,0.24845168273065033,-0.2632370754809998,-0.17716764149897168,0.24152100478169036,nan
1741085459.0248735,0.17199446741098565,0.15048871310943235,-0.2687431715706768,0.24860218363466577,nan
1741085459.0287776,-0.03425367358601268,0.464082769763151,-0.3022932835848353,0.09169432680621485,nan
1741085459.0326815,-0.21080956617135746,0.49407697967896536,-0.18374250030342518,-0.07113571065730162,nan
1741085459.0365856,-0.2249690074392982,0.2715414226409299,0.09425676518721358,-0.11689804493267218,nan
1741085459.0404894,-0.07306114409584528,-0.009680994496944659,0.39752451221918966,-0.04877434797635851,nan
1741085459.0443935,0.12204256985401149,-0.16880233722122248,0.520265185649777,0.03266848232826048,nan
1741085459.0482976,0.21273608148260037,-0.1797183794483167,0.3406778430499717,0.036918948739652825,nan
1741085459.0522015,0.14245336362307398,-0.15801357967187254,-0.06251095931645005,-0.033386599934350975,nan
1741085459.0561056,-0.017631080168425253,-0.21482517101126755,-0.4399545908663154,-0.09429568502953586,nan
1741085459.0600095,-0.13554257061334857,-0.3198883662055651,-0.5415819341613445,-0.06764404896846343,nan
1741085459.063942,-0.12837511102705404,-0.3094532109720692,-0.30182828763000663,0.041286440112301814,nan
1741085459.067846,-0.023296408462240105,-0.04456655991483858,0.10613222292746369,0.14567402467378174,nan
1741085459.07175,0.07610308344064437,0.41673369428877377,0.3954431307597891,0.15348677099801783,nan
1741085459.075654,0.08313749392644142,0.7981621651310239,0.37716910681274873,0.04768482596403203,nan
1741085459.079558,-0.0005108335213158606,0.7829585193871895,0.09608149005863008,-0.09928645833986303,nan
1741085459.083462,-0.09263174502740691,0.2687133093202647,-0.21269806927270862,-0.18496624856676636,nan
1741085459.0873659,-0.10515246535650064,-0.5043575468923943,-0.30921631369258795,-0.15538426790573845,nan
1741085459.09127,-0.018904424849680437,-1.0738499561770898,-0.13046831256820057,-0.03775619042736263,nan
1741085459.095174,0.10286668281231566,-1.0586398490280107,0.16968797827068516,0.09111919820653636,nan
1741085459.099078,0.16809631862119737,-0.4313133458974886,0.34628586668658223,0.16382880621526255,nan
1741085459.102982,0.12754990640074082,0.4438809589206994,0.251554892187692,0.15738688600896997,nan
1741085459.106886,0.006717820027901436,1.0441888760190037,-0.05800555773473954,0.08644645684408162,nan
1741085459.110818,-0.12048595934197882,1.0310813228145088,-0.36884636321032244,-0.02101045683612876,nan
1741085459.114722,-0.18621510304538016,0.46157258988122846,-0.46593093756810794,-0.13314827977667099,nan
1741085459.1186259,-0.1657886469373607,-0.2745178002992674,-0.27766927025556487,-0.2065303399118387,nan
1741085459.12253,-0.076867696671502,-0.7341923518393763,0.08697613723629859,-0.18922248691161342,nan
1741085459.1264338,0.04351089172002213,-0.7101858403141003,0.41909283521822094,-0.05546382661065718,nan
1741085459.130338,0.15599014105924056,-0.32924187043951353,0.5390893635055336,0.14923726183495611,nan
1741085459.1342418,0.22091099553028762,0.08837445498324967,0.38945089080941764,0.3047893373680525,nan
1741085459.138146,0.20095980706790514,0.2811432773985472,0.04872985553102558,0.2852592085975208,nan
1741085459.1420498,0.08096953861123704,0.21585203045067883,-0.31994193792850784,0.06341957916052593,nan
1741085459.145954,-0.10408285669259923,0.061833526739607424,-0.5461788691907943,-0.23645822689989562,nan
1741085459.1498578,-0.26507927568732115,0.015129072704823221,-0.522813315233372,-0.40293936281486287,nan
1741085459.1537619,-0.3014596352518241,0.1265539852035056,-0.252027962239558,-0.2920034467653305,nan
1741085459.1576936,-0.17218371025352278,0.2690479536221011,0.14653874993695848,0.043826187861852446,nan
1741085459.1615975,0.05968670372022089,0.25870430934108446,0.47959332475184313,0.36831060099381235,nan
1741085459.1655016,0.25528444648736165,0.021732506211549655,0.5728828247137437,0.428798938026075,nan
1741085459.1694055,0.2927596252698401,-0.3295817117892472,0.37326835791396296,0.15875632647530508,nan
1741085459.1733096,0.1578759037780061,-0.5698632362858645,-0.006042473642246895,-0.24998448286456545,nan
1741085459.1772134,-0.042551419882883766,-0.5224409246811679,-0.3435542564403754,-0.4798283334980906,nan
1741085459.1811175,-0.16239280311191406,-0.18599215787648604,-0.4488030143308041,-0.33468824043655204,nan
1741085459.1850214,-0.13188419403144802,0.263655540275251,-0.2911524797426584,0.09253751973841506,nan
1741085459.1889255,-0.01220170336241499,0.5888488814866636,-0.01856978375445521,0.4760340659151214,nan
1741085459.1928294,0.06042387571082157,0.63352992900471,0.1579404750528926,0.5055200704646338,nan
1741085459.1967335,-0.001604028121143891,0.3986348553367491,0.13126082061021474,0.13560402400282204,nan
1741085459.2006373,-0.1501635426977388,0.015210634924362946,-0.017309354587073573,-0.36601177528740597,nan
1741085459.2045689,-0.23097284256264325,-0.3449006239248904,-0.09207337115322256,-0.6181354943823257,nan
1741085459.208473,-0.11438921796302925,-0.5515770869615215,0.037357816702295064,-0.4208486040076452,nan
1741085459.2123768,0.17715587666987775,-0.5504250294228797,0.29982738822587585,0.08736173387433697,nan
1741085459.216281,0.45611969710006706,-0.35549296956374854,0.45558412386816916,0.5353517061461555,nan
1741085459.2201848,0.4954679979406092,-0.032190810098069525,0.289408635242796,0.6035780030143024,nan
1741085459.224089,0.20453722336781974,0.3133907950440424,-0.1854429517906381,0.26152407365069236,nan
1741085459.2279928,-0.28042752816948135,0.5519221939106196,-0.6877839504377894,-0.22490032371153248,nan
1741085459.2318969,-0.6677560012139299,0.5743234969604195,-0.8483188945507104,-0.5109735400864195,nan
1741085459.235801,-0.6999450512789515,0.35286009525037443,-0.48641213630980296,-0.43322199173799414,nan
1741085459.2397048,-0.3285843621809098,-0.02243339533239272,0.22854582469892984,-0.10681376928900663,nan
1741085459.243609,0.24771232491906658,-0.374516464197579,0.8667728037803273,0.20044213972434904,nan
1741085459.2475128,0.7057623229102803,-0.5350754517915982,1.0249101558092835,0.2939258652332222,nan
1741085459.251444,0.7938187758692185,-0.44633562896746454,0.6024570867927054,0.18499321927244625,nan
1741085459.2553482,0.47270011453323635,-0.19316856143306244,-0.13454829029163903,0.03441885382237835,nan
1741085459.2592523,-0.07753555150944896,0.06405630480430445,-0.7439282229463642,-0.019809874278006293,nan
1741085459.2631562,-0.5717331243981053,0.2073836331993137,-0.9039888621872835,0.01596776765342967,nan
1741085459.2670603,-0.7733254185999651,0.23634399986480173,-0.599388759686881,0.02561633717126176,nan
1741085459.2709641,-0.6021935704104207,0.23801207649496625,-0.07866971299816805,-0.07279374635382575,nan
1741085459.2748682,-0.15570127628534097,0.2784064074189129,0.35387402010710667,-0.22184392139888903,nan
1741085459.278772,0.34830393702722645,0.31465430319757576,0.535562144410114,-0.2664257018733743,nan
1741085459.2826762,0.6720182050877601,0.21785551857065363,0.4922608534964099,-0.10723111410229923,nan
1741085459.28658,0.6634043491037206,-0.09674789984272483,0.337550522273918,0.1805711099508518,nan
1741085459.2904842,0.32980888847263057,-0.5394209916794453,0.1461181326295951,0.38509159673862264,nan
1741085459.294388,-0.15596656458806968,-0.8445360113542134,-0.0788110074564001,0.33157623945385944,nan
1741085459.2983189,-0.5351855688183801,-0.7355691323255904,-0.33359737467391515,0.04180608568369507,nan
1741085459.302223,-0.6031656609786621,-0.1522351268674213,-0.5358619195334755,-0.26848267572633183,nan
1741085459.3061268,-0.33509861616154246,0.6402757316715618,-0.5434071331342804,-0.36258962610197015,nan
1741085459.310031,0.08929368764388768,1.1749270154118872,-0.2736036031226626,-0.18124972102947592,nan
1741085459.3139348,0.39597484945566114,1.0832011563497783,0.18389626119945018,0.10741752047145403,nan
1741085459.317839,0.400351033747706,0.36674816581187575,0.5812459908464689,0.25405367054268085,nan
1741085459.3217428,0.13693448657789545,-0.5683256528322562,0.6698612647689898,0.1452515528382023,nan
1741085459.3256469,-0.16749423462961963,-1.16226738395281,0.3865866097870057,-0.09892054030472021,nan
1741085459.3295507,-0.26757366218981693,-1.0731781524484993,-0.08582913550547482,-0.23492585679249528,nan
1741085459.3334548,-0.09242359807515778,-0.40440167609976463,-0.44429911808250283,-0.1178353435020757,nan
1741085459.3373587,0.19496340717133273,0.38009630200431843,-0.4849015380487776,0.1617596713746177,nan
1741085459.3412628,0.32699200690104274,0.7914320202410469,-0.24338404286398524,0.35089683584713616,nan
1741085459.3451934,0.15328730519175726,0.6534379416400967,0.05374825074537444,0.2570943131062718,nan
1741085459.3490973,-0.22297547013609523,0.1927980119539825,0.18262817729848538,-0.0744477759232262,nan
1741085459.3530014,-0.5115740667992614,-0.1760901732275459,0.09762856855008718,-0.38813819040305236,nan
1741085459.3569052,-0.4604979147269145,-0.19307703489307718,-0.05345908765795549,-0.43033271122750816,nan
1741085459.3608093,-0.06316741492210137,0.052693281568395554,-0.07868441783099642,-0.16375010848474297,nan
1741085459.3647132,0.4213066435588862,0.2264092561559622,0.07879221482258901,0.20233313257941732,nan
1741085459.3686173,0.6566758022343618,0.058615216280981826,0.28681391911254617,0.3912288612254282,nan
1741085459.3725212,0.4805685184444942,-0.3971484745976293,0.33953919569562285,0.2890446670313009,nan
1741085459.3764253,0.020920221499981,-0.7791992760534733,0.13992099094796934,0.025148362985513734,nan
1741085459.3803291,-0.4097606366858709,-0.7028152575283688,-0.20773465251434142,-0.1616794043212335,nan
1741085459.3842332,-0.5510250362480311,-0.08992248043374695,-0.47244426078205126,-0.1434640079312794,nan
1741085459.388137,-0.3710249965776189,0.7261318448989548,-0.4735239978595163,-0.0067362947382644395,nan
1741085459.3920674,-0.05185643198577593,1.2163004614507196,-0.2130986762040452,0.052335674078918315,nan
1741085459.3959715,0.18335670095882062,1.033891265127469,0.137944524812398,-0.062390721462530774,nan
1741085459.3998754,0.24274284230598922,0.266790138442128,0.3764340515014996,-0.23679355218162537,nan
1741085459.4037795,0.19574726145311494,-0.6262974861107351,0.4059175547868601,-0.24922762261033493,nan
1741085459.4076834,0.15747582015057587,-1.139486328632327,0.27145060130164805,0.0024915923787013714,nan
1741085459.4115875,0.15481036443944515,-1.0511987451579579,0.0842978123533711,0.36597832738342323,nan
1741085459.4154913,0.10803186680975023,-0.5207076560439496,-0.07684107126772284,0.5353020339339168,nan
1741085459.4193954,-0.05855262086939667,0.09339832512191541,-0.1980912958466662,0.31756024138279904,nan
1741085459.4232993,-0.29511252618690215,0.5155382786689597,-0.2854631010110386,-0.17023067196975708,nan
1741085459.4272034,-0.42893814053275536,0.6992969423936413,-0.3114839355714817,-0.5657492777040987,nan
1741085459.4311073,-0.30862488589800685,0.7431699457741607,-0.22419985484988325,-0.5536599754929401,nan
1741085459.4350114,0.03684266154358241,0.6954705155442316,-0.015177086915901595,-0.14005118721916077,nan
1741085459.4389439,0.38245861629844685,0.46283885218265247,0.2297406556148184,0.3384415456944445,nan
1741085459.4428477,0.47311279497930847,-0.07134664182296506,0.3672913504175366,0.49486709188494826,nan
1741085459.4467518,0.2395699190680081,-0.8267891831267459,0.3069477744086013,0.22635299054973246,nan
1741085459.4506557,-0.12875992256559946,-1.4371709593244741,0.09756359941687028,-0.19397771569283392,nan
1741085459.4545598,-0.3338688551096652,-1.435667286867487,-0.10047201815482254,-0.3605045648953715,nan
1741085459.458464,-0.22394322579800016,-0.6173629807498864,-0.1489980790505636,-0.10776796416528642,nan
1741085459.4623678,0.07017708942768672,0.7075919333653213,-0.057691838859364825,0.32250473510429545,nan
1741085459.4662719,0.24806383217994948,1.8156471961164118,0.02040053890207735,0.48599797585693755,nan
1741085459.4701757,0.11443459425742387,2.011069728930717,-0.06442683438904466,0.14752819429493516,nan
1741085459.4740798,-0.22673577227719297,1.1104320662167861,-0.29340682297577686,-0.4664103511976785,nan
1741085459.4779837,-0.4445360418215743,-0.3932548924971716,-0.45496327998860353,-0.8220793452629118,nan
1741085459.4818878,-0.27461636965011366,-1.631660847402607,-0.30947949745755654,-0.535165730566674,nan
1741085459.4858198,0.2185774993516798,-1.9264284464254748,0.1795182004240378,0.2586093622580397,nan
1741085459.4897237,0.6557518319454488,-1.2145136631187645,0.7505513826475789,0.9614509839603215,nan
1741085459.4936278,0.646548621866748,-0.033843856877231335,0.9946354805494798,0.9860772791323571,nan
1741085459.4975317,0.1351944415032658,0.8968296618757746,0.6581576771488151,0.2596643488185153,nan
1741085459.5014358,-0.5176148056466908,1.169529754703631,-0.13601895422458918,-0.6786664558655077,nan
1741085459.5053396,-0.8096549726499015,0.8843180722466685,-0.9366326492793029,-1.0967705684444453,nan
1741085459.5092437,-0.5117423503400942,0.4420047318329399,-1.2614138765459155,-0.6715121910170073,nan
1741085459.5131476,0.1318893353143279,0.15039713805128305,-0.9236822648428749,0.234624357847918,nan
1741085459.5170517,0.6016645150653457,-0.006338142621150794,-0.1428583527645682,0.8709633371861651,nan
1741085459.5209556,0.5413187729308792,-0.25296560428380516,0.6331460847699061,0.7310400158267604,nan
1741085459.5248597,0.06026583628637821,-0.6975132800205954,1.0386766883035101,-0.01745197910257495,nan
1741085459.5287635,-0.3709257660107387,-1.1202974156418566,0.9886051414558658,-0.6824418856907273,nan
1741085459.5326953,-0.34932962588997135,-1.102055702170977,0.6355342271717977,-0.6580369489089118,nan
1741085459.5365994,0.08553015659157703,-0.40629092684562657,0.17256666133258222,0.03195890287364689,nan
1741085459.5405033,0.4772167064545071,0.7184741675517139,-0.31140805005045996,0.7427675816581499,nan
1741085459.5444074,0.37526905816067524,1.61522410725957,-0.7956174981017952,0.7802081782453423,nan
1741085459.5483112,-0.215852901311044,1.6657752314822445,-1.180614404102765,0.04211904093224044,nan
1741085459.5522153,-0.784846596843827,0.7739540479544934,-1.2272616847526139,-0.8488556355209885,nan
1741085459.5561194,-0.7462534072174779,-0.5149618480905843,-0.7040566627263903,-1.0703436917085871,nan
1741085459.5600233,0.00013944865951326052,-1.3868289800185647,0.3499160153581532,-0.34564035106588403,nan
1741085459.5639274,0.8965709656778805,-1.3530522892483492,1.4947388938107553,0.7553523614111202,nan
1741085459.5678313,1.150922125619247,-0.5994099897619296,2.0738091455228744,1.266696125273488,nan
1741085459.5717354,0.4376825185406053,0.19730478955144243,1.6376975798861682,0.676679819277728,nan
1741085459.5756392,-0.7357862796639504,0.4437604300920832,0.3016304857767001,-0.5630903940982226,nan
1741085459.5795708,-1.3762839793731225,0.12472005680056408,-1.2613559051096777,-1.3618386298247445,nan
1741085459.5834749,-0.8400360654692576,-0.20457910963930845,-2.2233833139421306,-0.9279067437424072,nan
1741085459.5873787,0.5377206716379628,0.05595580811287487,-2.118337515467784,0.47130098402684384,nan
1741085459.5912828,1.6116273302833264,0.9367774023441984,-1.0939037283625472,1.6331446219457963,nan
1741085459.5951867,1.3441030431405168,1.7371872438269453,0.26634453054668505,1.4079067266943361,nan
1741085459.5990908,-0.2489181465219783,1.521495063489807,1.3703509547012074,-0.24252277940824551,nan
1741085459.6029947,-1.9571864217774824,-0.06369137421238509,1.9322632653833982,-2.053542643285383,nan
1741085459.6068988,-2.266899418594605,-2.30275935356834,1.952537467720153,-2.4039713632085666,nan
1741085459.6108027,-0.6383333062460023,-3.718992610088835,1.4747941331653318,-0.6996034508223908,nan
1741085459.6147068,1.88404708576068,-3.0582789505342243,0.44545882835291084,1.9604952455379452,nan
1741085459.6186109,3.3323224470397426,-0.2806971323472258,-1.1159234016793573,3.491463303144679,nan
1741085459.6225147,2.3381498271360823,3.1924598890521896,-2.786665716749506,2.4530401003235527,nan
1741085459.626446,-0.6593065950984379,5.249456860541227,-3.661991721073693,-0.6737741133188456,nan
1741085459.6303499,-3.5548262894445704,4.430271909535866,-2.808585464160236,-3.663729453601778,nan
1741085459.634254,-4.086963154752193,0.9514765772313382,-0.05829348903922001,-4.167850976489928,nan
1741085459.6381578,-1.6171683184245478,-3.3066835325027295,3.479613339594097,-1.578219992055339,nan
1741085459.642062,2.2297430270102425,-5.892953079828858,5.768849102864286,2.3529883606499875,nan
1741085459.6459658,4.660738320714318,-5.275712502829189,5.054576394398512,4.725015944879823,nan
1741085459.64987,3.795655217992868,-1.7796760508610905,1.1945130085142845,3.6801579604723207,nan
1741085459.6537738,0.15653622194577577,2.619633717824806,-3.8972417442326113,-0.1059816317272997,nan
1741085459.657678,-3.629199851796824,5.491019819943576,-7.2075500108002695,-3.843716853098391,nan
1741085459.6615818,-4.758414061385639,5.363805654224603,-6.508551079193413,-4.70895354735289,nan
1741085459.6654859,-2.3783259169934396,2.500683130982728,-1.9314085365577507,-2.0169360712205635,nan
1741085459.66939,1.728454595427973,-1.3843525918683035,3.923891988758392,2.2020277072116614,nan
1741085459.6733205,4.463287782792056,-4.203785610088095,7.542696449284915,4.714894659751196,nan
1741085459.6772246,3.758177951732423,-4.664129786395423,6.738777120923915,3.5592250118823663,nan
1741085459.6811287,0.16104620301826925,-2.8482629946879916,2.0756559321467414,-0.42042585633244023,nan
1741085459.6850326,-3.5661684232242723,0.03162968588081018,-3.51595403962564,-4.176906537773207,nan
1741085459.6889367,-4.544922688705667,2.4421769142303225,-6.6664989349964925,-4.77077574227635,nan
1741085459.6928406,-1.9777852807927168,3.357829286744324,-5.718885609166292,-1.6317766682431238,nan
1741085459.6967447,2.230044566506313,2.6611202558915656,-1.6565305737956795,2.960473082520738,nan
1741085459.7006485,4.898360658853073,0.9954642216512544,2.745428681157702,5.55683298840191,nan
1741085459.7045527,3.962679085222457,-0.7218923657714555,4.856403567565294,4.118425801291868,nan
1741085459.7084565,0.02268618028348032,-1.7880764270530503,3.8307180472865454,-0.4425767921425466,nan
1741085459.7123606,-4.100674793345119,-1.9584467066796556,0.8869263986252325,-4.907217919411491,nan
1741085459.7162645,-5.440058746953154,-1.4041554090423,-1.8027866316605694,-6.084430003419267,nan
1741085459.7201953,-3.0268044480660814,-0.5046530979447145,-2.6826346102763043,-3.101822078106045,nan
1741085459.7240992,1.4593184100852166,0.3639850688437044,-1.7086682857081403,2.00654380290708,nan
1741085459.7280033,4.949037624858796,0.9493719231242564,-0.05871159994250391,5.784720960589603,nan
1741085459.7319071,5.162892153970997,1.1478567467902778,0.944534683072444,5.776168846168334,nan
1741085459.7358112,2.118241810633724,0.9799979737343648,0.7978087178675728,2.136847972334426,nan
1741085459.739715,-2.0425625253859554,0.5552531170455947,-0.005914068222201032,-2.6279311560463428,nan
1741085459.7436192,-4.645498411238967,0.03382794713216356,-0.5744903862464674,-5.482755603002948,nan
1741085459.747523,-4.272590441418167,-0.4214199453304641,-0.3993936321464951,-4.867683687010543,nan
1741085459.7514272,-1.5130742475648302,-0.6975460304067214,0.30593515238622815,-1.5270920915112978,nan
1741085459.755331,1.6902990188639875,-0.7633751815687629,0.8959571080263727,2.2482386802024297,nan
1741085459.7592351,3.4587189105600413,-0.6570543166670924,0.8764848128601485,4.253994502842293,nan
1741085459.763139,3.100504364966467,-0.4355473961232511,0.2727297819004404,3.6859949778339023,nan
1741085459.7670693,1.266955722845357,-0.12711736868158338,-0.47059987327628605,1.3463614265237211,nan
1741085459.7709734,-0.7504687077895466,0.2669388198217112,-0.8927306795938805,-1.1715440673549962,nan
1741085459.7748773,-1.9237549621836492,0.7134956338144737,-0.844709845840923,-2.579471146540072,nan
1741085459.7787814,-1.9655338669652345,1.0818383493500108,-0.4965032358335805,-2.5156100407970774,nan
1741085459.7826853,-1.2145404316980553,1.14909205849802,-0.09531907447187328,-1.438175838586872,nan
1741085459.7865894,-0.21541117487542877,0.7173417276218043,0.25151356530445723,-0.09046873459694386,nan
1741085459.7904932,0.6153496347510309,-0.20736629428749903,0.5717929894036633,0.9718473336458536,nan
1741085459.7943974,1.0697878210599654,-1.3032780131181871,0.8548487781762694,1.5182766311585258,nan
1741085459.7983012,1.0818315584437568,-2.013078416661814,0.9354303962690246,1.52400113223733,nan
1741085459.8022053,0.6909213710295584,-1.8297327388525693,0.5961161059902915,1.040303384008794,nan
1741085459.8061092,0.07382630478208003,-0.644479624642651,-0.18404820177184503,0.19736018824583332,nan
1741085459.8100133,-0.4673703052984933,1.0768422933603117,-1.0801177056510043,-0.7307746579741242,nan
1741085459.8139455,-0.653034434342498,2.458145201900223,-1.558099105308006,-1.360226250703741,nan
1741085459.8178496,-0.4337019189143652,2.6809179883014327,-1.2382962310140275,-1.3838764582927083,nan
1741085459.8217535,-0.05959656977652598,1.4965674498727057,-0.20854948267482584,-0.7835756889149113,nan
1741085459.8256576,0.1052449939254584,-0.5513100639140068,0.9780645935366902,0.12228186504523879,nan
1741085459.8295617,-0.0938440654464891,-2.3793757501249524,1.6466059007905463,0.8641164899881493,nan
1741085459.8334656,-0.4262804217776596,-2.9770508089335865,1.4396969695781774,1.1117391682930882,nan
1741085459.8373697,-0.4449677276395482,-2.0118179629761443,0.5319774378043717,0.8523719496235052,nan
1741085459.8412735,0.10001189585267764,-0.03823813776091043,-0.5230342028747011,0.3346193776509115,nan
1741085459.8451777,0.9529049350039627,1.8353896234107812,-1.1755194893939593,-0.14940984392232456,nan
1741085459.8490815,1.4583401263502314,2.615206396709891,-1.1992146197231501,-0.45228932458168997,nan
1741085459.8529856,1.058504932391442,1.995760560943593,-0.740985087544761,-0.5909617981357442,nan
1741085459.8568895,-0.19805901388540068,0.4792040753929899,-0.12478836400956812,-0.6245083232663521,nan
1741085459.8608217,-1.577309362702531,-1.008256426204649,0.3886530149648088,-0.5393926945543904,nan
1741085459.8647256,-2.1342289905251755,-1.715456095241028,0.6997754299088478,-0.2646167867563565,nan
1741085459.8686297,-1.41061159514131,-1.4725254224628685,0.804216317303537,0.20286759989961786,nan
1741085459.8725336,0.1868705047133697,-0.66576720911676,0.6917721040517912,0.700883228342375,nan
1741085459.8764377,1.6461719440638454,0.1343340660711856,0.3410065124414291,0.9543178404593278,nan
1741085459.8803415,2.067420540059414,0.5763382404934563,-0.19022656817072334,0.7611805073574721,nan
1741085459.8842456,1.2910253730561796,0.6713807109477531,-0.7008636878664831,0.16543018982775823,nan
1741085459.8881495,-0.04310327621958716,0.626718663682688,-0.9207020508865241,-0.5347706489677582,nan
1741085459.8920536,-1.0299467676674279,0.5707615061693324,-0.6967246870840168,-0.9655109297424257,nan
1741085459.8959575,-1.1816188512272505,0.4322328662120404,-0.13664815489423224,-0.9131885709190448,nan
1741085459.8998616,-0.7118752504952113,0.06980426165259364,0.43464572412513824,-0.44491722671580763,nan
1741085459.9037654,-0.2267527880892013,-0.49237800135517135,0.6965023247301,0.16337991263432478,nan
1741085459.9076974,-0.12727856486240116,-0.9717568249113769,0.5604785378800639,0.617677931197679,nan
1741085459.9116013,-0.26138982273283934,-1.000733943503414,0.21476075959609695,0.7649892285337434,nan
1741085459.9155054,-0.12894155684558364,-0.4431367131495955,-0.05392255399483947,0.6221846438878719,nan
1741085459.9194093,0.5530326545649563,0.4222479311320263,-0.10666798184502424,0.29691701579823093,nan
1741085459.9233134,1.4503246150061464,1.0431342677337676,-0.05052120812039857,-0.09877306023434748,nan
1741085459.9272172,1.7785116987668106,0.9880846735039127,-0.10198922145531841,-0.4685989221291031,nan
1741085459.9311213,0.9518288797339509,0.293597561882333,-0.3419942167945895,-0.7042245835755825,nan
1741085459.9350252,-0.8133129680033288,-0.5287615160044017,-0.5938932951850356,-0.6863175196506338,nan
1741085459.9389293,-2.482203992735385,-0.8627472900099823,-0.554338951220031,-0.3564606942048449,nan
1741085459.9428332,-2.8675641697346226,-0.4656575109839594,-0.07952483664911274,0.19042939642365572,nan
1741085459.9467373,-1.5129397333968166,0.3233248138473777,0.6246191102818685,0.6966922080406068,nan
1741085459.9506414,0.8845068035634394,0.8295097822229118,1.0976389951837924,0.8689365124640306,nan
1741085459.954573,2.871667777236017,0.5739755536135887,0.9585329573440835,0.5753410971431893,nan
1741085459.9584768,3.2035166580065764,-0.31873493327588476,0.21939385201894496,-0.035539012728548126,nan
1741085459.962381,1.6857676445281793,-1.170091676198382,-0.6834305036108205,-0.605162074692525,nan
1741085459.966285,-0.7078918159733056,-1.2442397824498168,-1.184125997865598,-0.7948958838851388,nan
1741085459.9701889,-2.5137301692372294,-0.32961997074607724,-0.9881858787884094,-0.5146484742912687,nan
1741085459.974093,-2.7478396544182293,1.0416336662715535,-0.27033192104623227,0.020435854772943483,nan
1741085459.9779968,-1.4828140027599124,1.9262141562663784,0.4777270688862961,0.4495606073223867,nan
1741085459.981901,0.32856871951904654,1.6323939190519663,0.8182089723783131,0.5221181985713568,nan
1741085459.9858048,1.5817514900764873,0.23630312755937724,0.6596177715899713,0.2587711986892575,nan
1741085459.989709,1.7346872849815769,-1.4289627374113838,0.25398391395110476,-0.09496847213263647,nan
1741085459.9936128,1.0233389955011107,-2.314579021690667,-0.06521978986450075,-0.27295602067445185,nan
1741085459.9975169,0.1163771303166009,-1.8513061418556735,-0.16097966547630135,-0.1848386493809792,nan
1741085460.0014482,-0.4413487648366813,-0.3182956888419,-0.15204093186377718,0.04178701172091525,nan
1741085460.005352,-0.5531828392904193,1.3559957509269034,-0.2276612998531163,0.18926305341309316,nan
1741085460.0092561,-0.47337494756222315,2.2033192535995014,-0.41185107317192976,0.13173610039954922,nan
1741085460.01316,-0.45865864024112574,1.810058205505497,-0.5095698562709868,-0.07475170894649133,nan
1741085460.017064,-0.5097819717830503,0.5134768008123174,-0.2936491311817033,-0.25332420750515944,nan
1741085460.020968,-0.414142719775186,-0.8844278115105493,0.23773241926798452,-0.254692643238085,nan
1741085460.024872,-0.012501828215231285,-1.6451687925203582,0.7812979579089493,-0.06957001472016983,nan
1741085460.028776,0.5786099398245201,-1.4996198209596934,0.9280005280192843,0.175296597583869,nan
1741085460.03268,1.0015562857628835,-0.7028238114823366,0.4950351170867856,0.31912710260530425,nan
1741085460.036584,0.9267255979753278,0.22535446792296238,-0.28799223151220005,0.278938340903587,nan
1741085460.040488,0.3287508179096761,0.8443340767953984,-0.912614188130441,0.09134483226825023,nan
1741085460.0443919,-0.4626042900362708,0.9918865816714051,-0.9584281739131283,-0.12948158974936805,nan
1741085460.048323,-0.9818326360962388,0.7621211814506477,-0.4085629582063088,-0.2701999448066367,nan
1741085460.0522268,-0.9461241172869466,0.35280620073114255,0.33843860465307074,-0.2748641915246253,nan
1741085460.056131,-0.4321499942411338,-0.07046143607430995,0.7715871566735023,-0.15593004312098477,nan
1741085460.0600348,0.20763129417952655,-0.4125031930302474,0.6451760705504295,0.025842180614644116,nan
1741085460.0639389,0.6052306493857289,-0.615503387109824,0.1360432053332742,0.18897724331475493,nan
1741085460.0678427,0.6102258070538294,-0.6314517391972653,-0.33080565635154197,0.2584368338328681,nan
1741085460.0717468,0.33771169089372977,-0.4421605360693356,-0.43119641062333597,0.19608745986427623,nan
1741085460.075651,0.02976636801405967,-0.09985076444034574,-0.17745312985944992,0.02833554029642276,nan
1741085460.0795548,-0.13649283665796905,0.2691810935942043,0.13839859121794895,-0.1526978253294505,nan
1741085460.083459,-0.14708018920340318,0.5207384622162764,0.22318025176316236,-0.23391993492784596,nan
1741085460.0873628,-0.10600868405362078,0.5709165171153538,0.03375581731235047,-0.15666830855576394,nan
1741085460.0912669,-0.11372944523608769,0.43342533539775346,-0.20963708192792999,0.030015156052533836,nan
1741085460.0951972,-0.17925840438063437,0.18858949421249818,-0.24419117935391313,0.19007810641213366,nan
1741085460.0991013,-0.22699242995401958,-0.08188460227326884,-0.013849690624045724,0.19535560908046554,nan
1741085460.1030052,-0.17375409721138418,-0.332092207755703,0.27623071497313406,0.02939605650532535,nan
1741085460.1069093,-0.003106737701492174,-0.5316293852454392,0.3467533656972556,-0.18563477989760155,nan
1741085460.1108134,0.21835242827675264,-0.6213542012872897,0.10480035914657271,-0.27285324002075395,nan
1741085460.1147172,0.38335225338041606,-0.5102448664799953,-0.2565577431993717,-0.1396240588506869,nan
1741085460.1186213,0.4052411653503406,-0.14337017007033986,-0.41478412259823677,0.13746358395925906,nan
1741085460.1225252,0.2588538431677585,0.40400410611360277,-0.20139263377711975,0.35699224897799026,nan
1741085460.1264293,-0.011592742867577312,0.89797112369181,0.23281048570528218,0.3414434071786502,nan
1741085460.1303332,-0.30856262058870354,1.043042572737095,0.522373240586761,0.07777907324046372,nan
1741085460.1342373,-0.511323690013272,0.6684051179456478,0.38656143325771963,-0.2626697003866433,nan
1741085460.1381412,-0.5182216327835101,-0.11958066509709818,-0.1213140412940802,-0.4455570593283387,nan
1741085460.1420715,-0.29610216845488085,-0.9433779976964867,-0.6276301830834987,-0.34495619177050235,nan
1741085460.1459754,0.08460275749700122,-1.3463328281662383,-0.7179804930116328,-0.03327739600865303,nan
1741085460.1498795,0.46045402276438063,-1.0660755584707169,-0.26732469896617217,0.27744269100420277,nan
1741085460.1537833,0.644950662680934,-0.21404508093073998,0.44182396755272435,0.3931330546507495,nan
1741085460.1576874,0.5303223017009221,0.7656949053085557,0.91301200799649,0.27024898836609057,nan
1741085460.1615913,0.1599979607663709,1.3453197290942995,0.798038608361613,0.026216966761328037,nan
1741085460.1654954,-0.2825792112997009,1.2197021408529458,0.1538453506892805,-0.16754405744192885,nan
1741085460.1693993,-0.5723790988662436,0.4802945736261754,-0.5973501077093295,-0.21486232494451907,nan
1741085460.1733034,-0.5712357631856073,-0.4493107351223623,-0.9692912984061806,-0.1444607628000494,nan
1741085460.1772072,-0.30446499409545996,-1.0702975225189233,-0.7463457935330001,-0.05417607488367938,nan
1741085460.1811113,0.06350668516818674,-1.0942948470989375,-0.11033899085559917,-0.01287902999806618,nan
1741085460.1850154,0.33580890474718494,-0.5848458627087826,0.515278122416358,-0.009638199835051707,nan
1741085460.1889477,0.3994508695786468,0.11840853945154499,0.7690392100145599,0.013083370358740432,nan
1741085460.1928518,0.2767235832497189,0.6270745155975402,0.574862701384456,0.08458151594692806,nan
1741085460.1967556,0.08602422660227509,0.7299979523601948,0.14012932186263094,0.16559875564608692,nan
1741085460.2006598,-0.05125332676686539,0.48099298079783526,-0.23652916680470262,0.18057225036868058,nan
1741085460.2045636,-0.08940622415738861,0.11233382892941747,-0.3801463532770839,0.0898450951647891,nan
1741085460.2084677,-0.07178903975215618,-0.14721133074491707,-0.31867970897256503,-0.06737683789218657,nan
1741085460.2123716,-0.07764427423692298,-0.21760343810170313,-0.19534514034924244,-0.19927192128727175,nan
1741085460.2162757,-0.14667216543871486,-0.1823866473368385,-0.11591813182616434,-0.23184348955096032,nan
1741085460.2201796,-0.23777370875390938,-0.17881092907065219,-0.06787329225030186,-0.15977865621066134,nan
1741085460.2240837,-0.2527252809374466,-0.25842109471667685,0.031111772510601866,-0.03630057383674419,nan
1741085460.2279875,-0.11091512118538521,-0.33122636127404215,0.2154606156760739,0.07988589134860839,nan
1741085460.2318916,0.174419476414221,-0.240870023166714,0.40153881008710296,0.16440519049612665,nan
1741085460.2358236,0.4737304334928611,0.08445378565922564,0.4351958682939912,0.21752757792339875,nan
1741085460.2397277,0.5988750862081688,0.5258277965037516,0.2219373862291104,0.22539894561876683,nan
1741085460.2436316,0.4177210549975933,0.80961625466725,-0.16983808049737797,0.14732261055030482,nan
1741085460.2475357,-0.040867372381369414,0.6822867251863551,-0.5253172462306838,-0.041577837304002344,nan
1741085460.2514396,-0.5659818102185693,0.11103941246573183,-0.6188377709803459,-0.28753487829109003,nan
1741085460.2553437,-0.8609077711364596,-0.6395703094453978,-0.37275256752772834,-0.44864578135240085,nan
1741085460.2592478,-0.7165053154000928,-1.1332662610139608,0.07860105478538794,-0.37761696951446044,nan
1741085460.2631516,-0.1595928112660903,-1.0296290042973482,0.4706176039695644,-0.04941146607106012,nan
1741085460.2670557,0.5288438592691809,-0.3228748532525322,0.5806927343156268,0.3743165450915864,nan
1741085460.2709596,0.9594055094371149,0.6175219945786592,0.3704690933262459,0.62208252407291,nan
1741085460.2748637,0.8690340138634427,1.2511261147176744,-4.349492869943262e-05,0.49881207205697087,nan
1741085460.2787676,0.2968858748453179,1.1968244774877088,-0.2920037149520341,0.04699336532394969,nan
1741085460.2826993,-0.42383840571611436,0.4764813790573979,-0.3520026009970044,-0.45345212782593175,nan
1741085460.2866035,-0.867729426755909,-0.4917997157738975,-0.2038030114506794,-0.6680766816010744,nan
1741085460.2905073,-0.787524861213803,-1.151142807092901,-0.007026197739015434,-0.4485538024619187,nan
1741085460.2944114,-0.2713315994874778,-1.1471964074739416,0.07880502885196795,0.05176778065860492,nan
1741085460.2983155,0.3243628244287293,-0.5317440697492813,0.01817548242428726,0.48367350173542084,nan
1741085460.3022194,0.622067841300739,0.29668765198428787,-0.08295875217642375,0.5560852311775532,nan
1741085460.3061235,0.4777764012920498,0.8619871119367569,-0.07716475088475787,0.24667354013313225,nan
1741085460.3100274,0.06261474744255073,0.9011011833691321,0.0879937500000988,-0.19195023131754702,nan
1741085460.3139315,-0.282933432890449,0.4882635542971652,0.30854191279838034,-0.432757770147548,nan
1741085460.3178353,-0.30996864263820606,-0.06691776119869927,0.3931948902194188,-0.32268284184903634,nan
1741085460.3217394,-0.041361354909799315,-0.4495990361282971,0.21607297953473073,0.014281384255205549,nan
1741085460.3256433,0.26133863177614886,-0.5265762668160913,-0.16458464625739255,0.2930073704057084,nan
1741085460.3295748,0.3138671051020975,-0.37362794921888753,-0.52115187947286,0.300805425519042,nan
1741085460.3334787,0.039232601848333666,-0.15806861378587303,-0.6062296793512126,0.058424682663714776,nan
1741085460.3373828,-0.36568140524061576,0.006603607123089117,-0.33287943260755976,-0.2149832286266154,nan
1741085460.3412867,-0.5775103073978537,0.11736528332217713,0.14974715067872604,-0.29303199071739094,nan
1741085460.3451908,-0.39460604707963653,0.22405217266482477,0.5483624078311709,-0.1256852001208116,nan
1741085460.3490946,0.1025902961079252,0.33195754863390103,0.623685976227385,0.13325537907069787,nan
1741085460.3529987,0.5991602918291493,0.36590728385270993,0.351420268466449,0.2673145787760685,nan
1741085460.3569026,0.7644785609208535,0.23366081121437104,-0.07154862815431541,0.18021802412677917,nan
1741085460.3608067,0.4805827389936946,-0.06836942284240502,-0.3770035190539339,-0.03386637712784119,nan
1741085460.3647106,-0.08219867163079159,-0.40763613033909524,-0.41485274450182913,-0.18451445471133768,nan
1741085460.3686147,-0.5872792132782394,-0.5816358531373897,-0.23898447150796084,-0.15441015801986285,nan
1741085460.3725185,-0.7544481498548041,-0.45736515295676144,-0.0319603998114127,0.0046599678525226845,nan
1741085460.37645,-0.5248858653022996,-0.07773460592112061,0.059556629954770325,0.1283938333553768,nan
1741085460.380354,-0.06698488689006107,0.3516808345959936,0.03827421567167043,0.0939439678181208,nan
1741085460.384258,0.3575345817988174,0.5916900606647048,0.026580226173698457,-0.06671471716558695,nan
1741085460.388162,0.5572235183772956,0.521833161045144,0.12647137040850198,-0.1938583706564177,nan
1741085460.392066,0.49501211980864823,0.2072716479540196,0.29851431704351905,-0.143800371766984,nan
1741085460.3959699,0.2604883275120485,-0.1611269917329062,0.374829110866739,0.07596525110879251,nan
1741085460.399874,-0.01866291581098969,-0.39948286823122575,0.2051673451510409,0.29894864079888295,nan
1741085460.4037778,-0.2482411042475964,-0.4348224810746156,-0.1856125720797301,0.33003527792816606,nan
1741085460.407682,-0.3823783019836477,-0.31306457792282794,-0.5715603021285308,0.10815060169853025,nan
1741085460.4115858,-0.40054325041470157,-0.12666934041532565,-0.6720658970230202,-0.232661495605099,nan
1741085460.41549,-0.2918893019487808,0.06215233535881225,-0.3670352857127311,-0.45531767211201707,nan
1741085460.419394,-0.06971069073472733,0.23692156293619004,0.1897016906593979,-0.3937854062199194,nan
1741085460.4233246,0.2035196943227657,0.381897599729289,0.6582111095717447,-0.07514519499811602,nan
1741085460.4272287,0.41899402029184346,0.4383626589266317,0.744859163263093,0.30009072456814895,nan
1741085460.4311326,0.4686000343982409,0.32354663345548285,0.4066221168510778,0.49842739588543017,nan
1741085460.4350367,0.31064370941699565,0.011149393786168854,-0.12614932235231452,0.4069628078933064,nan
1741085460.4389408,0.006118463598992769,-0.3963927617490264,-0.5215304331744754,0.09371253122501014,nan
1741085460.4428446,-0.305356331856054,-0.6844748092881933,-0.5766385893590795,-0.25331540106296846,nan
1741085460.4467487,-0.4779659428327133,-0.6480235993201957,-0.3332798855576785,-0.449654830903479,nan
1741085460.4506526,-0.43516221447524595,-0.2436403694218616,-0.004835635263512748,-0.4122228120202933,nan
1741085460.4545567,-0.203776401188089,0.3440506493303995,0.20720857482984287,-0.18101030282690891,nan
1741085460.4584606,0.10693596742037421,0.7889785698396872,0.25018800693897364,0.12405607087258877,nan
1741085460.4623647,0.36130057622527145,0.8210322623199179,0.2092368410761178,0.3664288523279633,nan
1741085460.4662685,0.4552323295424744,0.4045371320706314,0.18231492517721248,0.44271218461115047,nan
1741085460.470199,0.35321370984815087,-0.2282802700272166,0.17091738309388765,0.31379886866693485,nan
1741085460.4741032,0.09823795870834286,-0.7178277584392844,0.09079437054208274,0.023376900142536985,nan
1741085460.4780073,-0.20281177211937268,-0.7995532005090606,-0.11249220929307077,-0.30343083417111405,nan
1741085460.4819112,-0.41623035466096736,-0.45973522273607725,-0.3622022215343224,-0.500421576837773,nan
1741085460.4858153,-0.43637152122184103,0.074724238679814,-0.47494569069346926,-0.44220954736109713,nan
1741085460.4897192,-0.2411947805187358,0.4950581637718358,-0.3081913051381224,-0.1301338053001683,nan
1741085460.4936233,0.08214769896936873,0.6021862991772121,0.09266518310415343,0.2810980651452918,nan
1741085460.4975271,0.36828281326202383,0.40435238679104557,0.4868389676690959,0.5553539427854266,nan
1741085460.5014312,0.4580722033901852,0.0716513289492581,0.5991068754120662,0.517011453020293,nan
1741085460.505335,0.2937810893441941,-0.19914532886291675,0.33182208379229533,0.17256102346151503,nan
1741085460.5092392,-0.03633571193068851,-0.304391118586182,-0.14460079777576954,-0.27880294458702015,nan
1741085460.513143,-0.34144982727030876,-0.26297843397932996,-0.506126554033358,-0.5647326082537344,nan
1741085460.5170734,-0.44078165566875227,-0.1587573992084464,-0.5131784355054856,-0.514225957520826,nan
1741085460.5209775,-0.2763542462971938,-0.06060203738973351,-0.1871253794698488,-0.16757269072548867,nan
1741085460.5248814,0.048836598509191906,0.014696646297844748,0.21428210941492598,0.2546571961039592,nan
1741085460.5287855,0.3349132781776605,0.08170765205256043,0.4014594074739535,0.4998578689095108,nan
1741085460.5326893,0.41069841148560793,0.1445300704264777,0.27263204434521965,0.44344451520614153,nan
1741085460.5365934,0.23863053080408517,0.1804221949196665,-0.024969152681140184,0.15274806830775675,nan
1741085460.5404973,-0.06800958306406249,0.1615503411160738,-0.23332270474807612,-0.17827397871234324,nan
1741085460.5444014,-0.3224544511821395,0.08681453085693079,-0.1995750847281146,-0.36454687723267887,nan
1741085460.5483055,-0.381427524698035,-0.01243381991968739,0.009872196788971601,-0.3366496012567426,nan
1741085460.5522094,-0.22558396389383198,-0.09904009418291497,0.1847597269073853,-0.15525365531599097,nan
1741085460.5561135,0.04217624544235957,-0.1593206443948187,0.16225152736678064,0.05588055835584751,nan
1741085460.5600173,0.2693759875616697,-0.20107863181756783,-0.03319585548526122,0.1949534726173276,nan
1741085460.5639498,0.3442615011440247,-0.2205897300570047,-0.21830522995107512,0.22618782550529248,nan
1741085460.567854,0.24834041781008626,-0.17789415460540986,-0.21718630548972245,0.16985100652207605,nan
1741085460.571758,0.048669546149541554,-0.021185847221622933,-0.017837860841949577,0.06756336736510442,nan
1741085460.575662,-0.15240529310310785,0.24480412105242458,0.21615492702749542,-0.04190196449675205,nan
1741085460.579566,-0.27213452009458927,0.506680841484627,0.28628890414309105,-0.12657632718323172,nan
1741085460.5834699,-0.2769620016548243,0.5752313903409488,0.12889527117069108,-0.16016946010816427,nan
1741085460.587374,-0.18077562798496266,0.31184108623157,-0.13151092818145313,-0.13068283038285533,nan
1741085460.5912778,-0.0255931931764005,-0.23153283350104156,-0.28811801705363316,-0.05331010867239859,nan
1741085460.595182,0.1375733119704965,-0.7793513172473129,-0.22336610396979711,0.031504438575593395,nan
1741085460.5990858,0.2595093831760674,-0.9698347227341234,-2.6310271113646412e-05,0.08289524879785437,nan
1741085460.60299,0.298902122172094,-0.5987569533740444,0.20064748325332193,0.08963675557198593,nan
1741085460.6068938,0.23141072876888544,0.19719510789539457,0.2336162172403291,0.07600313744215019,nan
1741085460.6108282,0.06352454482079106,0.9716861021379882,0.10208453594154504,0.0730196328600234,nan
1741085460.6147323,-0.15671087942973694,1.2300534540435275,-0.0641984571264428,0.07976719248153108,nan
1741085460.6186361,-0.3449648194395663,0.7627036282134667,-0.13451575947795855,0.05558020406607442,nan
1741085460.6225402,-0.40937365335477643,-0.1832669077395962,-0.08823327193304598,-0.03992273987054612,nan
1741085460.6264443,-0.29584202791831665,-1.0350950725668155,-0.013607698444760044,-0.1893071497745143,nan
1741085460.6303482,-0.027670074331380582,-1.2602771862688733,-0.004276894011218534,-0.2996121868283459,nan
1741085460.6342523,0.2876940440895033,-0.7234900315286346,-0.058248285827879824,-0.25714219795516446,nan
1741085460.6381562,0.4993075070768563,0.21762735026417318,-0.07965853201444022,-0.024746106735322716,nan
1741085460.6420603,0.4882301562627561,0.9532815596528285,0.015868077886844544,0.2967743871618806,nan
1741085460.6459641,0.2388978388596701,1.0350219808486705,0.19397084080145474,0.5077651468889121,nan
1741085460.6498682,-0.1389346299937417,0.4713865229609463,0.3034285055278166,0.43975223795421337,nan
1741085460.653772,-0.4594449322769064,-0.3016405908880042,0.20138428578735867,0.08798259324310903,nan
1741085460.6577039,-0.5597735500934551,-0.74736319516727,-0.10202880637395104,-0.35827988538060873,nan
1741085460.661608,-0.39196534559525387,-0.6097856572451258,-0.4146628045179408,-0.6249157603222523,nan
1741085460.6655118,-0.050047384922009296,-0.07279353317171901,-0.49309522713046366,-0.5342549018529905,nan
1741085460.669416,0.28671032646516953,0.4093016266017229,-0.23816987170036433,-0.130811864286306,nan
1741085460.6733198,0.45872137818838826,0.47023861686888496,0.20605701384752798,0.34196759263458704,nan
1741085460.677224,0.4115446478431461,0.10366491448532457,0.5419465442706295,0.6009584232761735,nan
1741085460.6811278,0.20912328839498182,-0.35286367761974,0.5358739050278806,0.5070334514153356,nan
1741085460.685032,-0.025971855829456044,-0.4986107221427351,0.19433252490948547,0.14564290283357956,nan
1741085460.6889358,-0.19551059015721597,-0.1910771708040133,-0.24222001077955965,-0.24568441735782884,nan
1741085460.6928399,-0.2710149872064047,0.3410067899593861,-0.4830276813207145,-0.44254224459137714,nan
1741085460.696744,-0.276753837041792,0.6764019964596136,-0.4009566385158211,-0.37120431814850907,nan
1741085460.7006478,-0.23811740720549424,0.5294789920829451,-0.1083060142931527,-0.1293260360424031,nan
1741085460.7045794,-0.1489945827054819,-0.026160627617378786,0.15689864077044294,0.10769034071959759,nan
1741085460.7084835,0.010264510441349213,-0.6077539727559436,0.229782478946382,0.21308052946348788,nan
1741085460.7123873,0.22301304215353396,-0.8052186699061963,0.1345077429271615,0.17626930038798447,nan
1741085460.7162914,0.40750821204974463,-0.4794720375870573,0.028280388670641383,0.07724605570710472,nan
1741085460.7201953,0.4486133084590768,0.1437403880861248,0.035849695823755384,0.005837895740932222,nan
1741085460.7240994,0.27747602820079276,0.6455702627679819,0.12887530967560584,-0.004482848545806463,nan
1741085460.7280033,-0.06036545757020701,0.7142297202914175,0.1590973794939875,0.015806911111346304,nan
1741085460.7319074,-0.4082702254078384,0.3501895819665591,0.013135856954709178,0.014637718687744083,nan
1741085460.7358115,-0.5825154169796841,-0.16335690782706216,-0.25521704336953777,-0.03260998409633439,nan
1741085460.7397153,-0.48393929424193116,-0.48393175063191846,-0.4429446319546993,-0.1049920071101949,nan
1741085460.7436194,-0.16003977732574567,-0.4495455453758723,-0.3618398937341945,-0.15448814810747588,nan
1741085460.7475233,0.22509263960862466,-0.1622775926994063,-0.011563110352196782,-0.13977090066382378,nan
1741085460.7514546,0.489465657265307,0.12581518974774972,0.3919906723527317,-0.05084520677254525,nan
1741085460.7553587,0.5310792281885883,0.21749165660009956,0.5690605873090276,0.08517647123537259,nan
1741085460.7592626,0.3640143477703275,0.10481299131169892,0.3914900482309278,0.2134634220377041,nan
1741085460.7631667,0.08342980004374335,-0.0568543871858308,-0.014546955172693506,0.2705410697468057,nan
1741085460.7670705,-0.19950926765534485,-0.09580332192036708,-0.3651538275451065,0.21097697294825274,nan
1741085460.7709746,-0.40221286995815586,0.03318448601308505,-0.4376348851529844,0.036309059554890985,nan
1741085460.7748785,-0.4767763761466856,0.21820834721541982,-0.23394724160778674,-0.1895387454924644,nan
1741085460.7787826,-0.3993912479507644,0.284938251881939,0.04190001883934671,-0.35768395064141906,nan
1741085460.7826865,-0.17405716398898588,0.13616099386104172,0.16734476201335313,-0.36793214004089003,nan
1741085460.7865906,0.1456314247318702,-0.1687853468481781,0.08730698100332908,-0.19265780095022977,nan
1741085460.7904944,0.44629822083788984,-0.4471521667578262,-0.054295321430233794,0.09319564423364993,nan
1741085460.7943985,0.58854131021334,-0.5095787341852893,-0.060516273885496526,0.34527019461211644,nan
1741085460.7983294,0.48117559175544655,-0.28098117592733035,0.1251328001238628,0.43213889274178285,nan
1741085460.8022332,0.14901942973641202,0.1472537001164347,0.3495914173975808,0.31354747606868577,nan
1741085460.8061373,-0.261673449342199,0.5591195332655824,0.3722424023251972,0.06019255433882,nan
1741085460.8100412,-0.5562218848851082,0.7238452247510636,0.08040080076573136,-0.19723059555988326,nan
1741085460.8139453,-0.5998359846992792,0.5184870593214584,-0.3842386422658922,-0.3491901527914141,nan
1741085460.8178492,-0.3888227897179118,0.005302101515374265,-0.7036187763149462,-0.35861005300100324,nan
1741085460.8217533,-0.03905071609465544,-0.5770018633769628,-0.6157251694536136,-0.25255240151414354,nan
1741085460.8256571,0.29220834711054416,-0.9167346446293215,-0.12283158544674459,-0.07763251295817596,nan
1741085460.8295612,0.4893794143167212,-0.7915904853512651,0.4892361287515081,0.12991511773406333,nan
1741085460.8334653,0.512239505370162,-0.21163108639510775,0.8406396248685777,0.33209489488134675,nan
1741085460.8373692,0.3758141844683154,0.5472708973427491,0.7158931316550435,0.45954772336733185,nan
1741085460.8412733,0.11762068375236473,1.0661032595871673,0.20228328359149111,0.4174209571405598,nan
1741085460.8452036,-0.20726820449315217,1.0171433671447874,-0.38415177524553396,0.15064283028328151,nan
1741085460.8491077,-0.5063795962904871,0.3791594159204836,-0.717465884062035,-0.27336531952526116,nan
1741085460.8530116,-0.6490972761985744,-0.5125855117732224,-0.6603284660558363,-0.6475633383826008,nan
1741085460.8569157,-0.5216213060322133,-1.1406199756986828,-0.3110630603207868,-0.7240484643528362,nan
1741085460.8608196,-0.11848013591287068,-1.1169433239027895,0.10554419528873399,-0.3858370597538213,nan
1741085460.8647237,0.40287531841693025,-0.4380574504134233,0.39689403190426986,0.23098519358698277,nan
1741085460.8686278,0.7733187605925526,0.4934171304411895,0.49114824996151074,0.7777749430267645,nan
1741085460.8725317,0.7643830013110099,1.1120080875845981,0.41731566604907966,0.9006452459211175,nan
1741085460.8764358,0.3478484647063145,1.0481823486666784,0.2329898515661281,0.4857975383689548,nan
1741085460.8803396,-0.2584158694337063,0.3654433372198914,-0.01731056071993874,-0.23586401029191337,nan
1741085460.8842437,-0.7103084179031066,-0.4864432906328449,-0.2839845392114181,-0.8186267609157125,nan
1741085460.8881476,-0.7540181258547061,-0.9722171907051352,-0.47902626412058713,-0.8928694494011685,nan
1741085460.892078,-0.3905238959427931,-0.8209098910563667,-0.4921590663878458,-0.4176918300666572,nan
1741085460.8959818,0.1311849853343471,-0.18735017284934277,-0.2680132904720607,0.28750997893765273,nan
1741085460.899886,0.48900375022372705,0.4774850250764759,0.11789639863087305,0.7609559623765609,nan
1741085460.9037898,0.5039454587049773,0.7460401450989685,0.4668085349882716,0.7136785289172028,nan
1741085460.9076939,0.2422357207677766,0.4954899366895762,0.5698146515559637,0.21842340413940645,nan
1741085460.911598,-0.06308275848238001,-0.03897569831544272,0.3548279094495229,-0.35857052531014366,nan
1741085460.9155018,-0.20034289837750613,-0.4587952082560958,-0.04753706400740115,-0.6261171480079109,nan
1741085460.919406,-0.12873025340049027,-0.49067635346037,-0.3824803830751213,-0.43821794121717556,nan
1741085460.9233098,0.019594361960339507,-0.1615477271521263,-0.44611257679159244,0.025280681548508415,nan
1741085460.927214,0.07191642107908872,0.2512684853128862,-0.2283818704600853,0.4122484073471037,nan
1741085460.9311178,-0.034531465887583206,0.43882349582052527,0.08619617452902523,0.4599381417247404,nan
1741085460.9350219,-0.20551212391043455,0.27969368448666193,0.26218516496145333,0.17028208005443332,nan
1741085460.938954,-0.27615366826289384,-0.09245495128554043,0.1909385208340662,-0.21796610305520162,nan
1741085460.9428582,-0.15191621323158447,-0.4035833474380389,-0.03462410340052073,-0.4210454339793308,nan
1741085460.946762,0.11242387566451324,-0.4379158525726088,-0.2037849174203909,-0.31323390462714634,nan
1741085460.9506662,0.35402997550334486,-0.17681481771027918,-0.1611887513808735,0.0035199045705508166,nan
1741085460.95457,0.4220936328814708,0.2066518049560067,0.06847410631673125,0.29650725968493,nan
1741085460.9584742,0.278363299954536,0.4742844467850877,0.30104990145760546,0.37660211666508076,nan
1741085460.9623783,0.007163145266306018,0.4725559582365343,0.33928016972561187,0.2182392997319477,nan
1741085460.9662821,-0.25605138543676326,0.21074631103853758,0.12770270912237627,-0.04927009898718335,nan
1741085460.9701862,-0.4083822361229623,-0.16433299102436014,-0.20386360323436406,-0.2516037568034787,nan
1741085460.97409,-0.4134024108708435,-0.46086876679013267,-0.4372774198424035,-0.28748127193837725,nan
1741085460.9779942,-0.28149549213579655,-0.5383862450603016,-0.42344153705719295,-0.17410018291264853,nan
1741085460.981898,-0.041833550157058016,-0.36268679868677195,-0.17932579752246183,-0.0062634831941796405,nan
1741085460.98583,0.25478302981112694,-0.009644021628801186,0.14068662241777388,0.12181502658634331,nan
1741085460.9897342,0.5130654086800089,0.3692320362240299,0.36322632917530706,0.1695983340391642,nan
1741085460.993638,0.5998570269492733,0.6038581816075314,0.40490304286704365,0.15053428888350984,nan
1741085460.9975421,0.41161215126662787,0.5727682323388061,0.29443947097121714,0.09775873915159565,nan
1741085461.001446,-0.030040220625638627,0.2627320588415418,0.11187546147997143,0.033088195986602426,nan
1741085461.00535,-0.5370403984587138,-0.2069590851528115,-0.08390681324474507,-0.0376387126104853,nan
1741085461.009254,-0.8299888755750017,-0.6208257991572317,-0.2712407542609656,-0.10870296984216726,nan
1741085461.013158,-0.7054472064296399,-0.7631092595259806,-0.42290284434598485,-0.16040717747511668,nan
1741085461.017062,-0.18640088640022923,-0.5328886699292484,-0.4666392161022316,-0.1630017972757522,nan
1741085461.020966,0.4611197166963601,-0.014136933580332649,-0.31237692455430216,-0.0966694103652639,nan
1741085461.02487,0.8756652013245658,0.5486443939206467,0.05707572479130915,0.027922804500025048,nan
1741085461.028774,0.8224891104600518,0.8676595891445911,0.5102011855620766,0.16429287874940146,nan
1741085461.0327058,0.3401719221161354,0.7636726180645879,0.795167799588823,0.2462408250632952,nan
1741085461.0366096,-0.2886051633884613,0.2688038197859913,0.6873751567502682,0.21992163812717766,nan
1741085461.0405138,-0.7187010262998141,-0.3797975147722232,0.1654474987588465,0.07755234867479656,nan
1741085461.0444176,-0.7490000712403965,-0.8562541919008175,-0.5224513330902013,-0.1259149329195684,nan
1741085461.0483217,-0.4185397714596799,-0.9129538165441446,-0.9787188121647658,-0.28870911857041587,nan
1741085461.0522256,0.05431931163015608,-0.5112821593785037,-0.9048049924980269,-0.31209641968654683,nan
1741085461.0561297,0.4250400415942593,0.15269948929821203,-0.3124049933999725,-0.16269668115176558,nan
1741085461.0600338,0.5542478065876832,0.7434402614242651,0.4598940350946451,0.09194116991978256,nan
1741085461.0639377,0.44322027930354635,0.9566065702924326,0.952573075030532,0.30793626403979213,nan
1741085461.0678418,0.18385002017693927,0.6796655208675833,0.8816032278745413,0.3481102976063466,nan
1741085461.0717456,-0.11154572193323367,0.057192961977608495,0.3215663913100399,0.17613772433648192,nan
1741085461.0756497,-0.34720211607315543,-0.5798370649291458,-0.35323076038092427,-0.10584178983634038,nan
1741085461.0795813,-0.4477655305907702,-0.8906917141280902,-0.7275307292627069,-0.3143586870541999,nan
1741085461.0834851,-0.365332977514751,-0.7148421754885242,-0.6197043351684509,-0.3079687875596992,nan
1741085461.0873892,-0.11047309136102686,-0.1660611803184708,-0.1801812942173994,-0.0920096162254146,nan
1741085461.091293,0.21819214733994985,0.43128852518618277,0.2463517664029386,0.1772663653228448,nan
1741085461.0951972,0.4544600296522621,0.7340810371632422,0.382483519585327,0.3020484584766409,nan
