timestamps,TP9,AF7,AF8,TP10,Right AUX
1741044588.8183644,0.1925195896455563,0.1929819719696716,0.44752751525398704,-0.08159990916580123,nan
1741044588.8222702,0.14372360003912754,0.5466405988716566,1.1145787799175417,-0.12793873774258602,nan
1741044588.8261762,0.03361672190922198,0.6148095017778714,1.1490557575271971,-0.06747490928530678,nan
1741044588.8300822,-0.11063574281471336,0.39171195044043133,0.5660683182983756,0.03544162166352354,nan
1741044588.8339882,-0.2409161648783079,0.015313706171738453,-0.25882797527017276,0.08617164528813628,nan
1741044588.837894,-0.2923293828596171,-0.3213023806711629,-0.8534968421259151,0.04413670069600296,nan
1741044588.8418,-0.2122057297863565,-0.4738074697755834,-0.9444136171581603,-0.044325788976988106,nan
1741044588.845706,-0.004180285307678244,-0.40716191052859024,-0.5834127467035826,-0.09048806432469317,nan
1741044588.849612,0.24781131784943666,-0.18924885330429989,-0.04801072488080235,-0.04378427690109135,nan
1741044588.8535178,0.4082092582136538,0.06371379068623519,0.37583965842515693,0.06221701358788234,nan
1741044588.8574238,0.3676222335438144,0.24946763785640488,0.5560563043875486,0.13734654397054233,nan
1741044588.8613298,0.12238776981262527,0.3166931221608704,0.5243776987094675,0.1113665879410152,nan
1741044588.8652377,-0.20482193926886802,0.2680765578856362,0.3729804791433134,-0.005755749956243911,nan
1741044588.8691435,-0.42951927357185316,0.14175007716444413,0.1569982932408682,-0.13000124199312463,nan
1741044588.8730495,-0.41991072644625704,-0.011316605896127067,-0.11171062906970229,-0.16979781918550957,nan
1741044588.8769555,-0.184495077921704,-0.1438580595586038,-0.397869159790942,-0.09749969223079834,nan
1741044588.8808615,0.1310870615751684,-0.221869689332027,-0.5951006008326668,0.03162606945612438,nan
1741044588.8847673,0.339455791484507,-0.2294919379535437,-0.5678416538713774,0.1256851322988839,nan
1741044588.8886733,0.3338755296844669,-0.1698697565976023,-0.26144036217240374,0.12762429521554228,nan
1741044588.8925793,0.15181538569567726,-0.061677488797164254,0.2162443472195867,0.05403421007615661,nan
1741044588.8964853,-0.06348492674501738,0.06687290094030503,0.6266143659314772,-0.026789518146762368,nan
1741044588.900391,-0.17193718760366883,0.18290624048442025,0.7398136200392748,-0.05509622128118701,nan
1741044588.904297,-0.1338808238383914,0.2516271394511784,0.4848884601152756,-0.02658275867347996,nan
1741044588.9082031,-0.025094511191856975,0.2413779805196964,-0.00041974382549895574,0.011323131532967195,nan
1741044588.9121108,0.03675827557258599,0.13662915498103764,-0.45650057529311,0.007266231768675956,nan
1741044588.9160168,-0.006968708922935851,-0.04343711978806369,-0.6605746124895256,-0.044802350225932715,nan
1741044588.9199226,-0.10800851085905913,-0.2351421276222479,-0.546299647663275,-0.09721947898760076,nan
1741044588.9238286,-0.15344674895670066,-0.34690037386738876,-0.213240676120674,-0.0883728912629045,nan
1741044588.9277346,-0.06382528215008046,-0.30513927941683294,0.15880491205995076,0.0020038851825941095,nan
1741044588.9316406,0.13157439054705147,-0.10678587601610413,0.4154435766375548,0.12761440553892034,nan
1741044588.9355464,0.3040357596781602,0.16030431335129489,0.4851430052166458,0.202642009540605,nan
1741044588.9394524,0.31607835804615264,0.35486209327324053,0.37526602102490014,0.16265527121607426,nan
1741044588.9433584,0.12700089623590916,0.3645537080182296,0.14095298391595237,0.014731937032928742,nan
1741044588.9472644,-0.1665278096513381,0.18169665975163413,-0.13687159924550166,-0.16052431846970414,nan
1741044588.9511702,-0.3878953893083,-0.08404469805182006,-0.3612462203982376,-0.2579978838767568,nan
1741044588.9550762,-0.3972891277518298,-0.27306190147513804,-0.4394168091332724,-0.21524331455665563,nan
1741044588.9589837,-0.18564040802760937,-0.2815998410371028,-0.32534450603627363,-0.05294375999647831,nan
1741044588.9628897,0.11982189011360726,-0.1309286850580559,-0.060957271062173836,0.13747219072746117,nan
1741044588.9667957,0.34063424893548033,0.052991916301796727,0.2261687913707995,0.2499252041893722,nan
1741044588.9707017,0.36177193779859856,0.13668340584394154,0.3864966419703928,0.22681930641638554,nan
1741044588.9746075,0.19723086145031962,0.0803013293419142,0.33984849715069104,0.08996274842467349,nan
1741044588.9785135,-0.03364137424561109,-0.036092001094218215,0.12874670013804343,-0.07768715497978002,nan
1741044588.9824195,-0.19484834412906873,-0.0833340899241395,-0.11042511095851412,-0.18500167809046772,nan
1741044588.9863255,-0.22058439512740943,0.004096732637983355,-0.2408281139041005,-0.18559691128086542,nan
1741044588.9902313,-0.14147254337736945,0.16499210820252563,-0.21410982853100965,-0.09856120788322562,nan
1741044588.9941373,-0.040850845870821405,0.2532365903599982,-0.08935700019646116,0.012582352054246978,nan
1741044588.9980433,0.016814015570642424,0.15648027117202665,0.02683167288362169,0.08514259075152113,nan
1741044589.0019493,0.027965830685011864,-0.10125811305716755,0.06582325668499696,0.09511647195649094,nan
1741044589.0058565,0.03445464144349875,-0.3587256519911351,0.03882906131229595,0.06355737494785489,nan
1741044589.0097625,0.07093758981643511,-0.4270762074285349,0.007870190735888204,0.030811690910757285,nan
1741044589.0136685,0.12421102898641408,-0.2311177768062669,0.019669427460107542,0.020781152660651978,nan
1741044589.0175745,0.14066383660756662,0.12550202274833674,0.06370496370002683,0.023405134646248077,nan
1741044589.0214803,0.0757059508916628,0.4240704668598266,0.0882694494754617,0.00846467867355388,nan
1741044589.0253863,-0.05770290286642362,0.4793608744759568,0.05407042262292237,-0.041352916934567246,nan
1741044589.0292923,-0.18531992617739404,0.26463475151745375,-0.026638350362735794,-0.10638184590969257,nan
1741044589.033198,-0.2207159342276351,-0.07670683543456545,-0.09998460791657451,-0.1373242801708624,nan
1741044589.0371041,-0.1311943542124884,-0.3366309848600202,-0.11701275849013106,-0.09196970821882017,nan
1741044589.0410101,0.03188232515818934,-0.3830424995457886,-0.07248173379579279,0.025615127434764323,nan
1741044589.0449162,0.16523216669994759,-0.23322349265817022,-0.002745589901352185,0.15572346312129684,nan
1741044589.048822,0.18672742873572176,-0.0157899658467007,0.049924933195347306,0.21580541918128407,nan
1741044589.0527294,0.09459244621883876,0.13660207656041287,0.06953127468449344,0.15608767833200138,nan
1741044589.0566354,-0.033180591093474675,0.1751811701273227,0.06654012159703887,-0.0009240760734185339,nan
1741044589.0605412,-0.09973494903446714,0.1416911500135317,0.05318328308599294,-0.16760186803820887,nan
1741044589.0644472,-0.06407920238164665,0.10405627717753609,0.026180891134428577,-0.2437986944030603,nan
1741044589.0683532,0.028489241241282763,0.0870701621876737,-0.021868594249154275,-0.18110545283389867,nan
1741044589.0722592,0.08462351977649378,0.05918041138606788,-0.07657037467149325,-0.015436153971625087,nan
1741044589.076165,0.04054511675706958,-0.019742166746558324,-0.0967914859129683,0.15453363682089966,nan
1741044589.080071,-0.08199444869863826,-0.1405095633441332,-0.04778465652755704,0.2290240884463296,nan
1741044589.083977,-0.18690205041058103,-0.2345857200031371,0.053644865347640215,0.16839848428145632,nan
1741044589.087883,-0.17597272270165132,-0.22457154350704608,0.13154873882953733,0.01500973819331736,nan
1741044589.0917888,-0.028025243745252483,-0.09191832753248246,0.10420232616304084,-0.13621235189223596,nan
1741044589.0956948,0.17623156326461836,0.09826485860005367,-0.03696083670443157,-0.19723260178997828,nan
1741044589.099602,0.3048496144465542,0.23901585453523103,-0.19510827165664976,-0.13827644552152257,nan
1741044589.1035078,0.26543898756202555,0.2566316635997933,-0.22739849915854377,-0.0012338332896916274,nan
1741044589.1074138,0.07053945560340881,0.1581502061216407,-0.06327931209828147,0.12934680118439532,nan
1741044589.1113198,-0.16916728096484884,0.015301272313756494,0.21376227113430898,0.17725306328248935,nan
1741044589.1152258,-0.3176343935470313,-0.09637352428406475,0.4024148585774871,0.11718912566911133,nan
1741044589.1191316,-0.2994238361915048,-0.14867351559748587,0.3285753740766266,-0.013513429802392288,nan
1741044589.1230376,-0.13993906678318263,-0.1610773157691759,-0.006661743628264215,-0.137975627649565,nan
1741044589.1269436,0.062453076792337206,-0.15821452388654772,-0.3997721303983255,-0.18342689597177478,nan
1741044589.1308496,0.2053810651402645,-0.13180956736543237,-0.5760089792680759,-0.1217537275084486,nan
1741044589.1347554,0.2406403527398369,-0.04826940717027817,-0.38993347505082177,0.014446674418607445,nan
1741044589.1386614,0.18527785135040836,0.10293581836298686,0.05758751928223697,0.14920168058507768,nan
1741044589.1425674,0.08903622602552858,0.2683682011192248,0.4815883423232806,0.20535032864015107,nan
1741044589.1464756,-0.007517849181059309,0.3450016984077673,0.612582220899936,0.14874955979573004,nan
1741044589.1503816,-0.09040189595368114,0.25081404678028735,0.3835092024474298,0.008846858346971905,nan
1741044589.1542876,-0.15857955197777096,-0.0009233997681499075,-0.03588859344573461,-0.13770551242987203,nan
1741044589.1581933,-0.20090707175656447,-0.28806493500570984,-0.3761148582902173,-0.2116415649159839,nan
1741044589.1620994,-0.19084757928375806,-0.4476076770394047,-0.4620458241248342,-0.1767326193882362,nan
1741044589.1660054,-0.10664260766501561,-0.3812184320357085,-0.3129867789609688,-0.0579211521800755,nan
1741044589.1699114,0.040852368593891825,-0.12162282608221765,-0.08409404916484255,0.07847135550760527,nan
1741044589.1738172,0.19921863388076338,0.1889147902321779,0.08198237372782785,0.16705972514887674,nan
1741044589.1777232,0.2961457901085272,0.39055639702066364,0.15794528245288694,0.17832571687191098,nan
1741044589.1816292,0.27874608731828077,0.399980388217699,0.20769264410932542,0.12431715637921122,nan
1741044589.1855352,0.14398688343059413,0.24283047818214618,0.2755034430652186,0.03748071326498098,nan
1741044589.189441,-0.05863464161991706,0.013764919497287318,0.3082072675993938,-0.0545902885762845,nan
1741044589.193349,-0.2506608044903976,-0.1917963740251384,0.1956502377750012,-0.13628790580249403,nan
1741044589.197255,-0.3576072740408183,-0.3185633929327782,-0.10167253702536959,-0.19157485406361593,nan
1741044589.201161,-0.33468699165168597,-0.3459068438065846,-0.4609448884436739,-0.19237795434694543,nan
1741044589.205067,-0.17986412309804717,-0.26414673483857076,-0.6449824318577644,-0.10956255567985529,nan
1741044589.2089727,0.0628973119621433,-0.07327110312674408,-0.47387134356036736,0.05444006090881793,nan
1741044589.2128787,0.3095042621084833,0.18798062027140022,0.01278979160247429,0.23970521306573853,nan
1741044589.2167847,0.4566686169495488,0.41911136758689654,0.5452034945581483,0.34294596570599206,nan
1741044589.2206907,0.4219362761333592,0.48638877912858797,0.7921118068131608,0.2773778323503675,nan
1741044589.2245965,0.19152724465571916,0.3064400998686995,0.5907314059894997,0.04257010341868533,nan
1741044589.2285025,-0.15259781132322742,-0.07063148727974801,0.06403199405116279,-0.2512144007804485,nan
1741044589.2324085,-0.4548869180509935,-0.4545461791368923,-0.4647602498050449,-0.4354247890659442,nan
1741044589.2363145,-0.559756904093986,-0.6142827589030025,-0.6944513470953787,-0.38797357216167827,nan
1741044589.2402222,-0.4006351225108505,-0.4299429741791839,-0.5373681674549537,-0.12057644940413367,nan
1741044589.2441282,-0.04806143064352545,0.010183203263420421,-0.14549771041325163,0.217400939931972,nan
1741044589.2480342,0.3211685968099036,0.44820167563163016,0.22795674330383403,0.4290513487671387,nan
1741044589.25194,0.5218225634879712,0.6173373586038722,0.40777524559523326,0.39586021028833784,nan
1741044589.255846,0.46562407750298146,0.4182173428671675,0.37992297502472716,0.15230250318378635,nan
1741044589.259752,0.2064194106560118,-0.014058188229035208,0.23934189609645995,-0.14301412695089583,nan
1741044589.263658,-0.10294088817992865,-0.4018574045496629,0.07844240860418682,-0.3173100602631987,nan
1741044589.2675638,-0.3096421598041211,-0.5117178202807228,-0.07377239450761816,-0.29459625420214375,nan
1741044589.2714698,-0.3468252531759815,-0.3041054571638457,-0.22040284470626806,-0.13037566755461133,nan
1741044589.2753758,-0.2514679855210452,0.055780472990030514,-0.32995191306786226,0.04700797505497612,nan
1741044589.2792819,-0.11240486111989889,0.32524480938158545,-0.3241129918480209,0.13580045823371173,nan
1741044589.2831876,0.0028688213563127234,0.3510986919255782,-0.1480712601985886,0.12334722485241695,nan
1741044589.2870965,0.08450509950688267,0.1579329457892954,0.1432655243148867,0.07048427534952027,nan
1741044589.2910025,0.15806023738065186,-0.09407277694337006,0.3818585280393161,0.042170061669184966,nan
1741044589.2949085,0.23268441672913878,-0.23592978695411757,0.3966001806612153,0.048994719174321306,nan
1741044589.2988145,0.27179949109777507,-0.20167961210907814,0.15720192506635794,0.048107691033755784,nan
1741044589.3027203,0.2160641502445991,-0.05084334198125143,-0.17642686236003113,-0.0034803284010674128,nan
1741044589.3066263,0.04090940856794211,0.0975036674269285,-0.3605793834957415,-0.09625337342080009,nan
1741044589.3105323,-0.20143674024118224,0.15539040485373418,-0.2582179638376402,-0.1666363804452435,nan
1741044589.3144383,-0.39569807640337673,0.11299998459478214,0.041736748659056716,-0.1496451948608087,nan
1741044589.318344,-0.4295667788332214,0.020805749564880037,0.2853472414666129,-0.039213148377127874,nan
1741044589.3222501,-0.26660995428765843,-0.061556398514208466,0.2577238106616617,0.09856354121439549,nan
1741044589.3261561,0.025845237812723038,-0.10214374477608212,-0.03253973356600955,0.17361755668958134,nan
1741044589.3300622,0.3128637570682952,-0.09811004226257611,-0.3459636122459799,0.14216067825198667,nan
1741044589.3339696,0.46593605035367386,-0.057576514052847395,-0.3993861614761952,0.03956670504809122,nan
1741044589.3378756,0.4261249832845876,0.009811057527689059,-0.10278215380410279,-0.05205199804059384,nan
1741044589.3417816,0.2217551450231458,0.08497704163614468,0.3484290973328465,-0.0734571375920298,nan
1741044589.3456876,-0.05866951891804563,0.13204673028746794,0.6096150811632347,-0.03492665321409352,nan
1741044589.3495934,-0.31112014897408413,0.11287667968189394,0.4522892088262221,0.00013142346460858262,nan
1741044589.3534994,-0.4511538279379546,0.0203504778568068,-0.04875644650352581,-0.02063439256522713,nan
1741044589.3574054,-0.431748544651589,-0.09986452998824563,-0.5569389179042336,-0.08440743999015139,nan
1741044589.3613114,-0.25232830453098,-0.16859150683843255,-0.7166450316261577,-0.11947879572302632,nan
1741044589.3652172,0.03466281542490789,-0.1293129139250746,-0.4131582407508761,-0.05986804422492365,nan
1741044589.3691232,0.32758153903531634,0.0008504309234433721,0.1462788224890801,0.08642433013736625,nan
1741044589.3730292,0.5042327383807202,0.13250241918455424,0.5867229720202309,0.22732828278802,nan
1741044589.3769352,0.4756647526559752,0.16636187863351884,0.633338930145261,0.25016871023625675,nan
1741044589.3808424,0.23977296925323213,0.0725174104679527,0.2927904854434354,0.11184203112192927,nan
1741044589.3847485,-0.10338793891846773,-0.07863559329667552,-0.17571022211823542,-0.11703350980117326,nan
1741044589.3886545,-0.3952181770209723,-0.16541806690280036,-0.46117424154160924,-0.2933513674492419,nan
1741044589.3925602,-0.50213359451176,-0.11087157717597933,-0.4148601682228805,-0.3007027112309249,nan
1741044589.3964663,-0.38816883006692365,0.049986830255118804,-0.12669789918180702,-0.13258953594173226,nan
1741044589.4003723,-0.12900785164566628,0.1898132349399874,0.17083459531367895,0.1029460463879811,nan
1741044589.4042783,0.1408267716224352,0.18602653378476727,0.28052492852135247,0.2599038999045476,nan
1741044589.408184,0.30928962707947455,0.021520833724618,0.1661242840495597,0.2538918804228845,nan
1741044589.41209,0.34050825818973945,-0.19233914260347607,-0.0500636951395699,0.11199972555740176,nan
1741044589.415996,0.26948349494735685,-0.29348579429497457,-0.19381691403061926,-0.05861033028053988,nan
1741044589.419902,0.15327082494586747,-0.19138815333274292,-0.16200583572837987,-0.15300686311374476,nan
1741044589.4238079,0.02504329533585211,0.05963227122765614,0.01823192838664093,-0.1371952787804455,nan
1741044589.427715,-0.1117431930376769,0.29374508549097006,0.2182285304247107,-0.056158978058315934,nan
1741044589.431621,-0.25153154059852745,0.3502690137287069,0.29326256543219753,0.015115252280264542,nan
1741044589.435527,-0.3548829731728466,0.18722239124704623,0.17119484868635867,0.03229802475352781,nan
1741044589.439433,-0.35477001820076387,-0.09105477282813268,-0.10041009891133544,0.0069937877620106495,nan
1741044589.4433389,-0.20421351495530327,-0.30914423821838694,-0.3709263148904921,-0.015996238248751984,nan
1741044589.447245,0.07129089616784617,-0.33996896202052507,-0.4638845064329715,-0.003097142264239244,nan
1741044589.451151,0.3633350069012419,-0.1819863142591253,-0.2832590072717361,0.0406180489078084,nan
1741044589.455057,0.5296688854040127,0.05451633068781499,0.10815713075311348,0.07974195299818393,nan
1741044589.4589627,0.47471336545597004,0.2312600197776667,0.4972658191878797,0.07999236067453566,nan
1741044589.4628687,0.20816574394400542,0.26901895318163027,0.6342212139514203,0.03442631202168994,nan
1741044589.4667747,-0.15691236422401889,0.17966772355036806,0.3966757889955652,-0.03434009054726715,nan
1741044589.4706807,-0.46308771399715637,0.034535468657347634,-0.10438650110113741,-0.09222611203370623,nan
1741044589.4745877,-0.5851055838600924,-0.09305543891084143,-0.5687053930618814,-0.1141647460974118,nan
1741044589.4784937,-0.48006031601282634,-0.16467586239900114,-0.6949162289095009,-0.0929094901025069,nan
1741044589.4823997,-0.19268222368896917,-0.1757018499537498,-0.39273543985574766,-0.03624430965382413,nan
1741044589.4863055,0.17227953828326098,-0.13439045197178984,0.1390751671914942,0.03841631508298101,nan
1741044589.4902115,0.487272868112053,-0.05001758372103478,0.5426755074486543,0.10661413698912055,nan
1741044589.4941175,0.6361522617122666,0.05984692330156882,0.556703616863852,0.14032635172616403,nan
1741044589.4980235,0.5473756756004441,0.15861364011947468,0.20791405492148035,0.11841306602425744,nan
1741044589.5019293,0.22754998676290847,0.19829180607234603,-0.21388106625462291,0.04175992256891323,nan
1741044589.5058353,-0.21914847864001713,0.14822229883490048,-0.38571140642666873,-0.059219433474951226,nan
1741044589.5097413,-0.6111735184468783,0.023104049614507773,-0.20774167860788456,-0.13614926574262887,nan
1741044589.513647,-0.7610789126533013,-0.11663430666019481,0.1220116792431672,-0.15039169089139537,nan
1741044589.517553,-0.5734383323924577,-0.19824330229353485,0.2807361789714237,-0.09808198885039973,nan
1741044589.5214615,-0.11274646439474255,-0.18138508323163374,0.10319023915621903,-0.012235593504541974,nan
1741044589.5253673,0.41089378343350463,-0.08125877682276234,-0.2635219555009009,0.06134033313291004,nan
1741044589.5292733,0.7441073954853398,0.04558829465470729,-0.47237236086202233,0.09559073840443161,nan
1741044589.5331793,0.7267084828587751,0.1389304778521967,-0.2742077263972048,0.09539282818354054,nan
1741044589.5370853,0.379631251825098,0.1662788413501906,0.2450268140166775,0.08233001921075121,nan
1741044589.540991,-0.1112550317565119,0.12868639886345276,0.6975624360897493,0.06680537502619259,nan
1741044589.544897,-0.5043656312919196,0.046468602798494935,0.6907236190046889,0.0356472612954703,nan
1741044589.548803,-0.6341949468030001,-0.054607005920126794,0.15672855045812167,-0.030430287687883625,nan
1741044589.5527089,-0.48525654347496483,-0.14429695886867758,-0.5580650970579856,-0.12435662638097063,nan
1741044589.5566149,-0.17225916093116103,-0.18459846784448364,-0.9345731403670335,-0.19826829655637154,nan
1741044589.560521,0.14544875293345158,-0.14056920255973784,-0.6762302641739576,-0.18853040466045887,nan
1741044589.564427,0.3506880367346887,-0.009132318387160025,0.05182031533082249,-0.06724430943635488,nan
1741044589.5683348,0.40545329539109487,0.15648155315309675,0.7348387035588108,0.12087989523116335,nan
1741044589.5722408,0.33303350532747256,0.25879168219192283,0.8917801308647103,0.2726250669885288,nan
1741044589.5761466,0.17896443419062463,0.21345706002014092,0.43387050710256014,0.2898980631068719,nan
1741044589.5800526,-0.01226574533984551,0.01880543286248209,-0.27892137611594503,0.1497452352431926,nan
1741044589.5839586,-0.19565944545313022,-0.21938411806916727,-0.7223698214296645,-0.07277014232304296,nan
1741044589.5878646,-0.31911334008467,-0.34217483890437,-0.6057171007540677,-0.24998496004259332,nan
1741044589.5917704,-0.3346618857526269,-0.245942896118555,-0.07316219656025315,-0.2850669601953458,nan
1741044589.5956764,-0.22728833411096538,0.030767160510106733,0.4363403970455165,-0.17336474305777813,nan
1741044589.5995824,-0.03633260344473688,0.31454884499886687,0.5441495184747885,0.0020927912653825147,nan
1741044589.6034884,0.15602638557371593,0.4074153309602259,0.21456301536939892,0.13461458402763873,nan
1741044589.6073942,0.26865804882181626,0.22871060103477117,-0.24858892119521941,0.16684910479897808,nan
1741044589.6113002,0.26772116426180953,-0.11589153670534376,-0.46737941716876324,0.11866530213405124,nan
1741044589.6152081,0.18010697223919483,-0.39712971138859693,-0.289824065999913,0.054402090247689425,nan
1741044589.619114,0.06458481625489566,-0.4196979337822081,0.11251657711187606,0.022337042101222,nan
1741044589.62302,-0.03393236209759635,-0.16316738338347986,0.4078504381647807,0.018203283770468693,nan
1741044589.626926,-0.10824882726034081,0.19878238563121095,0.3765099108653019,0.00042209339493628573,nan
1741044589.630832,-0.17284626381627133,0.41915117966980436,0.06886359779767705,-0.06057279490655484,nan
1741044589.6347377,-0.2269171193620066,0.3528000041137166,-0.2623003434249692,-0.14463786244512974,nan
1741044589.6386437,-0.23565553425034516,0.05818483867171252,-0.37672851822979636,-0.19005038525158732,nan
1741044589.6425498,-0.15328140296942472,-0.2490220318707687,-0.22421300169587918,-0.14183172850426842,nan
1741044589.6464558,0.027828295416277002,-0.35536156688667536,0.0472445928484701,-0.0006112812390994207,nan
1741044589.6503615,0.24573088208431423,-0.20330657235790062,0.23335534022289614,0.1681042706762399,nan
1741044589.6542675,0.38991048270331613,0.07392724635990892,0.2315243705047856,0.2725042245491893,nan
1741044589.6581736,0.36799817158629006,0.2594337529015435,0.09093172511068816,0.2522413482688874,nan
1741044589.6620812,0.1716757644615971,0.21830213336565832,-0.06087438571352006,0.11428035139278486,nan
1741044589.6659873,-0.1089924811663529,-0.003366072593394938,-0.12905264881264505,-0.07489375230106533,nan
1741044589.6698933,-0.3367370353046665,-0.21884561062254865,-0.10401981562149201,-0.22974318269999003,nan
1741044589.673799,-0.40863655679392275,-0.24735843677184957,-0.032481819658061614,-0.2885666292137706,nan
1741044589.677705,-0.3109470200397567,-0.0546693828246502,0.039658623620669395,-0.2347179059272611,nan
1741044589.681611,-0.11244316444111012,0.21808621505594553,0.09036162855049507,-0.09324512503747164,nan
1741044589.685517,0.09092172079216973,0.3582755036054479,0.10335488143917808,0.08435497320179414,nan
1741044589.6894228,0.23340210051280413,0.24069290111919378,0.05374086571405969,0.23569671777497653,nan
1741044589.6933289,0.29824504901494087,-0.07559086999383698,-0.06653609596070931,0.3027584876258614,nan
1741044589.6972349,0.2949681467257792,-0.3829098902158299,-0.205498286060078,0.25139883914239963,nan
1741044589.7011409,0.22762399182802634,-0.4673785487018292,-0.25248304515920156,0.09197785412976063,nan
1741044589.7050467,0.0894357573997839,-0.25695058358661904,-0.11519899228129629,-0.11371094380483583,nan
1741044589.7089543,-0.11093253656655709,0.12748555778682957,0.17762892964625235,-0.2736417548277679,nan
1741044589.7128603,-0.32070555507444726,0.45087702586481665,0.44845086173205495,-0.3114632436267569,nan
1741044589.716766,-0.44806426976718333,0.516320665604054,0.47456847272148023,-0.2111586124712407,nan
1741044589.7206721,-0.4093371186728545,0.2880442740997945,0.16567603397466665,-0.02850483776363038,nan
1741044589.7245781,-0.18821711201388489,-0.09296010066945168,-0.3275204048590485,0.14249991091773118,nan
1741044589.7284842,0.13848418563495907,-0.4040693724082667,-0.6843192227811334,0.22699242978111384,nan
1741044589.73239,0.4321585419387892,-0.4791994784848111,-0.636285212382772,0.20991075036609733,nan
1741044589.736296,0.562881525978207,-0.30079326436322745,-0.17769259850123087,0.1317368481930517,nan
1741044589.740202,0.4737994654769828,0.006170146053952523,0.40825797609447073,0.04654987184558414,nan
1741044589.744108,0.20191657727361184,0.26360845711617875,0.742813835427958,-0.020546723939218133,nan
1741044589.7480137,-0.148560318036025,0.34887852810904657,0.6229640344908893,-0.08089857990083181,nan
1741044589.7519197,-0.4541622174556322,0.25451999944981085,0.16062902404281745,-0.15111305797479818,nan
1741044589.7558272,-0.611892919325877,0.07057130509146263,-0.3171939895057717,-0.2153994084240702,nan
1741044589.7597332,-0.5613254357263596,-0.08731311789747302,-0.5218064406113859,-0.2213576686829722,nan
1741044589.763639,-0.29878122548352687,-0.15073011619821675,-0.4030818278938607,-0.12039445596802847,nan
1741044589.767545,0.1089113632362081,-0.12707683526110036,-0.14234707340587474,0.0779468897575191,nan
1741044589.771451,0.5230604363463981,-0.07395376835357774,0.03675801875448564,0.2870107818557339,nan
1741044589.775357,0.7676208623842369,-0.045996087347349605,0.06275714069680932,0.38526762239644324,nan
1741044589.7792628,0.7056630244419154,-0.054444722708018665,0.046477235994319556,0.29665615094703246,nan
1741044589.7831688,0.32503452126695476,-0.06521245698495767,0.13286549487788737,0.050889826734854954,nan
1741044589.7870748,-0.22600139740380712,-0.03190846209289043,0.3241214318701509,-0.22503481811445875,nan
1741044589.7909806,-0.6948603227910177,0.0626046780004556,0.44842792267584825,-0.38361383627346185,nan
1741044589.7948866,-0.8552055224571592,0.18533269539024413,0.3123275644472232,-0.3495690755570286,nan
1741044589.7987926,-0.6355893348371132,0.26632674000913104,-0.09895413991735169,-0.1628075546087162,nan
1741044589.8026998,-0.16006674532841242,0.23770527371889943,-0.5616025568055976,0.057591152400775676,nan
1741044589.8066058,0.33016525824115006,0.07644919342365221,-0.7628888956490587,0.1988396950927244,nan
1741044589.8105118,0.6217994943692414,-0.1718054587440387,-0.5430072734766904,0.2244114755760441,nan
1741044589.8144176,0.6410987801575301,-0.4014916608364433,-0.025106221377056617,0.17870281558160953,nan
1741044589.8183236,0.45958510735259905,-0.488637540758813,0.4773028064778935,0.129766876238208,nan
1741044589.8222296,0.20419603365698571,-0.35189740643153966,0.6950009120692131,0.10234763961232794,nan
1741044589.8261354,-0.044786717519250285,-0.00771849934611167,0.5803919205033022,0.05922199774497831,nan
1741044589.8300414,-0.2820316438490111,0.41172790666275083,0.287771547909617,-0.05290648153049252,nan
1741044589.8339474,-0.5161757797048946,0.7009014629822365,-0.0011739198798262683,-0.2325990794616698,nan
1741044589.8378534,-0.6885527571432098,0.6790004578674776,-0.22825925878403788,-0.39236751403551096,nan
1741044589.8417592,-0.664977027690343,0.30111075101255375,-0.4438143235973554,-0.40342653775135695,nan
1741044589.8456652,-0.33225193284017424,-0.2848596220606354,-0.657411618807818,-0.19232847586813384,nan
1741044589.8495724,0.26864188311987347,-0.7878012315860883,-0.7305442960107256,0.18167857877105356,nan
1741044589.8534782,0.8926451339965666,-0.9233477846402629,-0.4574776301441451,0.5344940211437853,nan
1741044589.8573842,1.1957451595395796,-0.5862656585485967,0.20735016253074598,0.6585491144229962,nan
1741044589.8612902,0.9476114663551172,0.06560735719299893,0.9891760736780034,0.45622504696674626,nan
1741044589.8651962,0.20685401455375055,0.6855626617491338,1.3952503314557816,0.013722099139723689,nan
1741044589.869102,-0.6778135981181421,0.9395532937720759,1.057206271135928,-0.44102452953531235,nan
1741044589.873008,-1.259767280203466,0.7101318739380422,0.05646606921160609,-0.6740099397497921,nan
1741044589.876914,-1.2576454029916382,0.16362703142659077,-1.056082920895442,-0.5850785643669076,nan
1741044589.88082,-0.7112654001773944,-0.3704115850993473,-1.6086533141513453,-0.2575620424018318,nan
1741044589.8847258,0.071234683453479,-0.623702238689953,-1.2795287420329726,0.11357532841042976,nan
1741044589.8886318,0.7241876591732462,-0.5534467469532092,-0.321203722243328,0.35868125264467604,nan
1741044589.8925378,1.0324351381881425,-0.3253297172305558,0.6463356091628766,0.4323280246371761,nan
1741044589.896446,0.9939192418367085,-0.13712054093951453,1.1053853224405534,0.4028849018300894,nan
1741044589.900352,0.7224118044877237,-0.037372282528941064,0.9858906032648864,0.35045405117167944,nan
1741044589.9042578,0.30684618933034635,0.09688946596351351,0.6096766624957206,0.26853833537158167,nan
1741044589.9081638,-0.23269936784694284,0.3940050134796201,0.3120077766452372,0.06585431454799819,nan
1741044589.9120698,-0.8557139288623065,0.7797494193774697,0.10912735054588509,-0.31930531818560115,nan
1741044589.9159756,-1.3822391722784448,0.9396716815908945,-0.26137525759247826,-0.7866054366277409,nan
1741044589.9198816,-1.4977929280635836,0.541473712558986,-0.9538645381529827,-1.0569595991724416,nan
1741044589.9237876,-0.9404316388255922,-0.4243273408878892,-1.6637444004785147,-0.8310503034611172,nan
1741044589.9276936,0.24297362926954874,-1.4784983007304635,-1.7151771086189616,-0.03793947081008413,nan
1741044589.9315994,1.585831559038843,-1.8733650629775576,-0.6179983115996976,1.0148488723833333,nan
1741044589.9355054,2.3811731987224345,-1.120255611527788,1.3400681488016366,1.7441792584117912,nan
1741044589.9394114,2.088065202291478,0.543138346598431,3.0343574730869727,1.6312781501667595,nan
1741044589.9433193,0.7092638346638181,2.1498865875125266,3.176593750430949,0.5915735666148545,nan
1741044589.9472253,-1.1345566199197006,2.574721208336009,1.3045192170147426,-0.8943641225124147,nan
1741044589.9511313,-2.5198333684228342,1.3440960784966367,-1.6810705269040698,-2.0197991208507537,nan
1741044589.955037,-2.7415249432798143,-0.9033745983104607,-3.949730987029015,-2.1351996583191513,nan
1741044589.9589431,-1.7078129651503993,-2.7208469128924766,-3.9456949579879943,-1.1600414478009888,nan
1741044589.9628491,0.04039358117259639,-2.8059323686771465,-1.5249002057486327,0.36386136957478643,nan
1741044589.9667552,1.6741281041424056,-0.9685285075774553,1.8436054372165869,1.6200917124415726,nan
1741044589.970661,2.5333430013446883,1.615586015705425,4.0276520449603135,2.0228873133097456,nan
1741044589.974567,2.399627639541961,3.138838104467534,3.6870060271171523,1.5264859609167334,nan
1741044589.978473,1.4613730510238212,2.437150571259675,1.1825708101320747,0.5422445295163099,nan
1741044589.982379,0.08940034254972151,-0.09729754908113131,-1.7253509537941758,-0.4271548424702585,nan
1741044589.9862847,-1.347933223244056,-2.684591255120506,-3.1574598899733957,-1.1167076104690767,nan
1741044589.9901927,-2.5026848993754953,-3.3763378377330833,-2.4183326004475947,-1.5309817933023993,nan
1741044589.9940987,-2.9811504494732417,-1.5006704411702931,-0.3713290625529222,-1.7019937530314468,nan
1741044589.9980044,-2.3925417282734336,1.731385479756863,1.3404987121523526,-1.4615142040201348,nan
1741044590.0019104,-0.6086420842161291,3.979293265073472,1.5790767085639523,-0.5199190555242946,nan
1741044590.0058165,1.9183305923700733,3.430035332596362,0.5039831998278881,1.1448778975493625,nan
1741044590.0097225,4.101845161281662,0.19447902045448245,-0.6964365350912447,2.932106238612638,nan
1741044590.0136282,4.651227219814236,-3.611042300490895,-0.8587306094297739,3.7236629261764365,nan
1741044590.0175343,2.853274859195883,-5.251988401008063,0.1872379185595657,2.562820987298255,nan
1741044590.0214403,-0.7786023366988845,-3.3157717349055633,1.4964592801074206,-0.49191396287467976,nan
1741044590.0253463,-4.517406761941715,1.1703188357490626,1.8000550047577895,-4.024266100332651,nan
1741044590.029252,-6.259630518630669,5.298157552979045,0.5606090385247943,-5.877595579864477,nan
1741044590.033158,-4.775938794188512,6.204268319865886,-1.5404701783618384,-4.506216524670715,nan
1741044590.0370657,-0.5935169032389764,3.0609353622246567,-3.053164572107065,-0.19627345164354676,nan
1741044590.0409718,4.13275986107769,-2.262653578338591,-2.796744236036487,4.784943260789745,nan
1741044590.0448778,6.789404210478117,-6.370809995699887,-0.7160693694589174,7.411147464577144,nan
1741044590.0487835,5.844954800382324,-6.577817627088359,2.043835403442224,5.82093521981502,nan
1741044590.0526896,1.7982320955153996,-2.696653944725192,3.861732962674457,0.6728932965808289,nan
1741044590.0565956,-3.089767659414418,2.8333723132285837,3.6407763850810286,-5.073866886835028,nan
1741044590.0605016,-6.13330772068327,6.55527235858579,1.4391473404370887,-7.937231640637677,nan
1741044590.0644073,-5.792891363627111,6.237892539389033,-1.6047580495781797,-6.1365214818492015,nan
1741044590.0683134,-2.5041001786932044,2.2523418174682455,-3.9244500117881422,-0.7770901571011054,nan
1741044590.0722194,1.7118330959660548,-2.7895245432826985,-4.335735241020277,4.835890193442965,nan
1741044590.0761254,4.5408868076835,-5.811003746451157,-2.5945656779502575,7.323142083049155,nan
1741044590.0800312,4.712525244173713,-5.219350547927617,0.505920487309818,5.37704470427309,nan
1741044590.0839388,2.5673562721934573,-1.754427521853252,3.4907027489615277,0.49901467278672035,nan
1741044590.0878446,-0.3895694199419129,2.2145313279905405,4.860801742941129,-4.119001153957976,nan
1741044590.0917506,-2.5320130544236066,4.338362252536788,3.8147266179642245,-5.744034528112076,nan
1741044590.0956566,-3.024123836924832,3.7188382307009378,0.7281700390386282,-3.7944153893080212,nan
1741044590.0995626,-2.0782828423842377,1.2292695649650318,-2.898908327621995,0.01954187139427608,nan
1741044590.1034684,-0.5496706057045484,-1.3282330517208776,-5.126913983204808,3.0703738519480335,nan
1741044590.1073744,0.7182066452950457,-2.5077322200304693,-4.634298825341732,3.634828460625241,nan
1741044590.1112804,1.3235991346402272,-2.036473135817998,-1.567193108128314,1.8818945608078388,nan
1741044590.1151865,1.3167797184245442,-0.707968805402777,2.4062354026067125,-0.5484039419055464,nan
1741044590.1190922,0.9418801221101709,0.4037735378921859,4.998927265368778,-1.9056603874033384,nan
1741044590.1229982,0.4045745662175628,0.7378316695928456,4.688806741020289,-1.551798444415011,nan
1741044590.1269042,-0.16716271722046788,0.48822841612817536,1.7034991678292573,-0.19867488359850669,nan
1741044590.1308117,-0.6359786212802343,0.22920462479329706,-2.0903248215123216,0.8672355096195894,nan
1741044590.1347175,-0.8229524291417103,0.3257946632249681,-4.3770348037419655,0.8550069876050636,nan
1741044590.1386235,-0.6173845610556757,0.6314748734988583,-3.8854691678715327,-0.008966458259033238,nan
1741044590.1425295,-0.12654236286176787,0.6804952006970043,-1.1682134081574482,-0.8267383632886871,nan
1741044590.1464355,0.32150045876570926,0.16348316195747012,1.86250846509647,-0.8551797443537036,nan
1741044590.1503413,0.39316848610314004,-0.7359619479164362,3.289989549064173,-0.09979506458659253,nan
1741044590.1542473,0.03655967504000983,-1.4271229600058604,2.4610843349571407,0.7697547567484748,nan
1741044590.1581533,-0.41803083925120216,-1.3519545484762334,0.28622337668468023,1.0375221529741787,nan
1741044590.1620593,-0.482834280978427,-0.4310407248773451,-1.5701871303935107,0.5338931846784399,nan
1741044590.165965,0.07270303982159551,0.8310220798540447,-1.9387943792913107,-0.2785231520762986,nan
1741044590.169871,0.9502243899094582,1.6645621543982045,-0.8925377980410364,-0.7465112687191137,nan
1741044590.173777,1.4592454023567123,1.547937933900603,0.5000162114589728,-0.5802333555184207,nan
1741044590.1776843,1.0189087966057304,0.5521569472775046,1.1205734878553786,-0.04836035698265489,nan
1741044590.1815903,-0.333746392837883,-0.7137483781399655,0.6522821993414452,0.31703915583216546,nan
1741044590.185496,-1.8435579268388136,-1.5031925859083681,-0.30349249322552435,0.21347305414377932,nan
1741044590.189402,-2.483299001845262,-1.3975129573871914,-0.846258016359742,-0.18085523405750056,nan
1741044590.193308,-1.6687120084636637,-0.534534514123872,-0.5523413400625258,-0.40193001863563427,nan
1741044590.1972141,0.2694536454068461,0.5226940497113813,0.23587123260277854,-0.14780875770339647,nan
1741044590.20112,2.2255566245027825,1.1603397159400208,0.7896265872242345,0.4263057046530125,nan
1741044590.205026,3.0095637983612975,1.0767638846550494,0.655968464968187,0.8266144886677987,nan
1741044590.208932,2.1232036868257573,0.417669388046839,0.016863956990209573,0.6481564670954837,nan
1741044590.212838,0.0853681675468672,-0.3669204266429097,-0.5322198405958305,-0.06044806599272876,nan
1741044590.2167437,-1.9131353639432236,-0.8215849382094054,-0.5427900157233834,-0.8100095130225824,nan
1741044590.2206497,-2.7748209164111834,-0.7444704073364343,-0.09661860346026364,-1.053014399356094,nan
1741044590.224557,-2.1511868706723356,-0.2634669058983738,0.3145961731762813,-0.6161621636747808,nan
1741044590.2284627,-0.5667424521112824,0.2860376195890626,0.27566109438717634,0.17212166000227178,nan
1741044590.2323687,1.0144466718862029,0.5821296438213893,-0.1573964796720263,0.7540543336510701,nan
1741044590.2362747,1.8252299235958336,0.4962019276527295,-0.5137322350742448,0.7789408650368875,nan
1741044590.2401805,1.6885178529952818,0.13641164730921335,-0.358475867695744,0.3446552358219915,nan
1741044590.2440865,0.9553878637577735,-0.2496164383456288,0.27626570701531206,-0.13634463612583317,nan
1741044590.2479925,0.12969487165149068,-0.43721879209950765,0.8775982622927292,-0.3079779710054529,nan
1741044590.2518985,-0.48353065613563057,-0.3499897947994861,0.8812354458785041,-0.15283941790558403,nan
1741044590.2558043,-0.8574048104018611,-0.08051066680361839,0.1747186759274941,0.04443085906370402,nan
1741044590.2597103,-1.068138191909912,0.19109344872891412,-0.7668525159851947,-0.0019753413038581945,nan
1741044590.2636163,-1.09232361224454,0.31746070693064415,-1.2409901652885102,-0.2938800844344911,nan
1741044590.2675223,-0.7902386871367019,0.26374598978992786,-0.8780198371800171,-0.5357554466038319,nan
1741044590.2714305,-0.08768344188063658,0.10296547714599395,0.06412211833775647,-0.40454811460674983,nan
1741044590.2753365,0.831578634541884,-0.05598235210652042,0.9094763406549604,0.13593038257604134,nan
1741044590.2792425,1.5338840051001505,-0.14676451243901262,1.0946859134653657,0.7556887804074894,nan
1741044590.2831483,1.5843990945092765,-0.1729640978273895,0.5809057980126021,0.9942138082707973,nan
1741044590.2870543,0.8617211491367203,-0.1726756297497938,-0.17358156152818263,0.6234447198196844,nan
1741044590.2909603,-0.31049825110035073,-0.16080156093283943,-0.6221669052814727,-0.1583914426591916,nan
1741044590.294866,-1.3330758708920358,-0.10629881415640396,-0.5553542333336159,-0.8602442796164308,nan
1741044590.298772,-1.691650949600981,0.031019879505675946,-0.19674401479240816,-1.0516980640561309,nan
1741044590.302678,-1.2557726842246326,0.2355739484576115,0.06885275294654365,-0.6581395070269659,nan
1741044590.3065841,-0.3184049851943272,0.4067170593350366,0.05856887326390257,0.021504112247487713,nan
1741044590.31049,0.624581277194054,0.40675311347302295,-0.08160574471700363,0.5635949498318211,nan
1741044590.314396,1.1751592569467313,0.164672040690301,-0.07426868538716343,0.7196659867785375,nan
1741044590.318305,1.2072782128208461,-0.24100653837884967,0.17965215604956877,0.5363369629458038,nan
1741044590.322211,0.8361011793102099,-0.5955675382890669,0.48100011336888204,0.23532681188877336,nan
1741044590.326117,0.2674226650816525,-0.6686598420019024,0.514092604543215,-0.0055712767194378435,nan
1741044590.330023,-0.32401091329062914,-0.3702433967906342,0.15547204568172154,-0.16923936297873113,nan
1741044590.3339288,-0.8102346174356752,0.1675961474348243,-0.3826260960855554,-0.33101815778872024,nan
1741044590.3378348,-1.0662363592296067,0.6508909584240723,-0.712285924906017,-0.5026716430031187,nan
1741044590.3417408,-0.96832495425717,0.7978728768553173,-0.5922991913801855,-0.5626344656464743,nan
1741044590.3456469,-0.476653421715734,0.5160343094287781,-0.12496966299003624,-0.35577144719351506,nan
1741044590.3495526,0.2668145282593198,-0.03630852284183237,0.34327953270766437,0.12498194856214266,nan
1741044590.3534586,0.9421387997933655,-0.5467763061484934,0.5185407321410497,0.654713508692038,nan
1741044590.3573647,1.2046947604285607,-0.7404196006457141,0.3819238841260734,0.8956703507383359,nan
1741044590.3612707,0.9026114226207778,-0.5402905908342263,0.14730338914009133,0.6459268231346202,nan
1741044590.3651783,0.1958087180221729,-0.09642601560137745,0.017506859168714105,0.017831689045331847,nan
1741044590.3690844,-0.5297915806712297,0.32559601268546073,-0.011252929162444008,-0.6121911918886931,nan
1741044590.3729904,-0.9059069390967476,0.513301537227132,-0.10350197215440338,-0.8603179236400612,nan
1741044590.3768961,-0.809594765461364,0.4208425644403318,-0.3497796486971093,-0.605722133477395,nan
1741044590.3808022,-0.408936327713043,0.16372185948925033,-0.5944688426720496,-0.06531059665246099,nan
1741044590.3847082,-0.0016450105998683353,-0.08330681321547861,-0.5314190372373289,0.3828300339208197,nan
1741044590.3886142,0.21692599041425895,-0.20327249231542777,-0.012418916499605071,0.48414305139151226,nan
1741044590.39252,0.26990017291689133,-0.19081513991836913,0.7193873341497761,0.27596228032452713,nan
1741044590.396426,0.3153094911636278,-0.12080860670504465,1.1320036878028628,0.015568335333061395,nan
1741044590.400332,0.4491844523139734,-0.07160680857360503,0.8152526743987885,-0.058820148738801585,nan
1741044590.404238,0.5775550383262473,-0.06613542576892974,-0.12997255871470847,0.07050979263598071,nan
1741044590.4081438,0.48043614666512563,-0.0689196398103785,-1.0842933993307857,0.20214876387897998,nan
1741044590.4120514,0.024285332359550597,-0.029760458548744092,-1.346509942173226,0.11175631154737992,nan
1741044590.4159575,-0.6566747258501192,0.0669937512088509,-0.6890217503833892,-0.22732863817144358,nan
1741044590.4198635,-1.180204392463971,0.18499083016339984,0.42913134715686085,-0.5888458848450291,nan
1741044590.4237695,-1.153527058224086,0.2582635345689532,1.1954013927838376,-0.6571607911320234,nan
1741044590.4276752,-0.46753684704900716,0.2328047406768839,1.0748325797418998,-0.2838670623397696,nan
1741044590.4315813,0.5738276383249634,0.09872076739803028,0.22695114307589123,0.36616056075289155,nan
1741044590.4354873,1.4024902167801416,-0.1029268785828762,-0.6408920966025116,0.8998377106169188,nan
1741044590.439393,1.5287396766738521,-0.2963847478839705,-0.865753401609705,0.9568957966422319,nan
1741044590.443299,0.8515953691870635,-0.3992868403021764,-0.3696496091958616,0.4601814927547536,nan
1741044590.447205,-0.2699107032399899,-0.35295638555981085,0.3096290488479912,-0.32191805596141704,nan
1741044590.451111,-1.229578978324006,-0.14907277144372286,0.5203354209765987,-0.9415161755836691,nan
1741044590.4550169,-1.5294453059949684,0.15479467849119824,0.09091280871823486,-1.0487413350817119,nan
1741044590.4589245,-1.0533805756841614,0.44254786263311147,-0.5115341599162982,-0.5971626384478615,nan
1741044590.4628305,-0.10241654924109067,0.5784751090227286,-0.6112155200658093,0.14532155357750484,nan
1741044590.4667366,0.8055210156671527,0.4704015600028659,0.02783030784338972,0.7692778733107329,nan
1741044590.4706423,1.230850555089142,0.1286022001224838,0.9187342066611834,0.9600103581657301,nan
1741044590.4745483,1.0276500586211696,-0.3170617594318241,1.2217949469720826,0.6565284772887897,nan
1741044590.4784544,0.3765147214105823,-0.6636276026338789,0.4858788718289958,0.057025966301664635,nan
1741044590.4823604,-0.35180602555265195,-0.7312017703776125,-0.8742651313843028,-0.5104058436888532,nan
1741044590.4862661,-0.8043434415303555,-0.4607521191135818,-1.8166382836705732,-0.7670242607643046,nan
1741044590.4901721,-0.8121489112363495,0.042755369161298726,-1.4873550281709278,-0.61753282110856,nan
1741044590.4940782,-0.4438302741658792,0.5516918350288312,0.036111927949592566,-0.17989993446537839,nan
1741044590.4979842,0.06070569392766495,0.824541987145249,1.7089347210396681,0.29288329865539814,nan
1741044590.50189,0.4301296548042157,0.7262129955900863,2.2731487358529323,0.5532305958029152,nan
1741044590.5057974,0.5023568931933127,0.29662165479568237,1.2346575482948199,0.4886344798723554,nan
1741044590.5097034,0.29734883173370197,-0.26776590230543,-0.7141163021560117,0.1733502313028103,nan
1741044590.5136092,-0.01300807805783676,-0.7087692680538252,-2.183707721919528,-0.18552892191931067,nan
1741044590.5175152,-0.21975336571501497,-0.8289659645459949,-2.1260352973357173,-0.3766547284748795,nan
1741044590.5214212,-0.20886064589189557,-0.5819153241753536,-0.6175322228409872,-0.31066363080506226,nan
1741044590.5253272,-0.028237770334490295,-0.08887528288842649,1.2189708915968085,-0.06557332512532776,nan
1741044590.529233,0.15517274256793864,0.42267304362875135,2.080467152052376,0.17665706385595756,nan
1741044590.533139,0.1807772197204018,0.7270699155580181,1.452032558709354,0.25768871290705325,nan
1741044590.537045,0.014933835324359003,0.7032586438086116,-0.06781349723769528,0.1457043122402267,nan
1741044590.540951,-0.22143151580487563,0.384384335209991,-1.3005698634480831,-0.056261961032149484,nan
1741044590.5448568,-0.3414140246829393,-0.06754966652941675,-1.4178956402318763,-0.19646087913353644,nan
1741044590.5487628,-0.23349180968381644,-0.44677493238618793,-0.5239464817230672,-0.1861091443092221,nan
1741044590.55267,0.050245890119525495,-0.6033873669912976,0.5340637612544257,-0.053042871424279325,nan
1741044590.556576,0.3273233111790955,-0.5057137172521982,0.9135781752171079,0.09619135645795311,nan
1741044590.560482,0.4160125712144637,-0.23592418073479485,0.44242961345224385,0.16613699396047285,nan
1741044590.564388,0.26527379560965136,0.0709892060497621,-0.3228959309900504,0.1378463801453292,nan
1741044590.5682938,-0.014617511529796016,0.3020958263886044,-0.6411500651274076,0.061818299855406815,nan
1741044590.5721998,-0.24096771412144946,0.4087287756293878,-0.23683269791689882,-0.0036487154401226543,nan
1741044590.5761058,-0.2941500149933418,0.39767309990466804,0.4905663043190086,-0.04541120964094599,nan
1741044590.5800118,-0.19304315895556015,0.29269778709097993,0.8452833609856033,-0.09064618561318752,nan
1741044590.5839176,-0.05619245710330184,0.10825340343676404,0.45147519709538547,-0.15420639412029824,nan
1741044590.5878236,0.010837399875573504,-0.13881324819044163,-0.4213670364677854,-0.19692904834552383,nan
1741044590.5917296,0.0028851384630771935,-0.3940188879419718,-1.083087790836767,-0.145842251997543,nan
1741044590.5956354,0.003965095077998438,-0.5512068375276893,-0.9899194086510031,0.03222704853547994,nan
1741044590.5995426,0.09123556227434211,-0.49474095936174334,-0.1774481438338946,0.2696899842733273,nan
1741044590.6034486,0.2426524297908964,-0.18507832645168312,0.7802926159159559,0.4163866784466132,nan
1741044590.6073544,0.3350896574557664,0.27438595991511866,1.2235040190996058,0.3403554371568582,nan
1741044590.6112604,0.24232877902357033,0.6567448066060934,0.8890279612384534,0.0391982516931936,nan
1741044590.6151664,-0.04578925552344962,0.7311559530791122,0.054097173166189005,-0.3310218967741133,nan
1741044590.6190724,-0.38567947674605796,0.4169893105863952,-0.7233787520463748,-0.5452961719528705,nan
1741044590.6229782,-0.564276047034451,-0.13641425344223257,-1.015870482303191,-0.4606116401851791,nan
1741044590.6268842,-0.44742648616395214,-0.6176719159535764,-0.7634459429357153,-0.1181740396849846,nan
1741044590.6307902,-0.08062647745845608,-0.7424625890431861,-0.20772977867714476,0.28082340115637716,nan
1741044590.6346962,0.3350233830636158,-0.442622289530081,0.34490574391024165,0.5091783481496325,nan
1741044590.638602,0.5736086130621012,0.08043081184060234,0.7010440539636941,0.45895428704435887,nan
1741044590.642508,0.5249401316833395,0.48673302432613663,0.7904540502117109,0.1951489321978796,nan
1741044590.6464162,0.2466154113648492,0.5298756286113403,0.5908275630684234,-0.11089454856170051,nan
1741044590.6503222,-0.09728669730183553,0.22648953322081117,0.11333846133617645,-0.30595188200454626,nan
1741044590.6542282,-0.35059916109097067,-0.16304212096775328,-0.5171675736797439,-0.33989236624091956,nan
1741044590.6581342,-0.4434221947164639,-0.3334395172181621,-1.0086840600768425,-0.25835877283285014,nan
1741044590.66204,-0.3899887983001651,-0.16783785512666044,-1.015139508320379,-0.13137659832631976,nan
1741044590.665946,-0.23483330018236112,0.17155196503961817,-0.3972843510811848,0.006796071878902164,nan
1741044590.669852,-0.012569760420761656,0.37000942660064695,0.5756738110730981,0.1549870478662051,nan
1741044590.673758,0.24193249212488896,0.21354041054646006,1.3082938955608725,0.295871782078533,nan
1741044590.6776638,0.4579815215465166,-0.22485235473052317,1.2608965853139624,0.3641110640151363,nan
1741044590.6815698,0.5268020335446474,-0.6172531743227506,0.3735612621273854,0.2791716496651057,nan
1741044590.6854758,0.3623005964032194,-0.6203407607240501,-0.8161246442999038,0.02447263056357885,nan
1741044590.6893818,-0.012508045493791545,-0.1487895542587964,-1.505811812313784,-0.2994207784891624,nan
1741044590.6932898,-0.4329340692928659,0.5279092177954785,-1.1997777673938095,-0.5098718674948931,nan
1741044590.6971955,-0.6654087572992305,0.9522863922450879,-0.0906683256955839,-0.45752797371535603,nan
1741044590.7011015,-0.5543372399889057,0.8001468310193985,1.0576211975303165,-0.14128127059976267,nan
1741044590.7050076,-0.14111045156795932,0.1247473936620566,1.4569834895166445,0.2693875733775779,nan
1741044590.7089136,0.34146305700984103,-0.6599772111296167,0.8640276272975027,0.5328526826240619,nan
1741044590.7128193,0.6105351988495953,-1.054096358208896,-0.25999770563458274,0.49142694089892114,nan
1741044590.7167253,0.5183074341357576,-0.8119764937958714,-1.112010077178278,0.17555492358116867,nan
1741044590.7206314,0.14931293501820359,-0.10582166663904626,-1.1424856875147464,-0.217648264731794,nan
1741044590.7245374,-0.24224866128002348,0.6020815373724571,-0.4256967931093286,-0.45487852285877034,nan
1741044590.7284431,-0.41115164211139477,0.8817859374426084,0.45707696371413165,-0.41368824566910456,nan
1741044590.7323492,-0.2866805666873926,0.6185871121403222,0.8931148395652031,-0.14773602879329056,nan
1741044590.7362552,-0.0069769976138138335,0.059070175350139295,0.6794376866560018,0.16453895510433592,nan
1741044590.7401628,0.19730732974281348,-0.3969308875932521,0.10008969068535567,0.34140050179567577,nan
1741044590.7440689,0.17866648034297233,-0.4903094901283384,-0.37182603405221687,0.30364208186077524,nan
1741044590.7479749,-0.023558745212375335,-0.2623438825940249,-0.4623815168145277,0.10292592440742289,nan
1741044590.751881,-0.2240398998709449,0.025170526345699315,-0.2549101376324617,-0.12909228636395578,nan
1741044590.7557867,-0.23973901748979987,0.12648475246785004,-0.028368467028134493,-0.26447838403752266,nan
1741044590.7596927,-0.031293743946334496,0.008064936994483261,0.03404416432564698,-0.24246933919974034,nan
1741044590.7635987,0.2661190828719611,-0.14826937189364875,-0.010477760794025515,-0.08686489543608383,nan
1741044590.7675047,0.44043505742585887,-0.12566666942588944,0.021360529933819813,0.1165370727701338,nan
1741044590.7714105,0.35351647622576654,0.12179642664544083,0.20393747703706927,0.26235726152449396,nan
1741044590.7753165,0.0367433391057125,0.4124414428814371,0.39121204203887466,0.2710694637112688,nan
1741044590.7792225,-0.33096415517557787,0.4796376440326962,0.34531665232176684,0.12604890215909506,nan
1741044590.7831285,-0.5397430492373702,0.19905702707998973,-0.013973224181596864,-0.11061711670577135,nan
1741044590.7870362,-0.47622996910650073,-0.2861868205349024,-0.4814124403832666,-0.31767567294917404,nan
1741044590.7909422,-0.18080825640322865,-0.6507933931872569,-0.6989233134219554,-0.3718964262364882,nan
1741044590.794848,0.19054794343255113,-0.6245650345912452,-0.45030126729052916,-0.22000899700249593,nan
1741044590.798754,0.4619034513883702,-0.2006573191909127,0.1359464863233414,0.0775650452862729,nan
1741044590.80266,0.5254248877375668,0.34781002212834367,0.6608285381863642,0.36689352672222914,nan
1741044590.8065658,0.37641111882419165,0.659632390101263,0.7560374780322495,0.4826635388338285,nan
1741044590.8104718,0.09254453585922624,0.5431887896850152,0.3661874967857109,0.3462025297248188,nan
1741044590.8143778,-0.21368947054698642,0.10744510000845717,-0.21861641702294102,0.01705783402297204,nan
1741044590.8182838,-0.43775245369532684,-0.3286626058672526,-0.5990525498714214,-0.3369023844761195,nan
1741044590.8221896,-0.5078979889705321,-0.4752783178006948,-0.5683133519498068,-0.5328929290966532,nan
1741044590.8260956,-0.3974777526632171,-0.2767923295984671,-0.23355274761944778,-0.47191117094125884,nan
1741044590.8300016,-0.13312978902776684,0.06754560708966333,0.12135751051492516,-0.18537974921817946,nan
1741044590.833909,0.20303711265464605,0.2737065126742689,0.2871431972279443,0.1897349690585047,nan
1741044590.837815,0.4885093698094135,0.19575346684144043,0.267955026791859,0.482949864752495,nan
1741044590.841721,0.600042467493593,-0.0704080784094584,0.20449981655708335,0.5659880235477639,nan
1741044590.845627,0.46864128295709967,-0.27629295061181647,0.1852497809720018,0.4004378763097258,nan
1741044590.8495328,0.12364015581855772,-0.226433417513763,0.1470421083879058,0.04898957360258346,nan
1741044590.8534389,-0.30309420700023965,0.06280697222040581,-0.03295636577037293,-0.3450658752704715,nan
1741044590.8573449,-0.6251683059985933,0.373157893898773,-0.35086633439534926,-0.6060836714127147,nan
1741044590.8612509,-0.6859492398490283,0.4523542888888844,-0.5991395624011879,-0.5972363733378904,nan
1741044590.8651567,-0.4394869805441567,0.20918768810139343,-0.5097236486861656,-0.2945903495593667,nan
1741044590.8690627,0.015843427557901316,-0.21231523228268578,-0.013850236579585206,0.17637754598962127,nan
1741044590.8729687,0.4747163892115748,-0.5330666093751735,0.6214202397034518,0.5813589374273636,nan
1741044590.8768744,0.7207979806308114,-0.5362376283258126,0.9399327176679884,0.6954633400974309,nan
1741044590.880782,0.6351953738909543,-0.21648262373488342,0.6445545883144891,0.4406094321424667,nan
1741044590.884688,0.2599432188188717,0.22270820793627516,-0.13097947498181597,-0.049094389537657254,nan
1741044590.888594,-0.220702482548589,0.5132411066103868,-0.8715981905172487,-0.4933841052651023,nan
1741044590.8924997,-0.5746635352375208,0.4991188298900213,-1.0455766604631165,-0.636138374702281,nan
1741044590.8964057,-0.6421445910997098,0.22308173896929673,-0.511570494137765,-0.41119831991221617,nan
1741044590.9003117,-0.41482990203037645,-0.12511132395438143,0.35810194958203356,0.014412916940013632,nan
1741044590.9042177,-0.030228629709845488,-0.3468126877160061,0.9479868559391769,0.35731681626657236,nan
1741044590.9081235,0.31272105923363486,-0.3551215962431552,0.8593673881219143,0.4152698809134345,nan
1741044590.9120295,0.4640479791648315,-0.2016977139098857,0.20059612130174712,0.2021881817359514,nan
1741044590.9159355,0.39332387546802866,-0.010365509174592861,-0.5159264742870583,-0.07892879765151044,nan
1741044590.9198415,0.18354275674708767,0.11786690886456311,-0.7792618464202041,-0.20253393076832193,nan
1741044590.9237473,-0.03766928182047611,0.157066315025731,-0.46074100735747436,-0.09633250622111454,nan
1741044590.9276545,-0.17766087077052153,0.14089024422938976,0.1245234239588272,0.11081539685699864,nan
1741044590.9315605,-0.2175812276000149,0.11016743100104076,0.5025385596557944,0.20456133845279975,nan
1741044590.9354665,-0.19414753905144963,0.0755137926233731,0.4222962487490942,0.0694211953665405,nan
1741044590.9393725,-0.15035693369632389,0.022738430578840205,0.02478282508536997,-0.20818709754033568,nan
1741044590.9432783,-0.09900870879649237,-0.054009338686798754,-0.316706501101871,-0.40287800736832646,nan
1741044590.9471843,-0.025480196369038925,-0.12956713091321992,-0.3257662557694542,-0.3301239714613039,nan
1741044590.9510903,0.07966547382556857,-0.16000018158119877,-0.03759565262704076,0.0004982152470683316,nan
1741044590.9549963,0.19209674910801933,-0.11917019639394992,0.2660126047971721,0.38119979997000614,nan
1741044590.9589021,0.257389434102576,-0.02534959812797236,0.32000016708255974,0.5549878747176166,nan
1741044590.9628081,0.2262541733252197,0.06813349080443608,0.09764252483865132,0.40177711944039884,nan
1741044590.9667141,0.09347882583662699,0.11218960810259393,-0.19261236695370867,0.0199039397355646,nan
1741044590.9706202,-0.09054695113665069,0.09808495997162928,-0.3098175255749202,-0.35260317560391424,nan
1741044590.9745271,-0.24510058261083958,0.05913839535534352,-0.18800775804885594,-0.5077485873133023,nan
1741044590.9784331,-0.3028877521867158,0.03634112948717236,0.032540438189647726,-0.39626002043428443,nan
1741044590.9823391,-0.242681688011468,0.038234152318665914,0.15922504920052075,-0.1281404717512511,nan
1741044590.9862452,-0.09315926696448877,0.0318861631605701,0.12790896516961367,0.13379564759503468,nan
1741044590.990151,0.08726521584451907,-0.02396564069087543,0.040110960833932445,0.28767226972493243,nan
1741044590.994057,0.23628495656082024,-0.13005496126412355,0.03236174823591278,0.3261650137505105,nan
1741044590.997963,0.3051828902968996,-0.22610415983409285,0.11664268826969638,0.2857991668921114,nan
1741044591.001869,0.26770185178944916,-0.22389759387392572,0.15733719723189188,0.18273173351078226,nan
1741044591.0057747,0.12755333414734527,-0.07623662448267085,0.015616432160467646,0.006352051825703532,nan
1741044591.0096807,-0.07425186655494845,0.16941635961065293,-0.27669378822930885,-0.22700498441709727,nan
1741044591.0135868,-0.2623725358417622,0.3797384317966845,-0.49385087511447845,-0.4274784021083731,nan
1741044591.0174928,-0.3517523507126959,0.4117912387567638,-0.3925217622958597,-0.46071863403284347,nan
1741044591.021401,-0.29023328171732793,0.21073997073729295,0.05340492703154793,-0.24937096608076278,nan
1741044591.025307,-0.095403575824718,-0.1386550424036428,0.5747797466306585,0.13537841260503544,nan
1741044591.0292127,0.1435817655088808,-0.448477891113652,0.7819973607159768,0.4844112686181988,nan
1741044591.0331187,0.3093692582983262,-0.5357859281688575,0.4708947649032367,0.5785813839872087,nan
1741044591.0370247,0.3226473252917235,-0.33600458647638926,-0.1895854702841136,0.34672914159713464,nan
1741044591.0409307,0.18848619078164938,0.051717730724691165,-0.7562233518332572,-0.07109397767917673,nan
1741044591.0448365,-0.009720241581035525,0.4182175162921129,-0.8347189367336916,-0.4140059661944574,nan
1741044591.0487425,-0.16526079015790363,0.5648278830015343,-0.376597607869595,-0.4823787937714041,nan
1741044591.0526485,-0.21362640584294348,0.41654356807840665,0.286504404725553,-0.2736007307839402,nan
1741044591.0565546,-0.16343720165026301,0.060272964485713905,0.6982165903692189,0.03229358234580562,nan
1741044591.0604603,-0.07483829631623011,-0.3105938758886239,0.6175858097083475,0.221661716861208,nan
1741044591.0643663,-0.007029955878311401,-0.506871228428384,0.17620570739135322,0.20856981481962458,nan
1741044591.0682743,0.022508223087845263,-0.44230801177611184,-0.25989656777242587,0.07995560891169937,nan
1741044591.0721803,0.037895551187240806,-0.16773954775632885,-0.394698656124373,-0.004193616021334913,nan
1741044591.0760863,0.06982014679405489,0.16866867699364366,-0.21829186345850476,0.03694277883838231,nan
1741044591.0799923,0.11916776545378753,0.4032176367884867,0.0311703865392087,0.13416244645392367,nan
1741044591.083898,0.15107692064346795,0.43354928929794884,0.10512188270726305,0.13930841563809554,nan
1741044591.087804,0.12346697870013197,0.25704763595083124,-0.03493363010582249,-0.0258388504351607,nan
1741044591.09171,0.02496293662434503,-0.036978266787133854,-0.20173282805166803,-0.27644917503649685,nan
1741044591.095616,-0.1093686801521665,-0.30950624379248676,-0.1723130384020954,-0.41532542225728264,nan
1741044591.0995219,-0.21643041356613085,-0.4300887471586935,0.0935727977351765,-0.2925384293344087,nan
1741044591.103428,-0.2422861263762864,-0.33334610163498646,0.4021555840714094,0.0571181990688087,nan
1741044591.107334,-0.17082134584261024,-0.055078537270445725,0.4856023892164174,0.41748096854258687,nan
1741044591.11124,-0.027593485075048173,0.2714456442778541,0.23274552266071252,0.5412867676847696,nan
1741044591.1151476,0.13629206324799373,0.46975400181726884,-0.2082669380081429,0.3334421991062187,nan
1741044591.1190536,0.26407907847030304,0.41138349267959745,-0.5408969238818561,-0.07533412264144446,nan
1741044591.1229596,0.3070852322972568,0.10028092739007377,-0.5482228947970416,-0.42136507057607114,nan
1741044591.1268656,0.23570551318076335,-0.30562709773060165,-0.24841012318127376,-0.4946155596442079,nan
1741044591.1307714,0.05465365852822278,-0.5665478361285673,0.14149489220064923,-0.2773525888459,nan
1741044591.1346774,-0.18225409865294373,-0.5004404090584225,0.3869775806626289,0.0628674837681159,nan
1741044591.1385834,-0.37616281425091846,-0.10974935025616372,0.40166117251853445,0.30733149942207794,nan
1741044591.1424894,-0.4211214010663235,0.3936803539932971,0.2667778070960492,0.33631781504718716,nan
1741044591.1463952,-0.2659329019790486,0.6998536244967072,0.11332109061781197,0.18586844875913078,nan
1741044591.1503012,0.03826125637450884,0.5925608019650451,-0.0058635706522359695,-0.012831940461099613,nan
1741044591.1542072,0.3464449842743615,0.10172996049049235,-0.13274464481067366,-0.14342297315306532,nan
1741044591.1581132,0.49357144408352627,-0.4923213945650267,-0.30596632447131195,-0.17141674996121462,nan
1741044591.162021,0.39411318811268103,-0.8210154187600844,-0.46047308517155405,-0.13005038564430718,nan
1741044591.165927,0.10062520375017928,-0.6613129435386046,-0.44274642991467106,-0.06229736230117122,nan
1741044591.1698327,-0.22404148916384323,-0.08923627886522979,-0.1480346441472534,0.014924756637039904,nan
1741044591.1737387,-0.4071527788459702,0.5548017978898099,0.33986455366946,0.09585984493375745,nan
1741044591.1776447,-0.37168736902334026,0.8751787247600754,0.7476402390416583,0.15217171493066387,nan
1741044591.1815507,-0.1741169737456899,0.6725353580551844,0.7825454684820505,0.13330947919624303,nan
1741044591.1854565,0.049062623017230834,0.07259304280106414,0.35575705077887676,0.014831885175346534,nan
1741044591.1893625,0.18179555237612283,-0.5539589825220618,-0.3191936799306798,-0.15097292929765155,nan
1741044591.1932685,0.1987679963665942,-0.828426024257987,-0.8447932647400246,-0.2452324735595893,nan
1741044591.1971745,0.15641202847740251,-0.602004045938219,-0.8998602271134637,-0.1672733211725437,nan
1741044591.2010803,0.12155882378304755,-0.04019703226456636,-0.45458814144624227,0.06737273584778114,nan
1741044591.2049863,0.10466473108630785,0.4959918956955794,0.2143875378785839,0.30686473189938107,nan
1741044591.208894,0.057159054507642075,0.6869681191888115,0.7138398307608916,0.3591700112272785,nan
1741044591.2127998,-0.06597675573740816,0.45105394871411925,0.7864284608957758,0.14397172966635746,nan
1741044591.2167058,-0.2373176412292761,-0.023141559405276815,0.4505431406472057,-0.22072527260185532,nan
1741044591.2206118,-0.3503938714226635,-0.4180091734555948,-0.05104471608512993,-0.4811565636882768,nan
1741044591.2245178,-0.29282567893946715,-0.4983181883730922,-0.43126970252847463,-0.4287526514516303,nan
1741044591.2284236,-0.04583950826045308,-0.25183957269157997,-0.5292438455649141,-0.06677219910676449,nan
1741044591.2323296,0.27370137708184633,0.12443284585292372,-0.36709246982390425,0.3718836460420095,nan
1741044591.2362356,0.4739825133182098,0.3698159930074879,-0.08811555530357335,0.5819872383624977,nan
1741044591.2401416,0.416769356859824,0.33269484978971553,0.1513060358064141,0.40774911452839796,nan
1741044591.2440474,0.12086869949189798,0.058734784657028694,0.2588080779534778,-0.03795040539980954,nan
1741044591.2479534,-0.2399773794866629,-0.2531798399425583,0.22457286088080894,-0.4506790200766598,nan
1741044591.2518594,-0.44903860451100397,-0.3880555240841949,0.10102746531502332,-0.5531096258893128,nan
1741044591.2557669,-0.3904028068688309,-0.25246425394591643,-0.02874223585629249,-0.29201629382127936,nan
1741044591.2596726,-0.12204179730624606,0.07108210178765839,-0.0860685158321559,0.1324571623553984,nan
1741044591.2635787,0.17221066270055949,0.3795861853308731,-0.03727776994880218,0.4222624976803216,nan
1741044591.2674847,0.31325653385881974,0.47506291386733784,0.0747798648348378,0.3992133006754926,nan
1741044591.2713907,0.24366084334966984,0.28356815397994345,0.14152497049647858,0.12091368886951934,nan
1741044591.2752964,0.050202528733527145,-0.0997194073158677,0.05948656346797303,-0.18417433358132085,nan
1741044591.2792025,-0.11498277458581045,-0.4623930313457105,-0.17349589812401844,-0.3004862764629812,nan
1741044591.2831085,-0.14829249878493275,-0.5933313765639969,-0.41555189566519213,-0.18058346096888572,nan
1741044591.2870142,-0.05868967243743714,-0.40246874950116496,-0.4523713973357518,0.042164404853787744,nan
1741044591.2909203,0.057436299186593154,0.023914706793393675,-0.1586173942038281,0.17877940168391512,nan
1741044591.2948263,0.10030687493117461,0.46427790947195585,0.3653242515448373,0.13734702994662717,nan
1741044591.2987323,0.040433857942516215,0.6796155062797754,0.8062273384717096,-0.01821033396604807,nan
1741044591.3026395,-0.06992085375210325,0.5451896458650457,0.8274574588695766,-0.13936949658600417,nan
1741044591.3065455,-0.14582193899231286,0.1228332953785491,0.3194211183118107,-0.12395554223497761,nan
1741044591.3104513,-0.13349809422509976,-0.369024154465269,-0.47617322528318506,0.004547719898618738,nan
1741044591.3143573,-0.040821299011364394,-0.6733514484498634,-1.0845119110968204,0.12868920343956253,nan
1741044591.3182633,0.07929221024146357,-0.6347731352728754,-1.1005711094954966,0.1434896490604438,nan
1741044591.322169,0.16863029137949828,-0.2821413563230033,-0.47152223822558753,0.0432575901467747,nan
