timestamps,TP9,AF7,AF8,TP10,Right AUX
1740794521.312595,0.7286792687976782,0.032964725198436184,0.1357220032725509,0.11054473138005379,nan
1740794521.3165004,0.8334048456477108,0.7780379821234318,0.6505901818737487,0.26832145949108205,nan
1740794521.320406,0.34799093961810434,0.7749377964825768,0.6763155870160743,0.26113325674357035,nan
1740794521.3243117,-0.20893426875501944,0.14928199911153728,0.3095443558719182,0.1294525413363498,nan
1740794521.3282173,-0.4520997010215321,-0.39695868953796765,-0.06043823081582493,-0.02255447037338715,nan
1740794521.3321228,-0.36346777304954314,-0.34486146478788554,-0.15482703277099866,-0.0915532600575744,nan
1740794521.3360283,-0.10970680579008481,0.12232928150126328,-0.05802030691763155,-0.04205902291000143,nan
1740794521.339934,0.1746771817889761,0.38860241580547156,-0.06642043003546201,0.05429628034561404,nan
1740794521.3438396,0.3801431304049626,0.12539380156668403,-0.30495789752192487,0.06116584981035927,nan
1740794521.3477452,0.3548868653415404,-0.3567569599913018,-0.53829476581244,-0.09351951769463186,nan
1740794521.3516507,0.020214337589155692,-0.49372620401121703,-0.4078735751019223,-0.31016669502114136,nan
1740794521.3555562,-0.436704564791267,-0.11881142635420096,0.13849402523792492,-0.370743962809598,nan
1740794521.359465,-0.6233048531770206,0.3620554650933204,0.7009139004010553,-0.14470579287785287,nan
1740794521.3633704,-0.3086749087580768,0.4399094552732447,0.7733533284593681,0.25125338195594765,nan
1740794521.367276,0.28891442058594535,0.06123476505127242,0.2595225128855259,0.530151743430892,nan
1740794521.3711817,0.6682898913002685,-0.34179413079990373,-0.38701865934385854,0.49390105977749127,nan
1740794521.3750873,0.5297906255702379,-0.34441655777182,-0.5849671255759086,0.20565037225527896,nan
1740794521.3789928,0.053016619270927406,0.025145285983627638,-0.20252016997272332,-0.1072579533900832,nan
1740794521.3828983,-0.3279941122732562,0.35545651794529254,0.3085711019133641,-0.2945994805907607,nan
1740794521.3868039,-0.3723356439153548,0.31105121937861124,0.376384827655758,-0.3820840442564523,nan
1740794521.3907096,-0.20035309639743268,-0.03743283299412665,-0.1014254093982647,-0.4322184690767848,nan
1740794521.3946152,-0.056393875743927416,-0.3300397595105158,-0.6497569666163798,-0.3829885447858204,nan
1740794521.3985207,-0.016904568820942965,-0.2992907356865604,-0.6945301332469269,-0.11071959764969991,nan
1740794521.4024262,0.011576465050550112,-0.0024504574314033398,-0.1270957499092989,0.3421710165638693,nan
1740794521.4063344,0.08295529589126453,0.28466578888729505,0.6098415756638811,0.6886815262080824,nan
1740794521.41024,0.1247532899709391,0.3386886468314386,0.9591011077658003,0.6341970745655916,nan
1740794521.4141457,0.08228818926899004,0.1457732871662389,0.7310706549500297,0.19613302868722168,nan
1740794521.4180512,0.044776220447211273,-0.14554709266708873,0.1739509729645677,-0.27671138746658785,nan
1740794521.4219568,0.1270934720801445,-0.35912518950667127,-0.34342442328615747,-0.4449963858740741,nan
1740794521.4258623,0.25363323864745907,-0.3824515508114445,-0.6369307248305618,-0.3089465814510552,nan
1740794521.4297678,0.18143068289875586,-0.19655451084686382,-0.7157269887729416,-0.15042774980603796,nan
1740794521.4336736,-0.19362514262939617,0.11602017291056972,-0.6056788203998771,-0.16222985209703347,nan
1740794521.4375792,-0.6164470623819128,0.3903261959141486,-0.28168113185298704,-0.21524743751718706,nan
1740794521.4414847,-0.668821295764892,0.4613673223398446,0.20981095027341112,-0.04875439239809379,nan
1740794521.4453902,-0.21551820979477082,0.28254306842128585,0.6502075036088841,0.34955708003033364,nan
1740794521.449296,0.4103796467592402,-0.025154769156624946,0.7705270109545652,0.6507279343362771,nan
1740794521.4532034,0.7234775515447784,-0.2633670794854985,0.5009546905256224,0.5197636175594715,nan
1740794521.457109,0.5591909508359313,-0.3173468996390261,0.05959684610178301,0.0025593115984295063,nan
1740794521.4610145,0.17478347675429295,-0.23270335098059633,-0.2457329662385381,-0.48728619285995,nan
1740794521.4649203,-0.10144312759924731,-0.1334820169522937,-0.2990098853980482,-0.5753651181461682,nan
1740794521.4688258,-0.2201855666195648,-0.07698099773550014,-0.2377608425044028,-0.2757051963441881,nan
1740794521.4727314,-0.346913501205473,-0.008901062902539168,-0.24398075774994796,0.0821612017421362,nan
1740794521.476637,-0.5181042660137338,0.13433885145225777,-0.31823396127346515,0.22139387877410718,nan
1740794521.4805427,-0.5101659275690064,0.3030760868219766,-0.2948490019537757,0.1517536483960609,nan
1740794521.4844482,-0.12603740388992138,0.3494886936861217,-0.06545247168806918,0.05476279078450041,nan
1740794521.4883537,0.46111070638731927,0.18256799647635216,0.26085260634545837,0.03092577185210354,nan
1740794521.4922593,0.7841774426881943,-0.10582075666532297,0.44925966832008407,0.030770011697832295,nan
1740794521.4961648,0.5532451325784299,-0.29951093982827115,0.37771089037600636,-0.0006809077642046157,nan
1740794521.5000765,-0.01226355891962354,-0.2598311141607551,0.15514489277808255,-0.015991085754760177,nan
1740794521.503982,-0.3984173055026462,-0.06143589137296432,-0.004478390993306009,0.04554049347217198,nan
1740794521.5078876,-0.3355322156957767,0.08931988594795909,-0.0067172073739713975,0.11717723602372773,nan
1740794521.5117931,-0.053097724779427466,0.07085051207852432,0.04094302613136891,0.048148977024194635,nan
1740794521.5156987,0.030828666008298863,-0.038544571266372875,-0.03552229126870411,-0.18748565022557506,nan
1740794521.5196044,-0.18623974219701772,-0.0735364628884149,-0.2751927214482918,-0.39014385175859123,nan
1740794521.52351,-0.3792747904436925,0.011892121305832408,-0.5189657698785995,-0.31403568324636166,nan
1740794521.5274155,-0.19569556296637874,0.09283249417258647,-0.5391368057461982,0.05190915648380866,nan
1740794521.531321,0.303978849828292,0.04481531523586973,-0.23682097385905304,0.433174151189718,nan
1740794521.5352268,0.6725322543867501,-0.0707097838398255,0.26158724610079026,0.5267481254525188,nan
1740794521.5391324,0.5402230822504167,-0.05566164501103884,0.6784123984990337,0.28575691958232746,nan
1740794521.543038,0.004392895871761964,0.16546421894642455,0.7670022271400185,-0.0736440640265247,nan
1740794521.5469487,-0.4679031920261517,0.38350958654229717,0.4741909757568046,-0.31629355817648047,nan
1740794521.5508544,-0.5020117725441172,0.2815501157041613,-0.02412391078605953,-0.3814858872797607,nan
1740794521.55476,-0.15494871133679292,-0.19194902308687045,-0.43993602912292673,-0.33288123102341194,nan
1740794521.5586655,0.18815280848495125,-0.6725740463249291,-0.5673177079813514,-0.19847780504111573,nan
1740794521.562571,0.21222017817573727,-0.6828448320070387,-0.41470422749978836,0.0491569764866668,nan
1740794521.5664768,-0.045732881381397895,-0.12484556751702272,-0.1691626139545084,0.35274044348142486,nan
1740794521.5703824,-0.27512524920954,0.5589880034301509,-0.017913296914027613,0.505969483224823,nan
1740794521.574288,-0.2100451051375286,0.7728458156527549,0.016199589735978126,0.3258079334518042,nan
1740794521.5781934,0.1270434219638676,0.3414166634948913,0.06846055202097863,-0.10338582470352214,nan
1740794521.582099,0.4571278261103641,-0.3139397920401259,0.25503047802494877,-0.4313241152160347,nan
1740794521.5860047,0.4936994004646424,-0.586268619729382,0.5005890325889907,-0.3576870102945511,nan
1740794521.5899103,0.18336383259481404,-0.26570745002014,0.561141995184958,0.04704318898886208,nan
1740794521.5938208,-0.2555332544357393,0.2904357271277864,0.24995477141616804,0.3772246332516919,nan
1740794521.5977263,-0.5151139362205629,0.5430373459708823,-0.33705353272716315,0.2818977066553889,nan
1740794521.6016319,-0.44311986373450524,0.2889637265914595,-0.8275731162133474,-0.17797797471311796,nan
1740794521.6055374,-0.1458446185693671,-0.20340659631632838,-0.8423222982687392,-0.5711669458091689,nan
1740794521.6094432,0.13172274169712112,-0.5151875645808144,-0.3123235292007937,-0.49996613241658255,nan
1740794521.6133487,0.22879623579538788,-0.46732237069543775,0.43265462870857835,0.026682988697746345,nan
1740794521.6172543,0.18164764504767064,-0.19431578787513368,0.8945289184562133,0.598092224205366,nan
1740794521.6211598,0.12962388668354527,0.08627555942809124,0.7763031787609282,0.7618604227070305,nan
1740794521.6250656,0.13538197296307755,0.2865510836974778,0.19417973720365578,0.40168333130948086,nan
1740794521.628971,0.12660778657282706,0.42287190867014846,-0.4303839791763291,-0.18801833133790963,nan
1740794521.6328766,0.017769054863861086,0.4639572443420015,-0.6986878432558825,-0.5661800270065274,nan
1740794521.6367822,-0.14796128636407557,0.3052762936227047,-0.5138574196629837,-0.504453457067783,nan
1740794521.640692,-0.22444223969880212,-0.07520921064731481,-0.10031031374372938,-0.1442948669582926,nan
1740794521.6445978,-0.13738107804014363,-0.48925015237099795,0.22186301264203895,0.16180403180439829,nan
1740794521.6485033,0.006915912953465555,-0.6418469397883831,0.296259930170629,0.17431885332259134,nan
1740794521.6524088,0.03127531125080194,-0.3979858719938605,0.2063356576802107,-0.03227062071059726,nan
1740794521.6563144,-0.09563392543733368,0.06656613986668967,0.13158954438839876,-0.17123984373658363,nan
1740794521.6602201,-0.19635438577797368,0.4067207407038771,0.1459183111330087,-0.04788175448343951,nan
1740794521.6641257,-0.07387849765046561,0.41200534455191007,0.15774245612490406,0.23715600539549747,nan
1740794521.6680312,0.2468277706352809,0.17214377165416808,0.038334080157018,0.39758785342033454,nan
1740794521.6719368,0.5050141526444865,-0.049722980886813165,-0.20710066324471177,0.2711285291249092,nan
1740794521.6758425,0.45130640409562206,-0.08949359247923581,-0.4116860621142978,-0.009570205996445442,nan
1740794521.679748,0.09452055704971249,-0.017503724553556765,-0.3977074282643809,-0.17990454576842946,nan
1740794521.6836536,-0.3130601125032354,-0.013990238141375405,-0.15318683479168216,-0.1538113558682583,nan
1740794521.6875677,-0.5197538510760433,-0.13806978391005814,0.1485169589627952,-0.10966642396267653,nan
1740794521.6914732,-0.47309033270967626,-0.24767587299489252,0.3076160227157848,-0.23487526074585083,nan
1740794521.6953788,-0.2817101720524671,-0.15900456709553715,0.27286917750220985,-0.4351856606245915,nan
1740794521.6992846,-0.041007014321719513,0.12692430964828488,0.15772771595366805,-0.39189849357487494,nan
1740794521.70319,0.23625415430659327,0.3830666586522576,0.09397797906825445,0.052490869461413195,nan
1740794521.7070956,0.5137698581448681,0.36405931812682907,0.08924756932621532,0.6259057893112374,nan
1740794521.7110012,0.6332070845911458,0.058588357158955474,0.04129872114048713,0.8364276681258427,nan
1740794521.7149067,0.41399969855975005,-0.2817287882356199,-0.11620470348025203,0.4764925841290627,nan
1740794521.7188125,-0.11730791393699831,-0.38221347363327385,-0.3070032771312485,-0.13781324566784445,nan
1740794521.722718,-0.6432234750788224,-0.21120366990090744,-0.36938372664383173,-0.4847347746652883,nan
1740794521.7266235,-0.7731152920069783,0.010685859522232123,-0.2195824700588038,-0.37282365982878884,nan
1740794521.730529,-0.3874986021506153,0.06987887622523334,0.052727701715590734,-0.0965922838311756,nan
1740794521.7344382,0.23326696447466042,-0.0012151988362665816,0.25778941359038116,-0.04867078375052898,nan
1740794521.7383437,0.6378390630469924,0.017515420664489058,0.27206998840852875,-0.253223517394967,nan
1740794521.7422493,0.5750661339994808,0.23702951170056344,0.13349872158045464,-0.3642104549325159,nan
1740794521.7461548,0.1620111601742448,0.47280338877481615,-0.014107249137346067,-0.11045121423203397,nan
1740794521.7500603,-0.2731956314695267,0.4140096198370115,-0.05541330472694209,0.3573948164200769,nan
1740794521.753966,-0.4769496565736879,-0.015625774776730023,0.013094000192429034,0.627556282471763,nan
1740794521.7578716,-0.4098320032086537,-0.5181039812322927,0.10549343315176582,0.4865615852233578,nan
1740794521.7617772,-0.17244354810674345,-0.6911152058000215,0.12565488046953494,0.12431468143359498,nan
1740794521.7656827,0.1254031569907156,-0.4295938565766606,0.03006359472326597,-0.1324368455291201,nan
1740794521.7695885,0.3962070504196078,-0.012783779869718305,-0.1514173545768767,-0.1956109228449922,nan
1740794521.773494,0.5312230367405555,0.21996279662495197,-0.3258290014479396,-0.23510279187607824,nan
1740794521.7773995,0.41563147437024256,0.22639417357168992,-0.37636204603242873,-0.35914689292246976,nan
1740794521.7813075,0.0407559996677427,0.23668755200573127,-0.23376796267351188,-0.4122245448992819,nan
1740794521.7852132,-0.41381196483737187,0.3930486614910119,0.05588054956233319,-0.18100065098895673,nan
1740794521.7891188,-0.6659575785186351,0.5139519701418038,0.3381359341402043,0.25571141992181234,nan
1740794521.7930243,-0.5461048939337964,0.3000877371640657,0.45655815331551136,0.5195309171279474,nan
1740794521.7969298,-0.14251891762182134,-0.24868052966289583,0.3752316866012701,0.33871220144672276,nan
1740794521.8008354,0.27183599117955315,-0.7276210130811261,0.1916531950846614,-0.10474349416529724,nan
1740794521.8047411,0.4637996667470395,-0.7124825436366249,0.018404306763292345,-0.33568457441775107,nan
1740794521.8086467,0.4025521633634639,-0.2239616717283878,-0.13392313780080042,-0.10769072111189851,nan
1740794521.8125522,0.22460416465341468,0.270552360334907,-0.3256787069370894,0.31090496132004203,nan
1740794521.8164577,0.07138549558496765,0.34608471480188957,-0.5356505318520172,0.4299326668758276,nan
1740794521.8203635,-0.02290755325466644,0.059706235961840874,-0.5863314892045248,0.08250872304805847,nan
1740794521.824269,-0.10404004208903021,-0.1505650584560975,-0.2906823786586071,-0.3952490842517273,nan
1740794521.8281815,-0.20184992637367982,0.01872609015042563,0.29641350951330286,-0.5395524951893713,nan
1740794521.832087,-0.28571350056050726,0.3986875308365464,0.81305878660511,-0.2480323909979698,nan
1740794521.8359926,-0.3010298028891436,0.5565966660524488,0.8522581329335556,0.15587889212721617,nan
1740794521.839898,-0.22024030537230085,0.2846675550578609,0.3382082043379598,0.30619415885007567,nan
1740794521.843804,-0.052615155760065105,-0.19367568305771454,-0.3637704347382848,0.15673326127466317,nan
1740794521.8477094,0.16752720110162683,-0.4984356220234113,-0.7457806786983626,-0.05550526486492623,nan
1740794521.851615,0.3741348108504213,-0.4874529774634136,-0.5892642615160542,-0.1225109957446179,nan
1740794521.8555205,0.4637071856301326,-0.3196721262905633,-0.11199103365385693,-0.04944061518750776,nan
1740794521.859426,0.3461157954436449,-0.17977918950999966,0.2891677941778358,0.055071402148229545,nan
1740794521.8633318,0.04119361436355641,-0.05664066032070095,0.4024172626503797,0.15623925805212652,nan
1740794521.8672373,-0.2843068518101388,0.1555478177003098,0.3004350750244023,0.27577019621643956,nan
1740794521.8711429,-0.42245379916011144,0.41425070864888563,0.13803212433159479,0.34161455413993197,nan
1740794521.8750546,-0.30292713524174686,0.5080124550508367,-0.04877046427180961,0.1818695304355616,nan
1740794521.8789601,-0.06330366060880337,0.31258404770322024,-0.2916629205134691,-0.25670488118067775,nan
1740794521.8828657,0.08267493575935556,-0.011170757261108232,-0.4983232114217647,-0.7308497568800595,nan
1740794521.8867714,0.05451834316146418,-0.16595502577791912,-0.4382879653277561,-0.8451407157943598,nan
1740794521.890677,-0.03166428402241619,-0.0643780444869045,-0.0004961829769935368,-0.42647912480475336,nan
1740794521.8945825,-0.015505633645943205,0.0520446237040505,0.5714937726131899,0.2718932278391134,nan
1740794521.898488,0.11535868149137045,-0.10325318929855594,0.8109168940977654,0.7808006038457267,nan
1740794521.9023936,0.21711239652102543,-0.48819818170640056,0.46843416063660714,0.827424097117832,nan
1740794521.9062994,0.1722364414397153,-0.7160003721122142,-0.19675739990863206,0.5190501095480196,nan
1740794521.910205,0.038129386929913564,-0.44808671665417904,-0.6314947175011967,0.14241848598097484,nan
1740794521.9141104,-0.025400929849267524,0.22291411717851695,-0.5236823487278668,-0.1458101994345349,nan
1740794521.918016,0.033924262736231676,0.8198222991918567,-0.09550179271971086,-0.3823447842261351,nan
1740794521.921927,0.07656476179026125,0.9127250498744136,0.16560849784337223,-0.5987544724966357,nan
1740794521.9258325,-0.06481662058977278,0.49097684897212246,0.04290359357365671,-0.6695131697802175,nan
1740794521.929738,-0.3543169097663975,-0.07829288550438894,-0.19930851739038913,-0.43190908499664826,nan
1740794521.9336438,-0.5372175535254295,-0.41492297212707385,-0.15511139238395794,0.06504412981384078,nan
1740794521.9375494,-0.3853244034946374,-0.4267083770106874,0.23106811660828797,0.513081791551411,nan
1740794521.941455,0.05648142170959313,-0.28988083782751367,0.5837089216679799,0.6024575277765262,nan
1740794521.9453604,0.4947456422653126,-0.20506484734766428,0.5137058723675124,0.321989548425752,nan
1740794521.9492662,0.6559113415168883,-0.2078399137386461,0.05282353963336817,-0.02987489000344421,nan
1740794521.9531717,0.5083830162947299,-0.18890358135845173,-0.3848132588061447,-0.14269750699428257,nan
1740794521.9570773,0.2209704614022336,-0.04614504169294737,-0.45462067131183664,0.012283936186932291,nan
1740794521.9609828,-0.0509484392358446,0.20235784603227147,-0.22352606726221816,0.18911290221551627,nan
1740794521.9648883,-0.2861959191491437,0.43106761748256583,-0.029826954625512613,0.1426057963675061,nan
1740794521.9687989,-0.5104171515710768,0.5063448967538157,-0.05887865455633515,-0.1285649630715054,nan
1740794521.9727044,-0.6543174549463651,0.3810604285124044,-0.14687731810155485,-0.4053754250314811,nan
1740794521.9766102,-0.566839178949201,0.11827330605574717,-0.028778465998470903,-0.4770777436176205,nan
1740794521.9805157,-0.1834986823671892,-0.1640274265880183,0.2906447456031542,-0.3211536967641781,nan
1740794521.9844213,0.351295108634755,-0.3758965150260557,0.5019730381998919,-0.07274086000456167,nan
1740794521.9883268,0.7590302268695763,-0.48955149728662173,0.3407505765961179,0.1392990839210133,nan
1740794521.9922326,0.8262491200525387,-0.49576856941639574,-0.09089356455227389,0.29372914198067385,nan
1740794521.996138,0.5350199004559718,-0.3501783413392006,-0.40979262420077467,0.42444052734707305,nan
1740794522.0000436,0.036285123608067224,-0.01041361062849392,-0.3489344446660457,0.5082807209108132,nan
1740794522.0039492,-0.4551127197960987,0.4423808751909539,-0.02016506604963862,0.44583334093941746,nan
1740794522.0078547,-0.740939516095211,0.7530932471930634,0.23268224229357698,0.16863260396903282,nan
1740794522.0117605,-0.6939855233438746,0.6520470412416057,0.19764207051463425,-0.2477857800052228,nan
1740794522.01567,-0.32725669916268646,0.13211950211060922,-0.030217001933623203,-0.602245451600376,nan
1740794522.0195758,0.16463919102811597,-0.4523100669841663,-0.21003138738443117,-0.7152638443603008,nan
1740794522.0234814,0.49283359278732297,-0.6477623940232362,-0.21560529878932097,-0.5599660133033264,nan
1740794522.027387,0.48205358776033924,-0.32650321014222033,-0.1003871078633304,-0.24661656578170296,nan
1740794522.0312924,0.2180129212812356,0.1637839775010666,0.03954247762281647,0.10546647188590683,nan
1740794522.035198,-0.0384456486503167,0.3304747541688151,0.1735695590814581,0.4471391384727462,nan
1740794522.0391037,-0.10631073513786335,0.03969492143331062,0.28448068261897785,0.7357279159392097,nan
1740794522.0430093,-0.040788508696375896,-0.34067247208483287,0.287642603890917,0.8328890169799016,nan
1740794522.0469148,-0.020383739248918953,-0.3345966072403448,0.10018883960820671,0.5549947570380198,nan
1740794522.0508204,-0.10558027368866411,0.12040495211120747,-0.19894316452834357,-0.10263193719574655,nan
1740794522.0547261,-0.16591389042487822,0.5894234275343967,-0.3640785410237259,-0.8070801368598036,nan
1740794522.0586317,-0.0671490784800607,0.5907707395216248,-0.22136011652044849,-1.055863085420811,nan
1740794522.0625408,0.1189792735411078,0.09419974400456017,0.09754876779238576,-0.6114857148847069,nan
1740794522.0664463,0.16441249541303768,-0.4629752313857158,0.2440103752523618,0.20775842778196954,nan
1740794522.0703518,-0.03810082656086202,-0.631560717131536,0.030167810312844903,0.7400157569059177,nan
1740794522.0742574,-0.3004090295189114,-0.36471208119397036,-0.31792824727068747,0.5684973015593894,nan
1740794522.0781631,-0.3041569313540996,0.028846051341440467,-0.3660257144490852,-0.07530846447249591,nan
1740794522.0820687,0.04988515524350871,0.26571503135469043,0.04034025527440808,-0.528975051992716,nan
1740794522.0859742,0.49537084675021115,0.33074772828606597,0.5483218675078275,-0.3513098356499225,nan
1740794522.0898798,0.6333947318689087,0.34449129274684337,0.6304334441620146,0.24788612826975234,nan
1740794522.0937853,0.3085114507824123,0.30397998793853415,0.1527878766503373,0.6448677777926778,nan
1740794522.097691,-0.25373708882337626,0.07611141371114019,-0.446424622665338,0.4511287499878682,nan
1740794522.1015966,-0.6600365050575231,-0.34359249701847233,-0.5945620024997061,-0.11239258190210762,nan
1740794522.1055021,-0.6699221193023936,-0.6755265387792428,-0.1839770631122103,-0.49159130740538026,nan
1740794522.1094158,-0.32677119369278923,-0.5740980355903514,0.31843788619894164,-0.39253396142767144,nan
1740794522.1133213,0.14809446447494917,-0.01943755034507961,0.37703169797643277,-0.04043571131710328,nan
1740794522.1172268,0.5233183045758633,0.5783260958286638,-0.04062963968138232,0.13774238054392934,nan
1740794522.1211324,0.6445466388342103,0.7334455306709261,-0.4457162990786062,0.0019269987774616693,nan
1740794522.1250381,0.4602554379944505,0.34871183032968167,-0.3724575564167216,-0.19495326572182767,nan
1740794522.1289437,0.05057358350349154,-0.20245649430323256,0.11859374111186674,-0.15434221507447685,nan
1740794522.1328492,-0.37434920154975476,-0.45909035808139625,0.5202376290052636,0.11454241884568288,nan
1740794522.1367548,-0.5805926933762057,-0.30618937566702487,0.43333042553699425,0.3395852632909007,nan
1740794522.1406603,-0.476158760676855,-0.014274865181680549,-0.01937759992443725,0.32611346207304187,nan
1740794522.144566,-0.17345619006168297,0.10790843391687935,-0.35482507626040466,0.15466549230326368,nan
1740794522.1484716,0.13131392492131522,0.032211968078300075,-0.26034083614602954,0.0202232331268259,nan
1740794522.1523771,0.3298769137911546,-0.033880849259248565,0.09476064433418649,-0.03745215653699572,nan
1740794522.1562853,0.4288323027504386,0.04851131054375538,0.28148067827938505,-0.14660383654973602,nan
1740794522.1601908,0.42738059595371075,0.17078928823341163,0.09067873713323019,-0.35534904880720597,nan
1740794522.1640964,0.24841325399423392,0.1273595923289631,-0.2593728074742808,-0.47859444004017454,nan
1740794522.168002,-0.14180815709000708,-0.10267802840050975,-0.38599353076339343,-0.28442151095479146,nan
1740794522.1719077,-0.5694440083029731,-0.2916565235222398,-0.1592966677537454,0.18329665171066867,nan
1740794522.1758132,-0.708496777744241,-0.20555197674328693,0.17975772680798208,0.5622698235797313,nan
1740794522.1797187,-0.3792541705846308,0.11908914894345919,0.3004543691097845,0.5149825727060144,nan
1740794522.1836243,0.21936136500818443,0.3828268879911296,0.1343621426574865,0.09248628068947161,nan
1740794522.1875298,0.641832153077584,0.3225158000125068,-0.07735103358829223,-0.30194386929722555,nan
1740794522.1914356,0.597553820737905,-0.013529868013859195,-0.06857794622294289,-0.3259020926944469,nan
1740794522.195341,0.20341032449513338,-0.30997019791337965,0.15587653443862787,-0.03667885387835641,nan
1740794522.1992466,-0.1789959615273792,-0.30587523559156066,0.32424514232987356,0.2073169966072563,nan
1740794522.2031543,-0.32017351179384324,-0.05688287889955432,0.186113194971049,0.15098862238256963,nan
1740794522.2070599,-0.28464941229005913,0.13713508956797835,-0.21786391869880237,-0.10459277227533263,nan
1740794522.2109654,-0.23437897638025446,0.06281233941163179,-0.5741349355406822,-0.25694956730146923,nan
1740794522.214871,-0.1722144618887411,-0.1683633855410984,-0.576945169814861,-0.1526764909673619,nan
1740794522.2187765,0.027199373108783072,-0.23426644296821258,-0.19770978123102256,0.0689636316759441,nan
1740794522.2226822,0.3515431660180188,0.03958528153421725,0.300202790076888,0.1685236030811357,nan
1740794522.2265878,0.5359689289505196,0.45389869653849035,0.5905705954707193,0.0791823848885707,nan
1740794522.2304933,0.31356959354921526,0.5984098347772475,0.530900089359821,-0.050440115599238736,nan
1740794522.2343988,-0.2321233099289458,0.2614244918035588,0.22040019681078432,-0.056602834823698676,nan
1740794522.2383046,-0.6569792300200591,-0.3278229454792166,-0.13121207169646196,0.0546094921321857,nan
1740794522.2422101,-0.5636760483090401,-0.6882789985911558,-0.3600197910329045,0.14075243269099685,nan
1740794522.2461157,-0.00792751783101986,-0.5364783571395269,-0.398059770988234,0.10272615481056847,nan
1740794522.2500272,0.5402711974874107,-0.049249179142549185,-0.24370823260419694,-0.014357613309749238,nan
1740794522.2539327,0.6416458639280498,0.3259449953061483,0.04359193946670744,-0.09883294108651323,nan
1740794522.2578385,0.27077908960963004,0.3162195849899417,0.31135718026434644,-0.10812152405904675,nan
1740794522.261744,-0.22681480654552072,0.06537756886441427,0.3521800774266884,-0.0936513384208223,nan
1740794522.2656496,-0.49032284732740644,-0.06667051320114606,0.07229928679360133,-0.10284804852483558,nan
1740794522.269555,-0.4148264516433881,0.08346136601459113,-0.34621185502650886,-0.09857743009530061,nan
1740794522.2734606,-0.12749377757084782,0.30751342880360777,-0.5196443732487165,-0.005327273551736867,nan
1740794522.2773664,0.1864972213599874,0.27150218675871307,-0.20266887228544064,0.1716939699338154,nan
1740794522.281272,0.3806121773989605,-0.0935019436886462,0.4073842760973566,0.30434621674136614,nan
1740794522.2851775,0.3506951116297791,-0.48618973948911914,0.7677228993927991,0.24593639305100667,nan
1740794522.289083,0.07808185711888131,-0.5327445438364562,0.4856179618144373,-0.012065105105443636,nan
1740794522.2929888,-0.28275756733164575,-0.17100932512977016,-0.2516735410583523,-0.2948257778063974,nan
1740794522.2968996,-0.4434840331284025,0.2819809449453678,-0.7937243754670621,-0.37522654890788126,nan
1740794522.3008053,-0.22442353067488252,0.4416532837582897,-0.6395166234668286,-0.17428982971339055,nan
1740794522.3047109,0.2180210137568758,0.2192336967998726,0.05600974965690394,0.15419881949864836,nan
1740794522.3086164,0.4807742604720311,-0.12249516417256853,0.6236727704372378,0.34495421234365353,nan
1740794522.312522,0.30171315901244666,-0.24852543468236046,0.5475099835970911,0.24993829367486742,nan
1740794522.3164277,-0.15188711622109455,-0.06716065580587112,-0.032686056522643205,-0.032262639095573864,nan
1740794522.3203332,-0.43779169386575506,0.215090946760242,-0.5050291249525655,-0.2500966715970953,nan
1740794522.3242388,-0.2967716906704358,0.3128182881653473,-0.43628425646489627,-0.23033927441517443,nan
1740794522.3281443,0.08563327418612439,0.11988674593718225,0.02091041788331152,-0.026419300850351914,nan
1740794522.33205,0.30360136242416425,-0.21883952845257187,0.3708148899754824,0.15505596487436996,nan
1740794522.3359556,0.17790974157724962,-0.4457723415679847,0.3362462879522833,0.16394597490582463,nan
1740794522.3398612,-0.08448013034494625,-0.3929071984203464,0.08935318310245027,0.03341938929660744,nan
1740794522.3437715,-0.17438565875849027,-0.09245823475579032,-0.05473702308443506,-0.09199202544294015,nan
1740794522.347677,-0.04181672587105686,0.26020945474337936,-0.04260597455203094,-0.1202685911020927,nan
1740794522.3515828,0.09416382713927972,0.4472047772380846,-0.07763073085423335,-0.07483918773623655,nan
1740794522.3554883,0.06146127864623875,0.3760898552815522,-0.2569743116262267,-0.010378377897370525,nan
1740794522.3593938,-0.04643029493374731,0.13500716585105832,-0.36883878102321155,0.07414383429712082,nan
1740794522.3632994,-0.02449129991907704,-0.0918427754453497,-0.1512983777498298,0.19269368871874878,nan
1740794522.3672051,0.13392724751893453,-0.18701615380990172,0.3078103937976422,0.26865680113395174,nan
1740794522.3711107,0.19432166399680534,-0.1928748552326909,0.5751469464323715,0.15713540883477303,nan
1740794522.3750162,-0.015626782332582686,-0.23152343194001948,0.34071467359112423,-0.17193741675044197,nan
1740794522.3789217,-0.3369648477624955,-0.3237710489669656,-0.19239027576725218,-0.5042943439348375,nan
1740794522.3828273,-0.4114779686655393,-0.3148513472474023,-0.4938006167482991,-0.5241037811033639,nan
1740794522.386733,-0.09374713207557266,-0.030737425150596312,-0.28647793365424534,-0.1399534418909682,nan
1740794522.390643,0.3430589927352425,0.46960343708652297,0.14973342186543132,0.363882076992269,nan
1740794522.3945487,0.4754533159121409,0.8377495265074821,0.3131265716816535,0.5711825638754,nan
1740794522.3984542,0.18503000584177104,0.7060803649329185,0.060806489850977787,0.3501633214669078,nan
1740794522.4023597,-0.21502859786684478,0.06166674326817293,-0.24786551606650573,-0.016183111633102897,nan
1740794522.4062653,-0.3252379844618829,-0.6655339101497102,-0.20186306069495308,-0.1526691163102016,nan
1740794522.410171,-0.0835479016658095,-0.9427224225490421,0.16517338991326141,-0.013742385183649387,nan
1740794522.4140766,0.20071430347773694,-0.604859492897598,0.41904501701505653,0.085485752391779,nan
1740794522.417982,0.21342504607407342,0.0076111965829009625,0.23885257922672717,-0.12362577543854665,nan
1740794522.4218876,-0.03022775695985481,0.39031242770212105,-0.2162618120808972,-0.494699608380852,nan
1740794522.4257934,-0.24478516063321656,0.3527460359467158,-0.49872662458954314,-0.5901889419393584,nan
1740794522.429699,-0.21777919485482888,0.1472451175968734,-0.3633805119516403,-0.18139313169815827,nan
1740794522.4336045,-0.02454057867325157,0.1329151035861559,0.01526210788265531,0.44832956760675924,nan
1740794522.4375136,0.1071060461387896,0.3509191328719536,0.2939966087076825,0.7637353105173474,nan
1740794522.4414191,0.0820239573779619,0.4746584559523531,0.3227522740281442,0.5245954870970617,nan
1740794522.4453247,0.023803902950881924,0.18673365147128526,0.20512462551610094,0.012195486390028105,nan
1740794522.4492302,0.08157856495454333,-0.4291469229575363,0.08065380114815382,-0.302647257208432,nan
1740794522.453136,0.21554186488044766,-0.9096514494508023,-0.028839373765535515,-0.2553260369811655,nan
1740794522.4570415,0.2288208918657885,-0.8349321701889847,-0.1419960522686205,-0.09260603771862941,nan
1740794522.460947,0.00826157808781214,-0.2244667712465533,-0.2030521501220473,-0.1113999721934117,nan
1740794522.4648526,-0.3107003952993507,0.48107866524332354,-0.14582204748314953,-0.28870280762015477,nan
1740794522.4687583,-0.45158415584924416,0.8085930873288475,-0.035102543368728645,-0.33096552679099084,nan
1740794522.4726639,-0.26819041932604487,0.6213575664133614,-0.022232774386115133,-0.05257572551343285,nan
1740794522.4765694,0.1039008440630891,0.15268292942010456,-0.1181171514745522,0.3787642160454377,nan
1740794522.480475,0.36758241435130806,-0.24964167723344663,-0.11179645370435139,0.6023781705576828,nan
1740794522.4843836,0.3311077426394487,-0.3827868300005557,0.1678503415873356,0.4251779784988448,nan
1740794522.488289,0.06480814070369212,-0.2562376433782786,0.5351856914586807,-0.013869634778817079,nan
1740794522.4921947,-0.18453809897570606,-0.008785538424570135,0.5447317759074661,-0.4025054410167232,nan
1740794522.4961004,-0.22164146534401166,0.1880636146524219,0.005226239357032096,-0.5150766910501294,nan
1740794522.500006,-0.05855357269912298,0.19656999648831286,-0.6757223428351187,-0.3248507627567998,nan
1740794522.5039115,0.1275595996913069,-0.01268578757988904,-0.8198425040799387,0.042345064274265695,nan
1740794522.507817,0.17346343910005815,-0.300924299719086,-0.2110087784838749,0.3823587003055605,nan
1740794522.5117228,0.07092718145389527,-0.4207679141168061,0.5943119487544253,0.47897240416482795,nan
1740794522.5156283,-0.054200053149636475,-0.21877128009799274,0.803748241077925,0.2268672750859252,nan
1740794522.5195339,-0.08903150829473569,0.18951222912770646,0.22809284686885956,-0.22869545000100516,nan
1740794522.5234394,-0.05021869061272975,0.48575400852128914,-0.5157180436926607,-0.5273400784323943,nan
1740794522.527345,-0.047413520962850786,0.4392703714741799,-0.6787937995331866,-0.3878921872695936,nan
1740794522.5312533,-0.13327761273236155,0.13307933161703953,-0.1729982002845506,0.08428878383150419,nan
1740794522.5351589,-0.21063069313378613,-0.1304206313216931,0.399521169645438,0.44710999258905454,nan
1740794522.5390644,-0.1201726026527685,-0.1532418472225704,0.464215235160979,0.35653593225077723,nan
1740794522.5429702,0.1641025120157235,-0.033813898597481164,0.07922806410385991,-0.057505307041795746,nan
1740794522.5468757,0.44728489958261397,-0.01174023839384198,-0.23593581981769857,-0.32169601744487997,nan
1740794522.5507812,0.4638053259708008,-0.16027505963736677,-0.15990215321885395,-0.1490943512593362,nan
1740794522.5546868,0.14377922348123223,-0.3030105253609233,0.10499722196093106,0.2299173843582467,nan
1740794522.5585923,-0.2802856034446895,-0.24982954443205735,0.17473783160018289,0.33747761689361067,nan
1740794522.562498,-0.46698880527586956,-0.04335906738245314,-0.012435106281301378,0.018187508892432057,nan
1740794522.5664036,-0.28972697131821196,0.10639087863550954,-0.17304250752489356,-0.3680332865051118,nan
1740794522.5703092,0.03819608381679234,0.11278570960196284,-0.10433376090815633,-0.37232361696138744,nan
1740794522.5742147,0.18021825097013258,0.13129520068153797,0.04592898525851619,0.0039252357493349465,nan
1740794522.5781271,0.022162512516540125,0.3198105238165532,0.016482524209523997,0.3120921033105744,nan
1740794522.582033,-0.21407979560273893,0.5443656853089559,-0.17420202372176172,0.20171583249646288,nan
1740794522.5859385,-0.2144391602218687,0.4598333383411415,-0.23162960792380746,-0.1583663860907362,nan
1740794522.589844,0.08241858824059094,-0.06171645109223182,0.01160363275018691,-0.29928580741587346,nan
1740794522.5937495,0.41211806219073815,-0.6745701651797037,0.3417721641914784,-0.034726695306118945,nan
1740794522.597655,0.46668436335959196,-0.8573749276005597,0.4145411070453344,0.32059329898686345,nan
1740794522.6015608,0.22263034213656457,-0.4770122896222605,0.18616600494930244,0.36068796382653145,nan
1740794522.6054664,-0.05381516566141361,0.055159842708820274,-0.04991199233975496,0.09253610980041588,nan
1740794522.609372,-0.13452430973993312,0.263260062234397,-0.07189066717228004,-0.11429553342128258,nan
1740794522.6132774,-0.10834944740462929,0.16112081964178918,-0.028424975972148048,-0.05457331571956372,nan
1740794522.6171832,-0.2580218113232403,0.17736819473186988,-0.2054879992107923,0.02535117258673753,nan
1740794522.6210887,-0.6405727390766748,0.5122268064946708,-0.5580382373665703,-0.2043864820766759,nan
1740794522.6250002,-0.8701187811286829,0.7542680929054139,-0.6560618238505141,-0.605037275884652,nan
1740794522.6289058,-0.4474471732357039,0.34143414047098797,-0.18442672695031914,-0.6191518879423937,nan
1740794522.6328113,0.625907985323992,-0.6142188582791691,0.5998515668773029,0.030824034533708477,nan
1740794522.636717,1.6250840056873952,-1.2094584981639898,1.0483327763398353,0.8517124118377403,nan
1740794522.6406226,1.6422935226303366,-0.6766264369470669,0.7695528117921556,1.016460251305858,nan
1740794522.6445282,0.46449467434409336,0.6175967433359728,0.006823097488716502,0.321851464219813,nan
1740794522.6484337,-1.0954597098726482,1.355479915632804,-0.6508899164227507,-0.4901247454289352,nan
1740794522.6523392,-1.844411490176119,0.6308403380058256,-0.8265465001129515,-0.545644750644953,nan
1740794522.656245,-1.2753741269666925,-0.954346400113698,-0.5495466643106148,0.10189368854042972,nan
1740794522.6601505,-0.007034166728713029,-1.7827919883497052,-0.021253743987223586,0.4758506713225226,nan
1740794522.664056,0.8596184428469523,-0.909417314580294,0.5741649235563966,-0.1407959677274318,nan
1740794522.6679616,0.8084090629717139,0.8722581801306936,0.9616346236612715,-1.2015070719648697,nan
1740794522.6718726,0.2914176045583106,1.8217187340491978,0.7263846884547732,-1.3636024897721855,nan
1740794522.6757782,0.06623510286786524,1.0961224872188775,-0.2945492684640363,-0.03995061761599536,nan
1740794522.6796837,0.27811823926176993,-0.37586683343803473,-1.5181511462806192,1.7297058981080438,nan
1740794522.6835895,0.3518010258715589,-0.9708574252819134,-1.8155267338577081,2.2172484085556152,nan
1740794522.687495,-0.1904482103064629,-0.19548531253443613,-0.555095880878205,0.8378004661118886,nan
1740794522.6914005,-0.9799093945205556,0.7947291765866991,1.5112708221821303,-1.154870869184325,nan
1740794522.695306,-1.0876940001236233,0.5656667169891677,2.6720203439641423,-1.9446983092074144,nan
1740794522.6992116,-0.11089952210016144,-0.8911069757084173,1.8262238782500513,-1.0266602306308363,nan
1740794522.7031174,1.1888641458697433,-2.056219016702755,-0.36148262863140335,0.3867789362542086,nan
1740794522.707023,1.5368143557468072,-1.5163540323367446,-2.0328037363785745,0.827154094878509,nan
1740794522.7109284,0.47985923276912007,0.47070728792259897,-1.933676995415064,0.18413482078795754,nan
1740794522.714834,-1.0551022235230543,2.1900421344239955,-0.5606591056057474,-0.36327395677300534,nan
1740794522.7187445,-1.656328350115785,2.200078934859435,0.5358496121585441,0.0727679602873185,nan
1740794522.72265,-0.8505005931231557,0.7039537531091296,0.45867433360371973,0.9413857199336275,nan
1740794522.7265556,0.4802313482407599,-0.8237078436565294,-0.21520857171261348,0.936083322300334,nan
1740794522.7304614,1.1099025837571472,-1.2059078601169915,-0.30803973255245964,-0.31048882935074995,nan
1740794522.734367,0.7433975028289797,-0.5942771395947924,0.5145824479730758,-1.5928405575890312,nan
1740794522.7382724,0.14086583496941782,0.002084499437549494,1.3948649346999802,-1.4142473806355373,nan
1740794522.742178,0.049818032744943945,-0.04606009918284791,1.321057902001669,0.24270908330896312,nan
1740794522.7460837,0.28515259991812486,-0.4171228991907292,0.2603178248164172,1.737899214712979,nan
1740794522.7499893,0.06858289245153004,-0.4280132936932145,-0.8786871904146375,1.490381399251316,nan
1740794522.7538948,-0.8202346459194968,0.0674082610616474,-1.2683209429858386,-0.28559580223368297,nan
1740794522.7578003,-1.5491150989857223,0.5427507495028767,-0.9217729006627117,-1.7659087125895785,nan
1740794522.761706,-1.1007801929452106,0.49063587157326666,-0.4304949338976558,-1.4343791500039926,nan
1740794522.765616,0.4563839844460543,0.04507455853766629,-0.18505852012505153,0.35576220667510533,nan
1740794522.7695217,1.8271666360690038,-0.1972669431503568,-0.054526705464857834,1.8186156585399298,nan
1740794522.7734272,1.759460270353565,0.09797757326772547,0.23710546754743386,1.5988071447327528,nan
1740794522.7773328,0.3587144447989175,0.601072551701195,0.6611419841160099,0.02948312068388231,nan
1740794522.7812383,-1.0268525395234342,0.6906109667882869,0.9239966540256993,-1.4167381538945207,nan
1740794522.7851439,-1.2309374412243386,0.15286176687195124,0.8327707932962318,-1.6687159021150235,nan
1740794522.7890496,-0.4189690753333845,-0.5829257671886131,0.46394630599778014,-0.8807475874546844,nan
1740794522.7929552,0.2744036991749915,-0.9148587959611933,-0.003266187968747267,0.11088003239188958,nan
1740794522.7968607,0.1197837134356135,-0.7019340463180225,-0.46109145132756,0.7760943891577794,nan
1740794522.8007662,-0.4304535742717545,-0.3600056878370897,-0.8283258073284022,1.1453591975591346,nan
1740794522.804672,-0.40568375168411075,-0.32499055985799064,-0.9701987260399008,1.291872094559197,nan
1740794522.8085775,0.43351645140623135,-0.48685731101365054,-0.8033677429921037,0.9734214371645474,nan
1740794522.8124866,1.2521897866844671,-0.25100206412713,-0.4320090504552594,-0.004062906708669192,nan
1740794522.8163922,1.0852727447555393,0.7684690881782836,-0.02941615221592572,-1.2371098720643985,nan
1740794522.820298,-0.05332279229811251,2.1198993018556167,0.4137114206698847,-1.8590838887981394,nan
1740794522.8242035,-1.1662949059426218,2.674742434667412,1.0246275760775287,-1.3592127286568532,nan
1740794522.828109,-1.331531177928473,1.5757933853635568,1.6154455064139575,-0.15117008917514563,nan
1740794522.8320146,-0.595870591213304,-0.8474741970616883,1.522665575865762,0.8210948938977348,nan
1740794522.83592,0.23964100638085561,-3.1114839624598853,0.24973757135943256,1.0192544754629245,nan
1740794522.8398259,0.565682487700047,-3.6678517585497503,-1.6329032603450826,0.7269245166576097,nan
1740794522.8437314,0.5008595825010745,-2.1555293782833704,-2.5797866381347365,0.5282438020500786,nan
1740794522.847637,0.4953252741516207,0.3042160375853484,-1.5054169436843619,0.552174831975398,nan
1740794522.8515425,0.6298206256022574,2.055245484534738,0.8286688585347216,0.4066314078106523,nan
1740794522.8554482,0.5214468715594577,2.2429628075270136,2.252139372805059,-0.18754600841567515,nan
1740794522.8593569,-0.09458725185140088,1.3458659362934693,1.3573108192524104,-0.9262648485159317,nan
1740794522.8632624,-0.8981884918188124,0.5036867481034796,-0.8720243986887858,-1.2264477539846304,nan
1740794522.867168,-1.2506810765998562,0.3786150019249722,-1.9855021371193589,-0.898218124226886,nan
1740794522.8710735,-0.8763496139363463,0.6426822768905208,-0.751889499050251,-0.31562099106172614,nan
1740794522.8749793,-0.13092547229225515,0.4741097899416825,1.394608423435472,0.10736307630718837,nan
1740794522.8788848,0.44353158537673426,-0.5379471587770615,1.945378857608476,0.40855951411293767,nan
1740794522.8827903,0.6987528471416736,-1.9590822261164762,0.24480954334648272,0.8621629046010492,nan
1740794522.8866959,0.8822143200468486,-2.851608254219414,-1.6673441291472744,1.3581125221855852,nan
1740794522.8906014,1.1059035218310966,-2.483964219711236,-1.4176402435583737,1.2955685524379428,nan
1740794522.8945072,1.020188832343573,-0.8239011943501863,0.8185496731365568,0.29234295673936816,nan
1740794522.8984127,0.1907859680275393,1.4351149041375326,2.3676764078771035,-1.1186550254749061,nan
1740794522.9023182,-1.2154715022852864,3.2216925433128654,1.1329065665874571,-1.7990059495019044,nan
1740794522.9062264,-2.2905393510348593,3.6224605439461453,-1.8428652588242713,-1.1603267115760352,nan
1740794522.910132,-2.0927113110182853,2.400874353101801,-3.392697751020358,0.12244915641605074,nan
1740794522.9140375,-0.5498272871206669,0.20093808440812713,-1.746753257535012,0.7713376736394049,nan
1740794522.9179432,1.3666016804455603,-1.8149679583614702,1.4742245069101814,0.3038032344086585,nan
1740794522.9218488,2.4031939407962293,-2.739822436062531,3.0745075770872434,-0.4220261908878401,nan
1740794522.9257543,2.005663787147753,-2.488324799662788,1.7768508347003207,-0.22265368979257916,nan
1740794522.9296598,0.6392599426142284,-1.6260740171399926,-0.6003255975936168,0.935709471991035,nan
1740794522.9335656,-0.7325063820216612,-0.6661422243524272,-1.455009099336797,1.7356198665453857,nan
1740794522.9374712,-1.4196549350629668,0.3535460247838541,-0.3222767218543519,0.93870799897903,nan
1740794522.9413767,-1.3464072066534414,1.5216854913506221,0.9580227472840251,-1.084462171158788,nan
1740794522.9452822,-0.828995689559743,2.4374949877875824,0.7163635008070347,-2.4934671228727785,nan
1740794522.949188,-0.18688695034574598,2.2863360134572908,-0.6183416237569938,-1.7848681992013264,nan
1740794522.9530954,0.4096091222453222,0.7687145249490293,-1.3630418558500499,0.5884208530931027,nan
1740794522.957001,0.8364866386940114,-1.1696774181278715,-0.8472519105863036,2.5218847219773655,nan
1740794522.9609067,0.9247915899444491,-1.9264301329404878,-0.10838829492702655,2.238268817858861,nan
1740794522.9648123,0.5626557305900266,-0.8395526880525138,-0.24023571402838215,-0.03176644227531351,nan
1740794522.9687178,-0.11474355392563745,0.8976880523153413,-0.7236331823128566,-2.29891352968128,nan
1740794522.9726233,-0.6989994982247735,1.252602233057495,-0.06434755512936152,-2.664736496677367,nan
1740794522.9765291,-0.758400847226703,-0.5077364349483696,2.00160702146652,-0.9432423385905795,nan
1740794522.9804347,-0.19988002945600744,-2.7999851795200756,3.6381474119118073,1.373287440135399,nan
1740794522.9843402,0.5736332029968724,-3.109896066790533,2.729093752553839,2.543320737399772,nan
1740794522.9882457,0.9075082542116043,-0.5349871542396578,-0.619875971188679,1.951251393464331,nan
1740794522.9921513,0.4154143407581361,3.114318848094598,-3.8784045649263286,0.3126956969017227,nan
1740794522.996057,-0.6303388399928571,4.8632898391591,-4.519954377512763,-1.1657619016670646,nan
1740794522.9999685,-1.4159451054560552,3.269926415829827,-2.3795932253083314,-1.726679828982343,nan
1740794523.003874,-1.2030400650683797,-0.364054136870741,0.5460381785680369,-1.3676595389466957,nan
1740794523.0077796,0.023841822680527862,-3.307607741389472,2.301656122667314,-0.5313793706212067,nan
1740794523.0116854,1.4528402036504586,-3.7651550551597395,2.5358680585571816,0.33192263494533475,nan
1740794523.015591,2.0332979670668907,-2.037090682176581,1.9920110462511469,0.9511025873868135,nan
1740794523.0194964,1.2933460954228446,0.2546587494875495,1.1595264423662284,1.1719646692713068,nan
1740794523.023402,-0.3002063730979061,1.6898482619424469,0.00041397520907543374,0.880772852134651,nan
1740794523.0273075,-1.7198797928673835,1.8336450917997382,-1.2214154963229968,0.08610513284384083,nan
1740794523.0312133,-2.1266134306651217,1.0122284487483177,-1.6429443771546652,-0.9060052371558422,nan
1740794523.0351188,-1.36631298797337,-0.1625611596223414,-0.8081143036648976,-1.480888404536063,nan
1740794523.0390244,0.07514970523106954,-0.9971912343371111,0.37405420577657655,-1.0662287143150766,nan
1740794523.04293,1.445781481493257,-0.8998549964777889,0.3697096914249587,0.30871918030894346,nan
1740794523.046841,2.080139005441509,0.16365489457012322,-1.0742692266983085,1.7681658849237096,nan
1740794523.0507464,1.6293656058317965,1.3550738679275103,-2.238991807589058,2.1014339099637485,nan
1740794523.0546522,0.2520015877314936,1.4655009598654516,-1.1840363341133393,0.8045478830535626,nan
1740794523.0585577,-1.3080566826823163,0.07284983910399796,1.8409870598397127,-1.272525359567635,nan
1740794523.0624633,-2.028588211643809,-1.804173154438588,4.223422583138162,-2.47385533598125,nan
1740794523.0663688,-1.3396490290327963,-2.46608793196114,3.5453522188304336,-1.7920193997946003,nan
1740794523.0702746,0.25786514112476316,-1.1452647841789145,0.15286589989723115,0.11687296232739579,nan
1740794523.0741801,1.4186824294818454,1.1526268395257437,-3.1248551299400713,1.4849774908102824,nan
1740794523.0780857,1.0874704321895836,2.5208232751247532,-3.786275325336051,1.1590894235438123,nan
1740794523.0819912,-0.41472395391420813,1.9018616161759136,-1.9062708309851992,-0.21361272420886596,nan
1740794523.085897,-1.5219847885052828,-0.03126817507298254,0.4332848316427384,-0.8521917144059189,nan
1740794523.0898025,-0.8729818234628675,-1.651389503968629,1.5080780535465501,0.22550934505547768,nan
1740794523.0937128,1.2296505393403956,-1.8787309379167494,1.3220759092979546,2.0190161007904877,nan
1740794523.0976186,2.8765986458706743,-0.8927386100634179,0.8116951861238153,2.450909445482269,nan
1740794523.101524,2.2575872583046737,0.4074534172562525,0.4002446729551254,0.5216236182546764,nan
1740794523.1054296,-0.5443854651227591,1.3180479563837757,-0.1699341115662812,-2.5060073437979997,nan
1740794523.1093352,-3.4427809180214033,1.6212346521819851,-0.8606208711830786,-4.161729678280964,nan
1740794523.113241,-4.107695915720441,1.2590212966837144,-0.9406446400780076,-3.032221306129435,nan
1740794523.1171465,-1.9669899798115849,0.15440214945624414,0.06638388862011275,0.0013051052777618552,nan
1740794523.121052,1.3851690809620711,-1.4489065008520856,1.395224237944725,2.6705440111611405,nan
1740794523.1249576,3.6278433913624912,-2.6716387337706085,1.5846901607839214,3.3294790338005527,nan
1740794523.1288633,3.5486308433530778,-2.4233315100713053,0.1377178538091421,2.107083226009649,nan
1740794523.1327689,1.6670444446121622,-0.4160628302304353,-1.734449125061193,0.35553263638669763,nan
1740794523.1366744,-0.5953774452473329,2.2479712184486242,-2.3252174151751293,-0.725348441117234,nan
1740794523.1405842,-2.109834451360257,3.704128827312015,-1.2285035081024929,-0.8902678811217017,nan
1740794523.14449,-2.5146757074794124,2.7862855837119826,0.3990067733209281,-0.6174495525197379,nan
1740794523.1483955,-1.9295283350018557,0.04632305944276432,1.3087610689650275,-0.45585976026055536,nan
1740794523.152301,-0.6235311957199418,-2.6146624690293834,1.4384638138170864,-0.6453993985518518,nan
1740794523.1562066,0.9392344281398068,-3.416270564847535,1.4636785487412622,-1.0826682186490222,nan
1740794523.1601124,2.004870651481062,-2.025880844663265,1.4467921872381424,-1.378775860387843,nan
1740794523.164018,1.8712850433259203,0.32910169797502953,0.6033130309616431,-1.0096423020858922,nan
1740794523.1679235,0.5277504732882881,1.9594431334391451,-1.368833272157699,0.27275797626062515,nan
1740794523.171829,-1.1102254545370478,2.0234457892079316,-3.228468802677245,1.9832084876470693,nan
1740794523.1757345,-1.8002773760165123,0.9677845373919618,-3.1186900835558444,3.0070635303638187,nan
1740794523.1796403,-0.9789277084398749,-0.13944228459679905,-0.6725479653082976,2.471261080652203,nan
1740794523.1835458,0.732327677103149,-0.6369179111624179,2.2481813324156463,0.634915456859334,nan
1740794523.187455,1.9929236006879318,-0.6702533550956745,3.293788636566318,-1.2367357253649316,nan
1740794523.1913605,1.7783083271641589,-0.6896143830154474,1.9819442394816553,-2.0489329147246864,nan
1740794523.195266,0.13875886431276044,-0.732684401051304,-0.02089925305442921,-1.8700601855298977,nan
1740794523.1991715,-1.8495130819361159,-0.3809860572797457,-0.9381907505929749,-1.5838426632979685,nan
1740794523.2030773,-2.826843837160975,0.5443483773947256,-0.7470107650877266,-1.5927274737449413,nan
1740794523.2069829,-2.0570334743546086,1.4387580053763855,-0.709897882956086,-1.198543263102487,nan
1740794523.2108884,0.0564375635143321,1.3492649937455217,-1.3806123667646073,0.4295566045512103,nan
1740794523.214794,2.177771989546268,0.06595959286173424,-1.7487931811163249,2.787485365899334,nan
1740794523.2186997,2.9194622462344766,-1.3954754188509857,-0.63498320247655,4.016329996431989,nan
1740794523.2226052,1.862243187649392,-1.6776475428145479,1.5042221415221708,2.7229361256987525,nan
1740794523.2265108,-0.08910554372126786,-0.5218288286805595,2.7792483926223936,-0.28422412602669844,nan
1740794523.2304163,-1.4388118708653406,0.8674647767519893,1.9592572355564375,-2.5084823937925287,nan
1740794523.234325,-1.3950795941302132,1.093248322171042,-0.09598609254571597,-2.2661695956596573,nan
1740794523.2382305,-0.5300570299844263,0.1273770418497968,-1.4384922416346722,-0.48610342752020275,nan
1740794523.242136,-0.0846782711861065,-0.6666812386243877,-1.232196522338214,0.3443727710485195,nan
1740794523.2460418,-0.5665005429523083,-0.1780345188054918,-0.4652267937899482,-0.9249371713917016,nan
1740794523.2499473,-1.146079010925169,1.0323953249706395,-0.41215195036654867,-2.629055373262305,nan
1740794523.2538528,-0.6102453933793075,1.3069942883265997,-0.9166009310066514,-2.072987459643537,nan
1740794523.2577584,1.0949611761620177,-0.0845300104488421,-0.7124313888769367,1.2574840193786767,nan
1740794523.2616642,2.50693402028044,-1.8608709103656267,0.6889685380439085,4.690773414559027,nan
1740794523.2655697,2.06727237696365,-2.0272444527556917,2.077575065686125,4.9105066361415,nan
1740794523.2694752,-0.10568821903987523,-0.19655860943280845,1.893895035279163,1.435934131720592,nan
1740794523.2733808,-2.097031595955723,1.7907982769461634,0.1948505031988769,-2.7359473384508552,nan
1740794523.2772865,-2.0491856262824424,1.8280680085566297,-1.2996291933897859,-4.094958947452087,nan
1740794523.2811944,-0.10800531876800797,-0.06565833889161087,-1.231564864924114,-2.058091744443244,nan
1740794523.2851,1.6615734014900998,-1.7022927034826991,-0.19441466936923965,0.7218855910428703,nan
1740794523.2890055,1.3957191377204896,-1.1709326683724792,0.1393270956044005,1.3538223480139928,nan
1740794523.292911,-0.6220623970249499,0.9826613451233092,-0.7204143924186763,-0.3184656158309711,nan
1740794523.2968168,-2.2568724263469724,2.3390804597463304,-1.336091358702854,-1.8696802205478715,nan
1740794523.3007224,-1.746004646399516,1.2893773873264998,-0.19300966337653994,-1.1521439795180277,nan
1740794523.304628,0.4984946326182097,-1.2192330600976415,2.0834325317644313,1.382105017199251,nan
1740794523.3085334,2.3559604288011893,-2.7691084137433064,3.0317835303291982,3.2841813406613416,nan
1740794523.3124392,2.15676520147535,-2.0329062775190168,1.111922614686421,2.726268218207016,nan
1740794523.3163447,0.26490285518149287,0.0720534857724292,-2.2293097634632306,0.23815684593370046,nan
1740794523.3202503,-1.4348610725001203,1.67449542983161,-3.7576686213206307,-2.055469356136103,nan
1740794523.3241558,-1.4477240460456147,1.9009325905104941,-1.8058346182524891,-2.5509550100822636,nan
1740794523.3280632,-0.004450738778717771,1.2681939049053206,1.8635739465867482,-1.3662229925743075,nan
1740794523.3319688,1.3383720185000554,0.5008148647349541,3.7651907228061856,0.24025200162509383,nan
1740794523.3358743,1.2170476091884497,-0.3578095195478097,2.164767492713219,1.1578814576265812,nan
1740794523.33978,-0.38673192814800084,-1.419288152437214,-1.3132501120322146,1.0449018999399897,nan
1740794523.3436856,-2.2200080055394036,-2.0610174942190946,-3.451078967687531,0.12820950329171626,nan
1740794523.3475912,-2.7687715351891633,-1.3040932475738516,-2.543972423252619,-1.0667682667709977,nan
1740794523.3514967,-1.3551158268592831,0.7507511477756116,0.28630832793995287,-1.7358439205317011,nan
1740794523.3554022,1.3494205286396088,2.406705049272885,2.5228426102639965,-1.0553420429543863,nan
1740794523.359308,3.6572087364568793,1.902392826469985,2.6153763944401556,1.0331494225321785,nan
1740794523.3632135,3.9257051699646026,-0.5065400268990511,0.9772137312669453,3.252476041015099,nan
1740794523.367119,1.774218639191042,-2.4709997444241503,-0.8775071532481162,3.6602041255451825,nan
1740794523.3710246,-1.459747965788169,-1.9092221299777674,-1.7715105850831345,1.3702796184866406,nan
1740794523.3749363,-3.607334496124768,0.6982260797750311,-1.5295619810438377,-2.3022059650902125,nan
1740794523.3788419,-3.3666703041807278,2.7264679052952028,-0.676882083961796,-4.679926357350089,nan
1740794523.3827474,-1.3431699724968,2.1700987704314443,0.17947611456880844,-3.9972916716291547,nan
1740794523.3866532,0.6187817956963038,-0.3047679014005183,0.7275842419634986,-0.9467147737052631,nan
1740794523.3905587,1.2201012179508142,-2.2479392906482274,0.9815753242482369,2.0436384863650257,nan
1740794523.3944643,0.8088560716793157,-2.103994192984979,1.075732288173399,3.045201894422187,nan
1740794523.3983698,0.6742549546391987,-0.6024001651342173,0.9816366039871833,2.1289210459889936,nan
1740794523.4022753,1.3706921206106695,0.5110013899079926,0.4248995343943578,0.7883660816810281,nan
1740794523.406181,1.9977700786921329,0.6034007151980908,-0.7674302533325377,0.17482537689255653,nan
1740794523.4100866,1.276892474760389,0.5438801204616769,-2.132372200113333,0.1151040713926822,nan
1740794523.4139922,-0.8120453581370546,1.1177452574197153,-2.5637824342035684,-0.2352926900223903,nan
1740794523.4178977,-2.749064624902735,1.709774662892772,-1.2130047926874556,-1.1282426243876316,nan
1740794523.4218087,-2.9313449047173856,1.0366154493171955,1.4085283374510607,-1.8758044746529234,nan
1740794523.4257143,-1.2744188149308855,-1.0011931677976775,3.43087405287961,-1.6919757313670334,nan
1740794523.42962,0.7772662255974261,-2.775682927478988,3.125986164558131,-0.6067400915907772,nan
1740794523.4335256,1.7466860954661922,-2.542534299344173,0.605163233780345,0.6012976214003206,nan
1740794523.437431,1.4213113761230554,-0.38101295192828544,-2.1079173876584223,1.2489416508112945,nan
1740794523.4413366,0.653204786405819,1.8180315662823887,-2.9095188480124983,1.3115750817942988,nan
1740794523.4452424,0.17698967077150085,2.304464958495753,-1.5600812213587079,1.1409357487321083,nan
1740794523.449148,-0.04386991293151667,1.1262299415812607,0.28062640312425574,0.8613340597429442,nan
1740794523.4530535,-0.3317735673677183,-0.2656262261701287,0.9183561308550844,0.2766853071830546,nan
1740794523.456959,-0.5691431214713262,-0.760105570705211,0.31738919160453083,-0.6441422986975324,nan
1740794523.4608645,-0.32100305600269396,-0.5576676447685233,-0.1851326062293095,-1.4294578596478416,nan
1740794523.4647703,0.3763932777390579,-0.44460600122041194,0.3425203994189476,-1.4571386683977186,nan
1740794523.468681,0.7409169777325295,-0.5740712350664638,1.3011754394079826,-0.6430606031798801,nan
1740794523.4725866,0.05083663322196645,-0.3717103769356274,1.3593218987659927,0.3627314752367476,nan
1740794523.4764922,-1.350671020747594,0.44647470841747006,0.13497593137125538,0.7657503844896484,nan
1740794523.4803977,-2.1427168883999026,1.2216418214254336,-1.2778019193869665,0.3973167876213268,nan
1740794523.4843032,-1.2802749792111,1.010287284886047,-1.538505002352107,-0.1521231502653594,nan
1740794523.488209,0.8920942386601948,-0.23897455796896308,-0.5589576118057562,-0.16398566975711468,nan
1740794523.4921145,2.854259199585208,-1.4686811205139456,0.47241893286341347,0.4758641498460965,nan
1740794523.49602,3.1971531352773033,-1.555626595998526,0.4945144491942939,1.1596431370532958,nan
1740794523.4999256,1.6813336238548178,-0.4156918672176857,-0.2777475856234167,1.1223850326345428,nan
1740794523.5038314,-0.7788780994984316,1.0134548351275119,-0.7317587678611072,0.13518470250353054,nan
1740794523.507737,-2.86232900667594,1.7280959776904194,-0.19626503865042494,-1.259878499884618,nan
1740794523.5116425,-3.5208525682121503,1.4186410444181592,0.8513706621645896,-2.1174255212543405,nan
1740794523.5155525,-2.339095637391544,0.405203674760685,1.4108496165753264,-1.7582252223716437,nan
1740794523.519458,0.205920577955696,-0.8071030788104938,1.0401034273692524,-0.28109863588342276,nan
1740794523.5233636,2.6889352807950684,-1.7073409587460364,0.14890497814396084,1.4303181750118161,nan
1740794523.5272694,3.3998999142262614,-1.7700857480870589,-0.631169085136151,2.264494778902287,nan
1740794523.531175,1.6973707133166862,-0.742118535383434,-1.067375878797724,1.6766460816068367,nan
1740794523.5350804,-1.1076281882192547,0.8731562284915989,-1.2390049335248892,0.1302090622635926,nan
1740794523.538986,-2.5944232684266635,1.896113648895969,-1.094706355797395,-1.2380646882898192,nan
1740794523.5428917,-1.438164532483817,1.4426253945431544,-0.4244821685845097,-1.5271218425566142,nan
1740794523.5467973,1.1390337403453958,-0.08809500101775337,0.6776735854398946,-0.7798359475441594,nan
1740794523.5507028,2.4145712075693266,-1.2418777281419255,1.5728511484561676,0.16696350402191798,nan
1740794523.5546083,0.9132811727713948,-0.9507549057627557,1.5538157240754404,0.535639570887482,nan
1740794523.5585139,-1.9634390542451652,0.3174111537775904,0.5850369458264637,0.29793508494087806,nan
1740794523.562423,-3.2817026236628233,1.058371073812967,-0.576417706422384,0.01996671578280307,nan
1740794523.5663288,-1.5929451423457996,0.4086373767777266,-1.0817184243762463,0.10613833452077436,nan
1740794523.5702343,1.56321894940322,-0.8849745004596966,-0.7592461767489055,0.33663010750256905,nan
1740794523.5741398,3.272275877625847,-1.3324361690013133,-0.14003331013632103,0.21872880270010556,nan
1740794523.5780454,2.20324231911207,-0.41076238185288116,0.19253405561242218,-0.3050427678465048,nan
1740794523.5819511,-0.251268832260271,0.8642677716247569,0.14003865200897783,-0.6843316802555091,nan
1740794523.5858567,-1.7055573509013702,1.1436091038545557,-0.01307525358233454,-0.380210151360221,nan
1740794523.5897622,-1.28207442863751,0.2811351761304873,-0.05136876982797914,0.4360640563291128,nan
1740794523.5936677,-0.15100428190700563,-0.5925069384880787,-0.015527424889709615,0.9615631467787911,nan
1740794523.5975735,0.1906001145842109,-0.4759535201805839,0.009786730666357988,0.5944424857644958,nan
1740794523.601479,-0.3345000943667311,0.33982190856550476,0.08772977388047377,-0.3904903246997457,nan
1740794523.6053846,-0.595946050282076,0.7125313021450385,0.2890186918108517,-1.0881346369346756,nan
1740794523.6092932,0.09156610641190366,0.09030786260811399,0.45928097900445686,-0.8739655241565037,nan
1740794523.6131988,1.0425282880021796,-0.8173225599773815,0.31452569504590017,0.00226301259494413,nan
1740794523.6171043,1.0937576242223268,-0.9181834403950125,-0.17699074304794554,0.7380240057304444,nan
1740794523.6210098,0.10218728581254938,-0.06087253343177504,-0.6328980869322414,0.7989577979174531,nan
1740794523.6249156,-0.8453349541453556,0.7930567127346009,-0.6107448475199041,0.3436675289826727,nan
1740794523.6288211,-0.7361759492062282,0.7151404828030242,-0.11198735715236724,-0.1064319020031526,nan
1740794523.6327267,0.1815948687343809,-0.12408243174259863,0.38039766269547665,-0.2589542099050877,nan
1740794523.6366322,0.7509980180757957,-0.7090031855455712,0.4161658187729518,-0.22824891709890022,nan
1740794523.6405377,0.304969203240355,-0.3870594794503729,0.0552001357879064,-0.2208109303710111,nan
1740794523.6444435,-0.5956853602277956,0.41843177164884326,-0.24719053457933268,-0.22774074964993438,nan
1740794523.648349,-0.9005110097074792,0.7693638701586879,-0.18801302521626015,-0.10733046857853958,nan
1740794523.6522546,-0.3050159248081979,0.3060212743847522,0.07198117847706022,0.12828528701191352,nan
1740794523.6561627,0.48997494318441837,-0.4117406956491886,0.18093518714000006,0.2633547560471743,nan
1740794523.6600683,0.6853540142562281,-0.6222310407333906,0.0653931978854886,0.15072509738197984,nan
1740794523.6639738,0.2695229549877806,-0.21570242912525564,-0.011662812693627553,-0.06733984503239186,nan
1740794523.6678793,-0.13206788291591223,0.24554190054538702,0.1422762915314893,-0.11028301082468835,nan
1740794523.6717849,-0.1066338442231994,0.25177499769673706,0.33306301655564774,0.08721121226609084,nan
1740794523.6756907,0.11373032975868426,-0.09859545075035493,0.19495626186197798,0.2708842373724054,nan
1740794523.6795962,0.08777989530103672,-0.30779392084281476,-0.31230573919589816,0.16433493199961619,nan
1740794523.6835017,-0.20911078499525096,-0.1020022669746202,-0.7589741313936599,-0.1845344532674343,nan
1740794523.6874073,-0.3913222848593576,0.28961404284243936,-0.6748509544635198,-0.4335923693930529,nan
1740794523.691313,-0.21581062692099337,0.45139371466349604,-0.07144962734211509,-0.3253813888037514,nan
1740794523.6952186,0.10174038004922113,0.2433908518815146,0.5504333084577068,0.03074560779484805,nan
1740794523.699124,0.2039614812063347,-0.11216502945729902,0.7138260612332237,0.2940684804737694,nan
1740794523.7030313,0.06678929836872707,-0.3241007911923922,0.4130567905319108,0.2671072745751854,nan
1740794523.706937,-0.0170392965351576,-0.30451059047792506,0.024401230853596294,0.07021444013804283,nan
1740794523.7108426,0.11189740313423413,-0.15484541895501486,-0.1474350023466712,-0.05221851672302778,nan
1740794523.7147481,0.2455358873255954,0.0104357333580603,-0.1350316241404314,-0.021889404824980634,nan
1740794523.7186537,0.11881365681343314,0.1486589676419606,-0.135975348610203,0.03284627748296679,nan
1740794523.7225595,-0.17789173295850258,0.235099502378533,-0.2033961343698069,-0.011044056182300302,nan
1740794523.726465,-0.2820565974745998,0.2187423749676221,-0.21092207797505205,-0.10692478165706554,nan
1740794523.7303705,-0.05416091517565669,0.07440314090424258,-0.08915740643549655,-0.1216682941865454,nan
1740794523.734276,0.19193466421468885,-0.13365147603593105,0.033810579456805455,-0.029025564231559834,nan
1740794523.7381816,0.07895260923583707,-0.2814378331158225,0.0022464218432762316,0.05344364353796517,nan
1740794523.7420874,-0.3046409150101067,-0.2792540183466285,-0.11733499527518065,0.02623073807420279,nan
1740794523.745993,-0.45297079576485116,-0.12508734771264313,-0.07237471779241762,-0.05415562243840265,nan
1740794523.7499046,-0.06490712892808827,0.11276629239699751,0.25042779090382905,-0.04628800094177916,nan
1740794523.7538102,0.5297140385481144,0.32847424547216475,0.6077319563201345,0.087557179345023,nan
1740794523.7577157,0.7087647225274347,0.40289528058524277,0.6001152182438809,0.21784587147866905,nan
1740794523.7616215,0.2790947642523394,0.2604791211218421,0.10719901512261755,0.19070105911155222,nan
1740794523.765527,-0.30155666613381626,-0.04535278733438177,-0.532032318647889,0.002123661301190041,nan
1740794523.7694325,-0.4773986169061737,-0.3254601596243275,-0.8203713655760427,-0.20028334427747393,nan
1740794523.773338,-0.23448767102396026,-0.39914515843829546,-0.5752641088148392,-0.27386083844068865,nan
1740794523.7772436,-0.037711935581501,-0.26913802089814703,-0.07254627235212181,-0.2029663334630736,nan
1740794523.7811494,-0.16927802965355346,-0.11041868948765156,0.271722659385927,-0.0654000363501993,nan
1740794523.785055,-0.33473469641555226,-0.048342566931588865,0.31383311634003475,0.07524688479528388,nan
1740794523.7889605,-0.062199901307734284,0.010658926849575747,0.24861480744999914,0.20258280189452832,nan
1740794523.792866,0.600491285107833,0.24475589218994667,0.2991786708549918,0.28947585883410104,nan
1740794523.7967772,0.9997939329689691,0.6015134396379384,0.41515697019659004,0.2664515867644106,nan
1740794523.8006828,0.5806989580963164,0.718517731870614,0.3293920233116282,0.08886025199176398,nan
1740794523.8045883,-0.42357508723747633,0.28007687939849735,-0.09699545845375683,-0.17579205305820103,nan
1740794523.808494,-1.1475743765246618,-0.5365408702922508,-0.6387410202504915,-0.3656648410273685,nan
1740794523.8123996,-0.9553129856467745,-1.0855091602235922,-0.8618914258133826,-0.3517014536145772,nan
1740794523.8163052,-0.06264481054918068,-0.8406538755105378,-0.5323018677295227,-0.14671622130109957,nan
