timestamps,TP9,AF7,AF8,TP10,Right AUX
1740794492.3462207,0.01778658934714484,0.2884967473593974,0.3465058690049111,0.39343474859586747,nan
1740794492.3501263,-0.6122022635665505,0.5648481823369327,1.0928981570444736,0.24063272471726407,nan
1740794492.3540318,-0.8139877862369935,0.5728924836599836,0.9750492328200804,-0.07263821571706963,nan
1740794492.3579373,-0.41836374892020267,0.46414179699478586,0.07022938465801618,-0.26303048753353125,nan
1740794492.361843,0.22331192578870207,0.26848624584879743,-0.7653572179653305,-0.1893674401441823,nan
1740794492.3657486,0.5598889769174045,-0.08838415377172966,-0.8147603305531093,0.03642510273304575,nan
1740794492.3696542,0.3542240529814071,-0.5421348475372793,-0.22413930815059163,0.20211629151626245,nan
1740794492.3735597,-0.11644870011792413,-0.8037667801990072,0.26740439520786485,0.2085072484681151,nan
1740794492.3774652,-0.361995562194781,-0.6075928705540548,0.20688411541905408,0.1083025703620942,nan
1740794492.3813708,-0.16540320714697015,-0.02528715564433136,-0.13484263743396788,-0.01674580438710797,nan
1740794492.3852763,0.23334400981249573,0.5363121707461836,-0.20665471260538268,-0.14192620552959576,nan
1740794492.3891819,0.4131046059313482,0.6831050634208224,0.1230761190176063,-0.2526785673943028,nan
1740794492.393091,0.19766281004007377,0.3714629602281567,0.45519742031664595,-0.2825055237995538,nan
1740794492.3969965,-0.19806499960065133,-0.0934974106485089,0.38575426200429014,-0.16720347493409285,nan
1740794492.400902,-0.41145828595577266,-0.35626009670204345,-0.029658089927211532,0.04858341710307293,nan
1740794492.4048076,-0.28124238028392795,-0.28819761055937165,-0.39149719666749316,0.2236318665603173,nan
1740794492.4087133,0.04233049886639742,-0.016905143698246708,-0.4140365516077754,0.2675489350987174,nan
1740794492.4126189,0.28256373982339056,0.23637127028078742,-0.1525908243242668,0.2333203049168818,nan
1740794492.4165244,0.2835589469417664,0.31502171803843465,0.16473991246322578,0.21607513257192537,nan
1740794492.42043,0.08875068904803114,0.17914266967259557,0.36981986388894394,0.18742014337219481,nan
1740794492.4243355,-0.15362452270981508,-0.10902309727910046,0.3789485218792729,0.01294653718399842,nan
1740794492.428241,-0.3053966930358875,-0.40964276953051887,0.13716984253628708,-0.3292779172927033,nan
1740794492.4321465,-0.2818319065563796,-0.5498091717040875,-0.2991289412954261,-0.6119502244971754,nan
1740794492.436052,-0.06741793588114768,-0.4111878707708144,-0.651972506763572,-0.538137832874166,nan
1740794492.4399605,0.24633768469633313,-0.02006337964159695,-0.5747903547136618,-0.08288427093580009,nan
1740794492.443866,0.4604218006072175,0.44062787817535676,-0.027036593571901153,0.40990024885307075,nan
1740794492.4477715,0.3889712082593276,0.7266114104043924,0.5788530970359249,0.5410380519565158,nan
1740794492.4516773,0.040096101863510175,0.676302008330679,0.7397336346310177,0.2621271141593478,nan
1740794492.4555829,-0.3397681976951312,0.30887686563759276,0.3830149630712291,-0.0837186766828773,nan
1740794492.4594884,-0.46094369060442775,-0.1844799470244013,-0.0750838778182724,-0.14182567979800004,nan
1740794492.463394,-0.2614260654397816,-0.5537345169964961,-0.23051005744972458,0.08000809781847577,nan
1740794492.4672995,0.03574329387887092,-0.6431589512076697,-0.14315473022678907,0.2574214710203543,nan
1740794492.471205,0.1609136606450137,-0.4801236433871549,-0.17440389291106215,0.1380148976425769,nan
1740794492.4751105,0.079764173191807,-0.22185397581169766,-0.4305995682851781,-0.18685181130366552,nan
1740794492.479016,0.00019573370490831674,0.0014834240931163984,-0.5593102808279119,-0.4169801879939508,nan
1740794492.4829218,0.09481588402382025,0.1912535899058226,-0.20146392512130526,-0.38535020275459075,nan
1740794492.4868295,0.2683759562473178,0.4090710236659854,0.4681919235307891,-0.19542662441183087,nan
1740794492.490735,0.25856869234508495,0.6068024058632253,0.841081775967105,-0.03310112900160946,nan
1740794492.4946408,-0.03440515786348431,0.5886610651673694,0.5492444627621934,0.06731477340846749,nan
1740794492.4985464,-0.3808099812516026,0.2156247245104008,-0.10038885388212593,0.20745760113846853,nan
1740794492.502452,-0.4363359890845198,-0.3501125090813444,-0.4745205176577482,0.41419869488542205,nan
1740794492.5063574,-0.11506951398458748,-0.6915319181711391,-0.3219810670422733,0.5372262029517628,nan
1740794492.510263,0.2989944801197739,-0.5197839264756693,0.01435016649871384,0.40120205854691987,nan
1740794492.5141685,0.43309270411095635,-0.01259431574079928,0.0953807784457461,0.022273728041752715,nan
1740794492.518074,0.19220333330301292,0.3135392114002751,-0.07697224391080706,-0.38063915295993117,nan
1740794492.5219796,-0.17794744593203438,0.1346170213040417,-0.15034267009437358,-0.5879800014702659,nan
1740794492.5258853,-0.3657915192212922,-0.30679000917464117,0.04116627494578491,-0.5512111208606069,nan
1740794492.5297909,-0.2795919453635241,-0.43893086322333347,0.23963243910455706,-0.3587924013214334,nan
1740794492.5337036,-0.05708901569751232,0.00321998007343625,0.131024510876677,-0.09312123026806769,nan
1740794492.537609,0.13744528534798275,0.6437024352265239,-0.20211657689873014,0.21424152968974228,nan
1740794492.5415146,0.25081101701355824,0.8378128542328773,-0.36457350269628774,0.49724997983480723,nan
1740794492.5454202,0.28857855333712,0.3653806551703927,-0.1523564399602633,0.6099818745201884,nan
1740794492.549326,0.2225764428737672,-0.32504350567122475,0.20418104816004995,0.4386709018435566,nan
1740794492.5532315,0.029956770114244444,-0.600805983559769,0.3675197322586827,0.055066259205012937,nan
1740794492.557137,-0.1994441480595384,-0.31668798975382856,0.31421272422659235,-0.2977620937519644,nan
1740794492.5610425,-0.2902620625408419,0.0752068918481887,0.2628842726784858,-0.4097239272370498,nan
1740794492.564948,-0.1712251922667232,0.07802530403027742,0.24394892197421167,-0.285213126420858,nan
1740794492.5688536,0.005632536246066229,-0.28258890449215956,-0.010178766513118425,-0.1045301072440498,nan
1740794492.5727592,0.014955947334747605,-0.5139303249665315,-0.6117177069037922,-0.019633597385500422,nan
1740794492.5766647,-0.1590093676513505,-0.2400068737267084,-1.119004029419137,-0.019132528081083105,nan
1740794492.5805764,-0.258020950098543,0.36813158809760715,-0.8754357876064615,0.003758176250869262,nan
1740794492.584482,-0.0332349564032867,0.7822398675307907,0.17500325339568906,0.0908110729720934,nan
1740794492.5883877,0.4243609044208149,0.6734252640247315,1.2114485853662946,0.16613310894859346,nan
1740794492.5922933,0.7118891683157534,0.20646395229716852,1.2944144532522848,0.1392848896875277,nan
1740794492.5961988,0.5147296444722422,-0.2015435771864239,0.38474910837120546,0.02406301739138597,nan
1740794492.6001043,-0.05202983425104396,-0.32245037987324515,-0.5792827590279571,-0.0690201040539414,nan
1740794492.6040099,-0.548105837578291,-0.2670198560732376,-0.7005189619612352,-0.04875142293565793,nan
1740794492.6079154,-0.6441858387953276,-0.2547178156958977,-0.08211570568471156,0.06556264217650007,nan
1740794492.611821,-0.40412310888877473,-0.3368287956732748,0.37940902424175993,0.1639831698098781,nan
1740794492.6157265,-0.12593671735926745,-0.3774230897133099,0.09056889869249408,0.14083991858684072,nan
1740794492.619632,0.024048216749458562,-0.24234129086174497,-0.5713098892246876,-0.02434941807075633,nan
1740794492.6235378,0.13604576180669178,0.061362703411200474,-0.774459980847931,-0.24889502581412523,nan
1740794492.6274488,0.32907144317378695,0.415191389952758,-0.24379909681885487,-0.3897215465679779,nan
1740794492.6313543,0.5085937113084673,0.6814334048150859,0.46489616145197926,-0.32820638271965197,nan
1740794492.6352599,0.4477667374354853,0.7389988198134815,0.6844679730371127,-0.06226309533032249,nan
1740794492.6391654,0.0945589831043114,0.4980165670969476,0.39168643441216094,0.261573634841606,nan
1740794492.643071,-0.30147048520597897,-0.023909792933497837,0.09231382215724346,0.43312466144748574,nan
1740794492.6469765,-0.4324668484274592,-0.6187612900644469,0.09286566934469508,0.34199158818675535,nan
1740794492.6508822,-0.26500265963848246,-0.9533714900765573,0.1538125716470545,0.07900960311186024,nan
1740794492.6547878,-0.055377874323103995,-0.8066659353600616,-0.07118159568399368,-0.1371258103583811,nan
1740794492.6586933,-0.02691371123119983,-0.27426966140424147,-0.47431370002484013,-0.1555494131953182,nan
1740794492.6625988,-0.1085158103596975,0.2868474947976518,-0.6004998951134708,-0.024182759711195514,nan
1740794492.6665044,-0.05861509959479342,0.5496323465472127,-0.2706008242100526,0.07367958012222571,nan
1740794492.67041,0.18492661412050246,0.46981556437516436,0.14550806631244084,0.007706711242622022,nan
1740794492.6743207,0.3796671692795158,0.26464750022693123,0.20058702838143472,-0.17865408998065813,nan
1740794492.6782262,0.25834823297234916,0.16367072787297368,-0.03629669691644046,-0.3226452304617902,nan
1740794492.6821318,-0.11434195462719232,0.19144191674197028,-0.07487925175374122,-0.29431948133462743,nan
1740794492.6860373,-0.35655892874068945,0.17932009931357645,0.3116540118174975,-0.09152077925130146,nan
1740794492.6899428,-0.17693996979879165,-0.03348153221526136,0.7176384151981022,0.18414023096440355,nan
1740794492.6938484,0.2760809706104762,-0.4107204333458136,0.5741105245509902,0.4059679469626619,nan
1740794492.697754,0.530534908103609,-0.7089058268520563,-0.11494548153387572,0.4758599736185703,nan
1740794492.7016597,0.26658383511909534,-0.6578715162231065,-0.7170634123443641,0.3478287304102528,nan
1740794492.7055652,-0.34873994912535455,-0.19759370674927612,-0.6940514216721813,0.05389499739416181,nan
1740794492.7094707,-0.8086691257457309,0.4199190435538491,-0.2097476243352111,-0.27985122776698385,nan
1740794492.7133763,-0.7275540970940444,0.7809782180623069,0.12526804037857284,-0.4783397141071201,nan
1740794492.7172818,-0.15622260625674966,0.634290759811102,0.026424314158172032,-0.42701676034249925,nan
1740794492.721192,0.5069186122947121,0.12076403933858049,-0.1578830971081497,-0.16347519962869922,nan
1740794492.7250974,0.8555745669114566,-0.3327542869471993,0.03303708060797438,0.1385250662880675,nan
1740794492.729003,0.736611488123469,-0.39839603529725925,0.5230297527833806,0.2894099722978402,nan
1740794492.7329085,0.27242947902785136,-0.1438912833068203,0.7605248850905321,0.21336808475870567,nan
1740794492.736814,-0.2708398596589656,0.07784633269814856,0.3998646709600291,-0.006131550293476224,nan
1740794492.7407196,-0.6267053622430588,0.03820158832684586,-0.2691597980600701,-0.18531495710673607,nan
1740794492.7446253,-0.6358535259938727,-0.12016916511259111,-0.6640306668260498,-0.1625765422568887,nan
1740794492.7485309,-0.3229882070103532,-0.09530526686203895,-0.5596161276191871,0.07954603632219312,nan
1740794492.7524364,0.09922558396425978,0.1522405314814807,-0.24108454615734223,0.36904870770016507,nan
1740794492.756342,0.3556147152202403,0.3011448180901051,-0.047806221585010314,0.4416023644033384,nan
1740794492.7602475,0.31047041895850114,0.060498481381005796,0.03410705651409631,0.15727749155909054,nan
1740794492.764153,0.07491120081416246,-0.4046438328101778,0.2188877709560521,-0.32763220682125666,nan
1740794492.768062,-0.10061100039639129,-0.5727193797057585,0.4957476754839442,-0.6327158131227425,nan
1740794492.7719676,-0.062193219438081135,-0.14586905083292717,0.5684078337645286,-0.47553498661823673,nan
1740794492.7758732,0.11105277941965513,0.5496339370868997,0.25256470488478555,0.03275947497177061,nan
1740794492.7797787,0.20342676595105222,0.8533010368672161,-0.23224612342837925,0.44357515601229286,nan
1740794492.7836843,0.08793254537230273,0.46628098186975575,-0.49882340085977345,0.3844269620057329,nan
1740794492.7875898,-0.14915769092650288,-0.2327451844496145,-0.44433379124743977,-0.060743573512770224,nan
1740794492.7914956,-0.29966283485657097,-0.6147990900049809,-0.3028633097489378,-0.41419228555035303,nan
1740794492.795401,-0.2351018335008042,-0.4688093411331399,-0.24138903263680017,-0.27939884521649727,nan
1740794492.7993066,-0.017566056877845987,-0.14131416758627108,-0.09374528388276565,0.25073167560846604,nan
1740794492.8032122,0.1722330212107907,-0.0336958158298436,0.3500222599384105,0.6801962663856451,nan
1740794492.8071177,0.20187763318709762,-0.11419128326719888,0.8806536887558604,0.5988242213860089,nan
1740794492.8110232,0.08923261349029411,-0.04157697305993333,0.9374429447438614,0.06278062975239272,nan
1740794492.8149316,-0.038651845632580596,0.3011588545390931,0.25058886784608503,-0.5020124574014082,nan
1740794492.8188372,-0.0726947748264446,0.5851000664380486,-0.7149157074712347,-0.7190763421205071,nan
1740794492.8227427,-0.013548544335454797,0.43288321739611807,-1.1456026687686485,-0.5456084156364717,nan
1740794492.8266482,0.0470035331395948,-0.07115367513674276,-0.7240240508668037,-0.18899706752176113,nan
1740794492.8305538,0.026795228343741637,-0.430184754797713,0.0514485463964831,0.14713393822617715,nan
1740794492.8344595,-0.062424998254156656,-0.3116211227962265,0.4563930137867606,0.37462999968512906,nan
1740794492.838365,-0.12632132679842778,0.059782863473739685,0.3295279410917192,0.4510015198586458,nan
1740794492.8422706,-0.08241254637118767,0.1867466878304577,0.1276178515651915,0.33618694069211535,nan
1740794492.8461761,0.055324094422024024,-0.08924748760951605,0.24180549335142967,0.07916480471028209,nan
1740794492.8500817,0.1842560631813742,-0.406430539727473,0.47816298451610667,-0.12938319850171598,nan
1740794492.8539872,0.20230392307399725,-0.34194546157053674,0.3533825337771934,-0.10987185369742783,nan
1740794492.8578928,0.08877581050163408,0.07462469393184744,-0.2081811151955306,0.07712684828550463,nan
1740794492.8618007,-0.0925057722513506,0.4221737513183071,-0.6983478377495281,0.14274405176147917,nan
1740794492.8657062,-0.2479569200597498,0.40890305284077555,-0.6109686909813961,-0.10744032017775373,nan
1740794492.8696117,-0.300310037186257,0.17640694382314587,-0.05351942544493937,-0.4904010843389332,nan
1740794492.8735173,-0.20462529223388604,0.03525807477704169,0.37794393883737176,-0.5855134245560003,nan
1740794492.8774228,0.02965630032143518,0.03543836727556239,0.29107005927313323,-0.2030586502537657,nan
1740794492.8813283,0.3016881221727048,-0.04013207166421503,-0.097876240070476,0.3505199516023348,nan
1740794492.8852339,0.4343878746125901,-0.28063415644787326,-0.2954931657262448,0.5645923838187225,nan
1740794492.8891394,0.29719460517930407,-0.4394848031496164,-0.1218616311342121,0.28306081728613586,nan
1740794492.8930452,-0.04425138030405419,-0.2479754546427803,0.17194664052137967,-0.11260678584236544,nan
1740794492.8969507,-0.33043705854540406,0.15836867550091951,0.3120316163055708,-0.13629734646780262,nan
1740794492.9008563,-0.3259814216255271,0.32442038163928816,0.3210117559767953,0.2330777338949374,nan
1740794492.9047618,-0.06400431374248258,0.04108072611389729,0.3420399511737886,0.5091598847510452,nan
1740794492.9086745,0.16256675142747604,-0.3246509083152538,0.29903787003883003,0.2516547779093516,nan
1740794492.91258,0.10141424294294545,-0.22660568815974289,-0.04518728207232935,-0.4090896947394604,nan
1740794492.9164855,-0.1711147443038578,0.36401985514418206,-0.6623946412292374,-0.8787571395401399,nan
1740794492.920391,-0.3116542116714046,0.8355843521648915,-1.0797960221752732,-0.7216687201970071,nan
1740794492.9242966,-0.08812946461880229,0.6042502035325795,-0.8074597604209811,-0.10459076112662623,nan
1740794492.9282022,0.3354756697608965,-0.19390321286814394,0.07262206149402999,0.41321259696977064,nan
1740794492.9321077,0.545141567323047,-0.8272580413137137,0.8906222924399774,0.4761642492033225,nan
1740794492.9360135,0.31343068574284205,-0.777031703256408,1.031953148468055,0.2444306849309793,nan
1740794492.939919,-0.15451390442131333,-0.26738560162728303,0.5288207972059193,0.11910219492530401,nan
1740794492.9438245,-0.4400951744487236,0.09455791379949238,-0.05442045591457394,0.24839954426915417,nan
1740794492.94773,-0.34325617443603895,0.08111059734789314,-0.26159274069819266,0.38441471942898003,nan
1740794492.9516356,-0.04502383832057309,0.046649260907121605,-0.15359399648657993,0.2130374458056206,nan
1740794492.9555476,0.1478188858494309,0.3478773299420852,-0.08411335067424348,-0.2551586754763494,nan
1740794492.959453,0.13771086986103878,0.768685682214669,-0.21862101303644585,-0.6708279004395434,nan
1740794492.9633586,0.06074322427878065,0.7303027636500228,-0.39563462466954935,-0.695647031043256,nan
1740794492.9672642,0.032294639563312195,0.0491688968753818,-0.40386074911512837,-0.32255308908603736,nan
1740794492.97117,-0.008751133828117302,-0.7292834771557553,-0.23348065577409385,0.1463000168504566,nan
1740794492.9750755,-0.1482473189319043,-0.8938863948303912,-0.0005974976778702763,0.39410035984863734,nan
1740794492.978981,-0.27569657285205434,-0.376973916296475,0.24854280053071479,0.34339245107471195,nan
1740794492.9828866,-0.15283251939710019,0.1787027336871069,0.5178946322399408,0.1587342938544384,nan
1740794492.986792,0.25756086203941,0.19228097268215325,0.6855556401075211,0.05337410688320454,nan
1740794492.9906976,0.6290850400318868,-0.17489670087828918,0.5255548714424986,0.1017375117726008,nan
1740794492.9946032,0.5563178971402442,-0.2554677891084206,0.005191552165981303,0.20229672358512968,nan
1740794492.9985087,0.01246943979442928,0.2620005318154844,-0.5342244411660234,0.19001024356136292,nan
1740794493.0024197,-0.5646114108060644,0.8962935725919456,-0.654480440612677,-0.007431819103703661,nan
1740794493.0063252,-0.7045155171734966,0.8988159696259433,-0.3061445359586397,-0.29529260605721214,nan
1740794493.0102308,-0.3825764726531224,0.12496279386400175,0.08030082571322605,-0.4824625898072189,nan
1740794493.0141366,0.004211117992813728,-0.7670719778987387,0.07615260841494273,-0.4416361914966815,nan
1740794493.018042,0.12436719473788872,-1.00842941810744,-0.2363979532497647,-0.21314687338013003,nan
1740794493.0219476,0.07182742414185296,-0.5013163365624039,-0.35840018264137463,0.050803378169090085,nan
1740794493.0258532,0.17207229892291329,0.16186363803390902,0.01574993204978375,0.23972628128267426,nan
1740794493.0297587,0.49443405577051525,0.38621970984295134,0.6037049329793512,0.35996280783221307,nan
1740794493.0336642,0.6967718564291235,0.15459401321892938,0.8368016836910767,0.44654535898605874,nan
1740794493.0375698,0.41836203794511184,-0.0902594038843897,0.4923258249771503,0.43963763947980844,nan
1740794493.0414753,-0.24843569874171834,-0.014693451982677512,-0.09571141445997583,0.21959211570751858,nan
1740794493.045381,-0.7913665989114779,0.2719745830758931,-0.456793347378332,-0.203517700607429,nan
1740794493.0492914,-0.7981680049150752,0.4243290560067189,-0.47881687170165327,-0.5860693903290563,nan
1740794493.053197,-0.3631181617064278,0.2730712326816051,-0.39256620169933043,-0.6234784799117281,nan
1740794493.0571024,0.07485890094040745,-0.03982791544137289,-0.35667395073510016,-0.26288365993797863,nan
1740794493.061008,0.23558940509476015,-0.27639349908553695,-0.24442534487775525,0.198125650170079,nan
1740794493.0649135,0.2351975060357445,-0.34816313955423894,0.09711283309535783,0.382268874800128,nan
1740794493.068819,0.3174916433425409,-0.3255506427914391,0.514776126771293,0.2051143698164319,nan
1740794493.0727246,0.47121080902462303,-0.2772605614306787,0.6440129793085815,-0.06182770498640543,nan
1740794493.0766304,0.4353714641774882,-0.17589073866842608,0.34088352012385337,-0.10981140805657498,nan
1740794493.080536,0.07204009571780332,0.03361837633213369,-0.11426386326008758,0.07267203727305517,nan
1740794493.0844414,-0.39072362856492354,0.316273776561072,-0.3250641678351115,0.22705543173232734,nan
1740794493.088347,-0.5748134093353082,0.5267762354735841,-0.2172921264709783,0.1557431118219375,nan
1740794493.0922525,-0.37043659970177045,0.5092979165097445,-0.059713755451770795,-0.05442025870876181,nan
1740794493.0961623,-0.043468455221391616,0.22848601913509278,-0.07045075593857811,-0.17171064963751687,nan
1740794493.1000679,0.09284707011238333,-0.1736579042810111,-0.14378218853898034,-0.11782794929282786,nan
1740794493.1039734,0.03005909744029746,-0.4527612234480378,-0.04762957878785103,-0.038153346860872184,nan
1740794493.107879,0.015356493630884708,-0.4412716749454152,0.1999365592793042,-0.07231177427819797,nan
1740794493.1117847,0.18789573186857247,-0.19915343574456168,0.30547740470134666,-0.1486171005746379,nan
1740794493.1156902,0.37410669010961173,0.026195898283002006,0.07915308718730515,-0.08621783532953413,nan
1740794493.1195958,0.3011516789484829,0.04214577511127793,-0.2805801106990014,0.13081460382515295,nan
1740794493.1235013,-0.043491080071754736,-0.07334543808772591,-0.3860856791751003,0.2866982903800477,nan
1740794493.1274068,-0.35916392530808344,-0.05019838872014197,-0.1091423193758821,0.18981434955124252,nan
1740794493.1313124,-0.3565109336120055,0.2339110139022535,0.27468100051733974,-0.0685273873733896,nan
1740794493.135218,-0.0714295068064148,0.5341493051047752,0.4087496508500197,-0.20181291779517746,nan
1740794493.1391234,0.19416952824208336,0.4583377343661075,0.23197520886704526,-0.07515272735532932,nan
1740794493.1430328,0.21258478502239334,-0.057093227480106326,-0.027280550016801228,0.12393218235274443,nan
1740794493.1469383,0.04424901999642932,-0.5742426141291073,-0.16244908088500282,0.12092958382691998,nan
1740794493.1508439,-0.09366641258701434,-0.569094065631236,-0.17786756234270634,-0.09035632382843516,nan
1740794493.1547494,-0.09889473926260278,-0.027024388684204117,-0.16799145543197272,-0.22785092121581935,nan
1740794493.158655,-0.05822003118035064,0.48058332402957293,-0.13820327823143125,-0.07868984970252386,nan
1740794493.1625605,-0.07297765469560305,0.39560996621713274,-0.041486611837859934,0.20938783232839586,nan
1740794493.166466,-0.0984407524369077,-0.19572963882646072,0.07121281846457654,0.28294172553988367,nan
1740794493.1703715,-0.012333722607168435,-0.6368133818828912,0.07669980252652975,0.01325435462877853,nan
1740794493.174277,0.18892773127350054,-0.425945381583982,-0.018339505020260168,-0.3234838509721835,nan
1740794493.1781828,0.3354479933644016,0.2282980428576948,-0.024288562385041446,-0.3494264119387835,nan
1740794493.1820884,0.25640513134904125,0.6578884534729526,0.17799763556793693,-0.01847376597081664,nan
1740794493.185994,-0.021635830591185373,0.4871482836432765,0.3944501405958216,0.3319991163041463,nan
1740794493.1899023,-0.2850179318695307,0.005271759323317301,0.28464389342165475,0.36265041355174554,nan
1740794493.1938078,-0.3393040022693882,-0.2416063732554966,-0.18601141248344544,0.09009114325343126,nan
1740794493.1977134,-0.18263274279138028,-0.10225705469396386,-0.5935673986613706,-0.1790695777749665,nan
1740794493.201619,0.02425012981628171,0.0723225067582701,-0.4916989599451016,-0.2152597846728102,nan
1740794493.2055244,0.1280465730113951,-0.057478796675823,0.0381872014247763,-0.07986806297437374,nan
1740794493.20943,0.10351696863979515,-0.37088075836085027,0.4322349892346525,0.027194844992580403,nan
1740794493.2133358,0.02980456161267751,-0.45875038138270174,0.29804265934348456,0.03416909777062859,nan
1740794493.2172413,-0.008699241199539303,-0.1591776835167733,-0.10856346303966893,0.030919461969637973,nan
1740794493.2211468,0.015052445762574982,0.24405067172184383,-0.20983861353942634,0.0753675708631245,nan
1740794493.2250524,0.07513324362269444,0.39114656739863246,0.13829765122642979,0.08208141530845235,nan
1740794493.228958,0.1225171144541355,0.2756194991893234,0.4251825665657583,-0.04107459798533621,nan
1740794493.2328634,0.11022155789711777,0.17853903864247636,0.1319266322257597,-0.21185398970839572,nan
1740794493.2367716,0.019856293011727002,0.23217180452156985,-0.5371238332366558,-0.22966731648216476,nan
1740794493.240677,-0.11320530555160513,0.22646410834836334,-0.7979060574450122,-0.025297789357790458,nan
1740794493.2445827,-0.20818565055030058,-0.07196132552656719,-0.20953077664769582,0.2236871176123071,nan
1740794493.2484884,-0.1957012246563822,-0.5249658544359653,0.724913983430359,0.2852601422786584,nan
1740794493.252394,-0.07981412919304184,-0.7090029110496137,1.0518359632219176,0.14288117190712651,nan
1740794493.2562995,0.058786882735138074,-0.40684794308355754,0.41886647726458504,-0.0027462082606494074,nan
1740794493.260205,0.12833617032292974,0.11827478286306875,-0.539351518626836,-0.004792183801842075,nan
1740794493.2641106,0.1001989904072081,0.42281793441007715,-0.9183661650244456,0.04067705582734007,nan
1740794493.268016,0.025601652218762844,0.3774785195305214,-0.5027256881294948,-0.058150702344739666,nan
1740794493.2719216,-0.013516953357908415,0.2362081975108975,0.12548951016275767,-0.29500016183866135,nan
1740794493.2758272,0.026047379253809788,0.22736614883348263,0.3508505181943201,-0.42258618218617783,nan
1740794493.279733,0.11079002750440112,0.23679577620247536,0.17529323185435886,-0.243708312448293,nan
1740794493.2836452,0.14998675000535522,0.008983490592494365,0.030439714366104403,0.12342618463968812,nan
1740794493.2875507,0.06679190037876889,-0.4183751661339381,0.12856791388349711,0.35668524919546296,nan
1740794493.2914562,-0.12178024512858791,-0.6582151325799391,0.2370876899379893,0.29901888551405176,nan
1740794493.2953618,-0.28784363316580563,-0.41222325300714724,0.09907703807104316,0.12783682751883377,nan
1740794493.2992675,-0.28317816075435304,0.1440619346356182,-0.15490500514317265,0.1067520240742517,nan
1740794493.303173,-0.08156217719119509,0.5272398805308092,-0.18935913028170617,0.230513076689279,nan
1740794493.3070786,0.16753843854111702,0.46301896863482894,0.03485974633520633,0.22124695498023483,nan
1740794493.3109841,0.2593005819155026,0.12414589544213481,0.16733023909939881,-0.10228258205989502,nan
1740794493.3148897,0.13247973496872667,-0.1532977214649332,-0.05792999604020381,-0.5413931077412197,nan
1740794493.3187952,-0.06229977582027608,-0.2516774328675354,-0.421335591828221,-0.6928087500066513,nan
1740794493.3227007,-0.11783039276536961,-0.2689517442047385,-0.45973578891341904,-0.39421187075125474,nan
1740794493.3266063,0.007088977912416323,-0.23387994923781466,-0.061606552536087496,0.09053676143162956,nan
1740794493.3305182,0.14786886958425133,-0.030453143391707984,0.3689062106827933,0.3692863623202721,nan
1740794493.3344238,0.1287545789800902,0.3320339215442628,0.41220401606532675,0.34236304689827934,nan
1740794493.3383293,-0.032201852500221756,0.5455777439490738,0.15238552642705172,0.24638437099462485,nan
1740794493.3422348,-0.15035931530435495,0.30183244982215723,0.03375883621046688,0.2943606786876304,nan
1740794493.3461404,-0.10009964230892426,-0.2505498241566147,0.2412161289561219,0.3814804701334334,nan
1740794493.350046,0.03564684836678417,-0.5515132835125953,0.4243541931627274,0.23120950171918545,nan
1740794493.3539517,0.07170718039366815,-0.26068808121113207,0.14489549759075468,-0.2061037748779155,nan
1740794493.3578572,-0.05317822663888691,0.2689493883126469,-0.517139275521999,-0.616337562992189,nan
1740794493.3617628,-0.20773645208080674,0.34847411790066707,-0.9805627825056342,-0.6423582930320346,nan
1740794493.3656683,-0.22704662339196036,-0.19651550238065427,-0.7977673904352537,-0.28771306289239834,nan
1740794493.3695738,-0.08607559147901757,-0.7260248789379093,-0.1325809723686226,0.08736183745349589,nan
1740794493.3734794,0.11755804838560471,-0.4931634423143062,0.4684822404554427,0.18029867064259425,nan
1740794493.3773906,0.3043363363807547,0.43114401529268365,0.6728061427075147,0.07527097498319849,nan
1740794493.3812962,0.45372309282951995,1.1519194493946827,0.5920495345938028,0.09262404433444678,nan
1740794493.3852017,0.4999377314934814,0.9293473700858543,0.4633503595604773,0.3470771228483613,nan
1740794493.3891072,0.2922871176942801,0.0016153455027936594,0.30328538135688227,0.5627498282579888,nan
1740794493.3930128,-0.22857983858254932,-0.7233356823512788,-0.007413792231435763,0.38979737261981356,nan
1740794493.3969183,-0.8219370242711286,-0.712524291125597,-0.4131244224420765,-0.14236913534758264,nan
1740794493.4008238,-1.0368132598668813,-0.3169055798802524,-0.6542711215916456,-0.5872753398581507,nan
1740794493.4047296,-0.6175601869572003,-0.17864211913226208,-0.5768043927885622,-0.5402599578171137,nan
1740794493.4086351,0.18897991489440655,-0.35770930242034044,-0.3198543511260169,-0.08863988847777378,nan
1740794493.4125407,0.8116931048474559,-0.3091308941841998,-0.09825452731602856,0.26747738337835597,nan
1740794493.4164462,0.8756833448132686,0.2956276033419238,0.09254533811708797,0.15618486521044755,nan
1740794493.4203517,0.5080791993082076,1.0125945469063957,0.38768146222196903,-0.25789571282593443,nan
1740794493.4242625,0.1088360079279183,1.0914330014958462,0.697530587058837,-0.4558865305987287,nan
1740794493.428168,-0.10656954026732184,0.38440049310136776,0.6651245387184278,-0.14164775875681587,nan
1740794493.4320736,-0.24038022574358436,-0.46005651524379026,0.1241721938526205,0.42322004031888116,nan
1740794493.4359791,-0.4165408539860182,-0.755405438667271,-0.5264119772504713,0.6971340971489931,nan
1740794493.4398847,-0.5134614185220053,-0.5137268367526769,-0.6490462556630111,0.44150469132254366,nan
1740794493.4437902,-0.323162277102026,-0.2618679681627565,-0.11993589116144814,-0.035869395198632865,nan
1740794493.4476957,0.07839156519122845,-0.2664470090314289,0.4402412861170716,-0.24307978418721676,nan
1740794493.4516015,0.30637265303055666,-0.23894600420039308,0.3550212010927394,-0.06290940002069606,nan
1740794493.455507,0.11351200828378535,0.12177820806612552,-0.2840240789140595,0.12283004686485248,nan
1740794493.4594126,-0.2386598977711327,0.5704683451100325,-0.7080137789023686,-0.10746358496783812,nan
1740794493.463318,-0.2259946151197419,0.5846332222865832,-0.4137455034370037,-0.6792227443289147,nan
1740794493.4672236,0.29463749266613587,0.12544611498776764,0.22110816726447213,-1.018431295016308,nan
1740794493.471134,0.8341315316226057,-0.20763267458097032,0.45475834203329096,-0.6191725786712909,nan
1740794493.4750395,0.785772496356731,0.04547144136184802,0.1657938529272781,0.4020019548542981,nan
1740794493.478945,0.125691151378679,0.4993746271792261,-0.013345142363409935,1.3441184299726676,nan
1740794493.4828506,-0.5620262466875505,0.33641413390043945,0.3657146118757187,1.5151075445699267,nan
1740794493.486756,-0.7799094020452902,-0.5639730902875183,0.8143808656319208,0.7937302367396065,nan
1740794493.4906616,-0.6523651290953382,-1.2650854977222867,0.45552125999846527,-0.33698653572972914,nan
1740794493.4945672,-0.6051641306071601,-0.8258315727315845,-0.7190580621411482,-1.2130624779947854,nan
1740794493.4984727,-0.6222030687114815,0.4373310337444523,-1.5570830630301626,-1.4116168443891879,nan
1740794493.5023785,-0.1489145180535604,1.146216906731328,-1.0040762797176386,-0.8795927860573031,nan
1740794493.506284,1.0678082767719526,0.47078426773772936,0.5255134542601707,0.12574303775195242,nan
1740794493.5101895,2.2291076021256773,-0.7528102642403369,1.4420634511583923,1.0942084426939531,nan
1740794493.514095,1.9866761108580173,-0.8926936379068738,0.7616778792306838,1.392451212635547,nan
1740794493.5180044,-0.06344082262476876,0.4981018871308159,-0.7086358962400358,0.6514505680984425,nan
1740794493.52191,-2.5371430390326246,1.9541774005086998,-1.2656653321436768,-0.7583391785106818,nan
1740794493.5258155,-3.2698209657058626,1.6410599748832135,-0.27759100761408423,-1.7358727387373392,nan
1740794493.529721,-1.3927878270163019,-0.5066559410336211,1.115445464212033,-1.2642890363555703,nan
1740794493.5336268,1.6410672954520578,-2.540596515491577,1.3847235892994862,0.5306671538227917,nan
1740794493.5375323,3.273173381684975,-2.5115438379412165,0.3702527623803544,2.1975674684037863,nan
1740794493.5414379,2.186442981581188,-0.5091938867849451,-0.6958092994098358,2.1307815543694804,nan
1740794493.5453434,-0.5228253351537044,1.5183652705785382,-0.8037210559422241,0.1579161322306125,nan
1740794493.549249,-2.4567288853002576,1.86861114185954,-0.31386961845434197,-2.080325889833514,nan
1740794493.5531545,-2.1368648083744226,0.7210552313818268,-0.2381556515343469,-2.560290753259472,nan
1740794493.55706,-0.1848318264931944,-0.3725438415103534,-0.7165177957816088,-0.8460117066068056,nan
1740794493.5609655,1.4936343194219455,-0.3232323900355801,-0.7744865472558214,1.4059784906208448,nan
1740794493.564874,1.5295287454296076,0.4658434659015572,0.2794643678047317,2.04634701869244,nan
1740794493.5687797,0.1831867339486691,0.8103336640179973,1.678342055802689,0.590901585368824,nan
1740794493.5726852,-1.0997916673344585,0.11830725438282998,1.9019885304024438,-1.2908398444272178,nan
1740794493.5765908,-1.0601637690289263,-1.1108994070963902,0.5069991190050072,-1.518775623346977,nan
1740794493.5804963,0.2969348401434915,-1.9125452990299359,-1.2049973099138283,0.19974642093398198,nan
1740794493.5844018,1.7133621273228343,-1.6667853759848514,-1.6002145068859284,2.0217824494206864,nan
1740794493.5883074,1.7159296693659394,-0.369519957098907,-0.5466334023267221,1.8737482705772381,nan
1740794493.592213,-0.08362501340741511,1.458847313647166,0.532495687669304,-0.34803009817587455,nan
1740794493.5961185,-2.443221692334463,2.867240008005898,0.40741594367272665,-2.57235833996214,nan
1740794493.6000242,-3.3109578110114293,2.774230964914881,-0.5514382848195267,-2.5852236695628124,nan
1740794493.6039298,-1.5722816516617086,0.7696545369199087,-0.94400818327702,-0.2470155873225699,nan
1740794493.6078353,1.7276903934331718,-2.121690264277384,-0.07489847921562577,2.332671196454589,nan
1740794493.611743,4.002789566274169,-3.8091083451708103,1.265259622509527,2.816526093014376,nan
1740794493.6156485,3.3211043866802084,-2.8101738305073622,1.7617864195271784,0.8424707325555619,nan
1740794493.619554,0.22294164473928205,0.2319188120496499,0.9682074189497827,-1.7128108910024658,nan
1740794493.6234596,-2.698593419338504,2.906600201415571,-0.4456971484511257,-2.5713684886372143,nan
1740794493.6273654,-3.186115576539632,3.1665518993272177,-1.5427369337792842,-1.1485777543139957,nan
1740794493.631271,-1.3342696691918077,1.1426044592011937,-1.8231106328729947,1.0633239537797978,nan
1740794493.6351764,0.7886562013323896,-1.201852427783335,-1.187846009765281,2.0479850946383404,nan
1740794493.639082,1.4034682599417525,-2.092794658162813,0.2151465935078176,1.152335100549413,nan
1740794493.6429875,0.6647259364433138,-1.4185047194224565,1.741983526756783,-0.48071617296871494,nan
1740794493.646893,0.0048862548484969945,-0.2736004100245128,2.221141820117552,-1.214755942536065,nan
1740794493.6507986,0.18977622520640614,0.5019543304686571,0.9019820273348782,-0.5655481797573985,nan
1740794493.654704,0.5065877488070671,0.928617816156358,-1.342306916895679,0.44490750906501464,nan
1740794493.6586168,-0.020784326746231808,1.1947275612009551,-2.331312949554259,0.5061295357960088,nan
1740794493.6625223,-1.0684009998117219,0.9855957376173442,-0.7752444722042617,-0.5014528146590067,nan
1740794493.6664279,-1.2210025855632645,-0.055521364111699584,1.8894663522043003,-1.330819301873094,nan
1740794493.6703336,0.19204031310105446,-1.4129131187028783,2.574404323892993,-0.7181365869618375,nan
1740794493.6742392,1.9438076815203822,-1.8449293311363935,-0.05467477787577505,1.130227638952932,nan
1740794493.6781447,2.0562314025275725,-0.7396471534725824,-3.5770869990743863,2.5239173989077868,nan
1740794493.6820502,0.059083174381798526,0.9634210325685798,-3.971530719527726,1.8916926564627217,nan
1740794493.6859558,-2.3057498891171044,1.63992179916009,-0.03840741159674016,-0.5619915501492332,nan
1740794493.6898613,-2.858877632255117,0.7833886767089683,4.812978123707705,-2.8682975536188655,nan
1740794493.6937668,-1.239164311027178,-0.4330975866194272,5.778048068981677,-3.0545011081913573,nan
1740794493.6976724,0.9134753622884951,-0.6045484985585127,1.6505624919522628,-0.949741184020471,nan
1740794493.7015781,1.9112401947788433,0.18907591764758588,-3.836467784358428,1.7238701158534047,nan
1740794493.7054899,1.6830129464350754,0.5539365910913424,-5.822006407493602,2.9840674776038356,nan
1740794493.7093954,1.266754644391198,-0.3329747570429849,-3.103752147506741,2.2514358394994467,nan
1740794493.713301,1.063476429832822,-1.5115022539955352,1.180157237171524,0.4820417307292661,nan
1740794493.7172065,0.2993793691885738,-1.325825289014682,3.269665816379456,-1.0619896439281302,nan
1740794493.721112,-1.5560716243900141,0.4469862953716647,2.4278974435065797,-1.8845453684683102,nan
1740794493.7250175,-3.3856076465376588,2.097443145233507,0.7103720614086856,-2.126081468362865,nan
1740794493.7289233,-3.186784835168878,1.8619941478296367,-0.08070999030714025,-1.7789165455045,nan
1740794493.7328289,-0.4234419736100748,-0.01720896659063772,-0.20887955615432585,-0.5256186965240001,nan
1740794493.7367344,2.8695143180620772,-1.5494635345289598,-0.7387252380169592,1.5032459236668512,nan
1740794493.74064,3.866633906617408,-1.2895757132703904,-1.4882460876243504,3.1619340193109218,nan
1740794493.7445455,1.8543398017930646,0.07466389523770423,-1.2025392290343406,2.998670114991475,nan
1740794493.748451,-1.0154115344933112,0.7039711330719349,0.38460577733280044,0.7670001389065058,nan
1740794493.752362,-2.0477752722223768,-0.1069977132549117,1.6717696603171508,-1.960134534565788,nan
1740794493.7562675,-0.8140133609715309,-1.1315316917545264,1.0113880910349606,-3.0357517941387044,nan
1740794493.760173,0.678353171736784,-0.7979268778439738,-1.009463790679328,-1.7643852363068373,nan
1740794493.7640786,0.49781976343516576,0.8465520855855491,-1.966093613082584,0.40275862615910896,nan
1740794493.7679842,-1.017908309484242,2.1602060529279528,-0.4804998774132576,1.3314693864203302,nan
1740794493.77189,-1.85277038420339,1.7852099757564939,1.926105724166865,0.3630082920799287,nan
1740794493.7757955,-0.8015515608710404,0.0725982619563844,2.4675632268530623,-1.081849657708758,nan
1740794493.779701,1.1531972269653268,-1.5029549348103597,0.38213005543665557,-1.077247773454194,nan
1740794493.7836065,2.079189986189109,-1.9750384667763068,-2.0997301069142775,0.7241179298364228,nan
1740794493.787512,1.3042416109185444,-1.54208021182851,-2.321733231965808,2.671590545522919,nan
1740794493.7914176,-0.029390167019656535,-0.7693865457835992,-0.2273153109337095,2.7620477930867917,nan
1740794493.7953231,-0.5238071711503751,0.23697440314022641,1.7363781350512497,0.6352626995207505,nan
1740794493.7992337,-0.1434399289271502,1.5032065812799802,1.5699373195701205,-2.066833002583157,nan
1740794493.8031392,0.01413069865749819,2.40835051427644,-0.11759094717998332,-3.241287559224315,nan
1740794493.8070447,-0.6955364711539118,1.9431715086071812,-1.1923740506995237,-2.1877317264420837,nan
1740794493.8109503,-1.5883998379346769,0.013631746207163262,-0.6964301155049758,-0.05731084476524618,nan
1740794493.8148558,-1.4981119050904428,-1.9408446450125463,0.2602491352471779,1.364820723271051,nan
1740794493.8187616,-0.18611547499712042,-2.194398094128498,0.28457477042552953,1.2603118719246138,nan
1740794493.8226671,1.395607177869047,-0.6499387442885453,-0.402864191660495,0.3029033693903572,nan
1740794493.8265727,2.1466058966746226,0.9156514170801172,-0.44546320794037947,-0.2095555267490696,nan
1740794493.8304782,1.7926587345432288,0.8036770368351802,0.5941649718727634,0.3287602451651094,nan
1740794493.8343837,0.7738989820172036,-0.6396568714309021,1.4759025628887907,1.2958620648093149,nan
1740794493.8382893,-0.45112414916054616,-1.4201176981477999,0.8900173719607051,1.5080410275027092,nan
1740794493.8421948,-1.6103042585830285,-0.27809215577093943,-0.7126689365311907,0.40832110522177284,nan
1740794493.8461046,-2.261634350972508,1.7502912453952648,-1.5551619677237847,-1.343821922612369,nan
1740794493.8500102,-1.793990444566316,2.4826570533582513,-0.7435530148023685,-2.4293214998663366,nan
1740794493.853916,-0.16618349552244846,1.1056579695978408,0.603977226307603,-2.0468436413345463,nan
1740794493.8578215,1.564832387300542,-0.9290802500234239,0.7919508553263084,-0.5922364174424495,nan
1740794493.861727,1.9857008123999786,-1.6550862197712903,-0.29926009995320135,0.7956670964499862,nan
1740794493.8656325,0.8310716146948782,-0.8379924252206474,-1.1210227450711323,1.3284918097514637,nan
1740794493.869538,-0.5373569834985935,-0.032064459513614946,-0.5143371707277903,1.1680349442289646,nan
1740794493.8734436,-0.5449810858278947,-0.47283475187888163,0.7935176716638331,0.9608504686495232,nan
1740794493.8773491,0.7192539379034616,-1.4557583203191664,1.2084145454736648,0.9291483818091602,nan
1740794493.8812547,1.4394152684529935,-1.2077236944148708,0.42514423675202756,0.6299166788127252,nan
1740794493.8851604,0.15700652310121477,0.8119287951267428,-0.1919501878194552,-0.3246041723928628,nan
1740794493.889066,-2.289348261002497,2.9900822842943655,0.4211639835352733,-1.5018028978999964,nan
1740794493.892975,-3.3617385472698214,3.1793330571209655,1.3287529658826007,-1.8901671678091467,nan
1740794493.8968806,-1.539841214744557,1.0184419343053126,0.6063516871186325,-1.0030697368953165,nan
1740794493.9007862,1.8221118456687864,-1.6679197981385414,-1.9872373814759776,0.4372947735855921,nan
1740794493.9046917,3.6996829161615365,-2.759687598818639,-4.096860124213213,1.1537057870125529,nan
1740794493.9085972,2.4771833390360625,-1.855297695643648,-3.1080771965663447,0.6664486083891104,nan
1740794493.9125028,-0.4377136075932688,-0.3087444903029543,0.7824500687795117,-0.20785334787550488,nan
1740794493.9164083,-2.203984124405662,0.45477888425495877,4.40480857039523,-0.3411567576545121,nan
1740794493.9203138,-1.5271826217379059,0.3089403829244163,4.729963638444124,0.366080698712835,nan
1740794493.9242196,0.24580193212705245,0.12808027672873792,1.837283469625177,0.8986911171108666,nan
1740794493.9281251,0.9480194898733728,0.5001877061769553,-1.4693053522417252,0.42961297574695945,nan
1740794493.9320307,0.06925671898072261,1.0630990124281339,-2.717830021027041,-0.5719705535917264,nan
1740794493.9359362,-0.9357212168246976,1.0743856810807355,-1.9525595686909318,-0.8525854921587545,nan
1740794493.9398446,-0.6518866290671881,0.34986829558062593,-0.8947444407306517,0.02604574784657323,nan
1740794493.9437501,0.5232309711480646,-0.5323631952806678,-0.5929403686330292,0.9654360970390969,nan
1740794493.9476557,0.9650125851851805,-0.865662044354675,-0.5149315915992065,0.5286390684217255,nan
1740794493.9515612,-0.024577315107319617,-0.5020407800950072,0.18118660477170367,-1.2170081557728138,nan
1740794493.9554667,-1.1887846024236786,0.07126431452296347,1.2290112911386808,-2.4456474621144597,nan
1740794493.9593723,-0.7575204751255559,0.21584599487567943,1.5966254172318624,-1.4489817906110403,nan
1740794493.963278,1.2829038498532852,-0.29998950209565767,0.9567246897100714,1.3232560489948089,nan
1740794493.9671836,2.828079394040418,-1.0733127779380696,0.17050838385240058,3.4187654935870766,nan
1740794493.9710891,1.8237786110126357,-1.3100322420020778,0.10540519763255762,2.7729962008714093,nan
1740794493.9749947,-1.342076553849805,-0.44322105689471925,0.41531526716919615,-0.13330436272318869,nan
1740794493.9789002,-3.926411867328051,1.2579053940493412,-0.0034774969883090696,-2.674596399055248,nan
1740794493.9828057,-3.467001002781075,2.665167588447247,-1.4021493869893877,-2.6674402928578576,nan
1740794493.9867136,-0.2630069133653343,2.603536264497887,-2.5365019178672417,-0.45996077754197434,nan
1740794493.9906192,2.886778849814233,0.9166796565913647,-1.9633665328672247,1.5894552864498341,nan
1740794493.994525,3.4076758968207215,-1.2781095819004205,0.20879704642343616,1.5848331307047647,nan
1740794493.9984305,1.3291263534165965,-2.5494748578651567,2.2478032295582686,-0.1026225133935406,nan
1740794494.002336,-1.0264368009226699,-2.415216946485212,2.5527175728460687,-1.4593210972389135,nan
1740794494.0062416,-1.5444575242358731,-1.5505349535276063,1.2274387195434313,-1.0444491159663218,nan
1740794494.010147,-0.33070987491948783,-0.7379071594095051,-0.2562147192713377,0.5829822647092088,nan
1740794494.0140526,0.742016446083213,0.11284076988090534,-0.757238130132027,1.6026249376294461,nan
1740794494.0179582,0.254042175446798,1.5652872937244837,-0.50424954112327,0.9143474838147765,nan
1740794494.0218637,-1.2349464707814888,3.3240234859807183,-0.43805900780554907,-0.7335912627643854,nan
1740794494.0257695,-1.903945209986639,3.82225404776536,-0.8828182500490441,-1.5596341239710512,nan
1740794494.029675,-0.7277585857835459,1.7001114688511145,-1.1948247307716642,-0.601873657238,nan
1740794494.0335875,1.3778421213792575,-2.247850621740594,-0.6700662325372557,1.2656838626501137,nan
1740794494.037493,2.4855275774122645,-5.096181095211826,0.5214855928682472,2.139028891465432,nan
1740794494.0413988,1.5980332364876966,-4.307892252614815,1.47992990088728,0.9251375881004077,nan
1740794494.0453043,-0.43063218773691647,-0.3541406961607186,1.5135282852363048,-1.5340569448225927,nan
1740794494.0492098,-1.8321621432549695,3.455850511660996,0.7364441153150442,-3.1263118373146526,nan
1740794494.0531154,-1.6138766875806376,4.022009041010745,-0.22569823352011173,-2.3404015672788834,nan
1740794494.057021,-0.2817878588580942,1.3360037760772658,-0.8882155842831321,0.35233727808399046,nan
1740794494.0609264,0.919464952879186,-1.7506560557438087,-1.145074946036718,2.8676008741419117,nan
1740794494.064832,1.219481741505711,-2.516145241559404,-1.0227922788032444,3.293585822375414,nan
1740794494.0687375,0.7347943947610479,-0.8922274636694572,-0.4812235039744761,1.468343086767879,nan
1740794494.0726433,-0.043653622989260024,0.9828039310596216,0.4227790954159752,-1.0404670121024575,nan
1740794494.0765488,-0.8018122534772504,1.3304677261925275,1.2945701063248711,-2.4115379011180402,nan
1740794494.0804608,-1.347665412675264,0.4227223112430984,1.5244011594944327,-2.0356578585579137,nan
1740794494.0843663,-1.3092421334323427,-0.25741320903956394,0.7732796558989514,-0.6803693580202216,nan
1740794494.0882719,-0.318453949233801,-0.02176482326434906,-0.6278967636912439,0.5284514441280609,nan
1740794494.0921774,1.3449766864513155,0.3441963038949931,-1.7779631705045236,1.084370044199098,nan
1740794494.096083,2.5395375717691806,-0.14204975857763086,-1.7972088651085947,1.1313758940969987,nan
1740794494.0999885,2.0886697506439433,-1.2114644131975716,-0.5144111539241829,0.8629591511736443,nan
1740794494.103894,0.00861067015280354,-1.576567462811864,1.2642066981171043,0.23702320431397286,nan
1740794494.1077998,-2.2208813616489813,-0.5238913861707584,2.215270973387829,-0.6729209117241008,nan
1740794494.1117053,-2.859571418102184,1.1240522336308985,1.5026190622732056,-1.3428279911915424,nan
1740794494.1156108,-1.499438106263119,1.8549244280882589,-0.4165920349409868,-1.1466744457581963,nan
1740794494.1195164,0.5795920278067217,1.1084797239967672,-2.0010687491259516,-0.09135569243872958,nan
1740794494.123422,1.6828786550247554,-0.19413373473928813,-1.8952436701830142,1.0093928803245085,nan
1740794494.127333,1.2846292669629154,-0.7643625583212812,-0.2038764384619693,1.2782146609427236,nan
1740794494.1312385,0.30814177797490055,-0.3348555553964542,1.526311317677922,0.6468766669372056,nan
1740794494.135144,-0.0680179840665992,0.234518792609708,1.7531976798191937,-0.15428125048213034,nan
1740794494.1390495,0.3123699347000283,0.09769156990589835,0.42543541773635757,-0.4604512094719025,nan
1740794494.142955,0.5833673602340972,-0.6118475199372541,-1.043025815807463,-0.33555722553930883,nan
1740794494.1468608,0.0009300879600977845,-1.0408781745931845,-1.290778145895625,-0.2780334364997224,nan
1740794494.1507664,-1.1311140101868293,-0.648807370536142,-0.3631507488227184,-0.45277803198802247,nan
1740794494.154672,-1.756975347696662,0.23338477575179367,0.5492578648732745,-0.5034699132316262,nan
1740794494.1585774,-1.1802229357817207,0.851704197086437,0.5707319699164829,-0.1559015738901053,nan
1740794494.162483,0.24138194486927875,0.8304253879543553,0.0362000366507612,0.2957663160154254,nan
1740794494.1663885,1.4713741938959415,0.4179752081817985,-0.15787900470039085,0.3765399294518744,nan
1740794494.170294,1.7235440006398548,0.06486286001859082,0.20197946951173468,0.17876048947625808,nan
1740794494.1742046,0.9952950607652039,-0.040694081270437166,0.4316160573864808,0.31994064155310215,nan
1740794494.1781101,-0.13453757790085563,0.0012543201021080722,-0.012666859334574829,0.9760570534699796,nan
1740794494.1820157,-1.0167335926712215,0.047853846119659225,-0.6814911387260856,1.2858163833827916,nan
1740794494.1859212,-1.2482405225241817,0.01851854686839685,-0.6619108517249858,0.22302131315054177,nan
1740794494.1898267,-0.748994953479191,-0.18347244435408355,0.166132451527501,-1.8539387357277521,nan
1740794494.1937323,0.20022526754912717,-0.6363799739842414,0.8408713644986732,-3.0091899017686674,nan
1740794494.1976378,0.9852856448260665,-1.1660049908461683,0.49004748441598234,-1.6265991303991485,nan
1740794494.2015436,0.9754545234970519,-1.2610351925258991,-0.49359874581810115,1.4949854618669796,nan
1740794494.205449,0.06716638605630999,-0.4536611030641444,-0.8571874393509507,3.4633445930760614,nan
1740794494.2093546,-1.0598293759738853,1.0924653590560973,-0.0736881449299719,2.1622499566162783,nan
1740794494.2132602,-1.4035524781521436,2.4512882832854173,0.8932653669134814,-1.288916612098902,nan
1740794494.2171657,-0.5331177040356436,2.567361878839374,0.7261972771832969,-3.397909127471917,nan
1740794494.2210755,0.9396203094044997,1.1539488540058467,-0.5342060801022296,-1.8768248453883933,nan
1740794494.224981,1.845067377719799,-0.9933548980258798,-1.3796951900422356,1.837639223276924,nan
1740794494.2288868,1.4766750774768496,-2.5841780375578085,-0.6039575261331314,3.960101016489223,nan
1740794494.2327924,0.16575976905829037,-2.7798267100570704,1.1447013663283194,2.265952780296519,nan
1740794494.236698,-1.1064422181492972,-1.6735691327485729,1.9753269762335166,-1.6363810289725065,nan
1740794494.2406034,-1.5960247373394094,-0.011747878225235426,0.8923823104027251,-4.055749237446011,nan
1740794494.244509,-1.288577200706932,1.4223102727157353,-1.056427687620129,-2.993004248925603,nan
1740794494.2484145,-0.6298630645333209,2.1776846148992828,-1.9753854550572998,0.1183715595044016,nan
1740794494.25232,0.04379659863752239,2.1098990007309832,-1.2124959967601492,2.307968890033971,nan
1740794494.2562256,0.7044292827692036,1.2532191024301045,0.11318425441840331,2.189571872704658,nan
1740794494.2601314,1.3406672575112029,-0.14773030857582928,0.6393978812396568,0.8743203176750237,nan
1740794494.264037,1.6599521462152609,-1.550126326645332,0.3571143767883532,0.09425611608847165,nan
1740794494.2679462,1.2413338742715054,-2.2544582882059743,0.33944205898196056,0.11727633371064618,nan
1740794494.2718518,0.02309600127298106,-1.8211977386741496,1.0852279536349303,-0.11257345432177679,nan
1740794494.2757573,-1.4244159884101042,-0.4393884055098926,1.6774728581215042,-1.1298731053009057,nan
1740794494.2796628,-2.2079772360054224,1.123020950015539,0.8742758711252401,-1.949939102343994,nan
1740794494.2835684,-1.784387491198023,2.0012900294126963,-1.2059994060298413,-1.234971026086734,nan
1740794494.287474,-0.40411617056159993,1.7730002272594734,-2.90511668426002,0.8530410828210013,nan
1740794494.2913797,1.0698152551181794,0.6518039500310309,-2.640125790996995,2.4767140236064655,nan
1740794494.2952852,1.8049099143783034,-0.7331678816827985,-0.5011012196547119,1.973385509542173,nan
1740794494.2991908,1.5519039320631929,-1.7149153702876765,1.8759571841500147,-0.3317289079449129,nan
1740794494.3030963,0.6765571521564162,-1.854580229093292,2.8596488431232894,-2.375179271502837,nan
1740794494.3070018,-0.2628566641815233,-1.0547346007653216,2.0779644147121394,-2.369957194162683,nan
1740794494.3109074,-0.9307041569919232,0.3832742356368984,0.32455015186683733,-0.4333573931778876,nan
1740794494.3148158,-1.2479592879960673,1.7727643438139764,-1.3314367477643057,1.7222876114305874,nan
1740794494.3187213,-1.1462403959862162,2.2883362379784224,-2.150624236104881,2.462684932636152,nan
1740794494.3226268,-0.4830809768003287,1.480211491755604,-1.8031143380096555,1.4992079979163022,nan
1740794494.3265326,0.6611702762480482,-0.2740055511265362,-0.4188804539234179,-0.2349808061746964,nan
1740794494.3304381,1.6670679824130048,-1.8726251911954124,1.2516487261898408,-1.567533829219187,nan
1740794494.3343437,1.6317522860400795,-2.254856004560107,2.0787537083542964,-1.8575499684706145,nan
1740794494.3382492,0.22698393794141122,-1.259579382888758,1.410846495118617,-1.1346640575696711,nan
1740794494.3421547,-1.6603470381181737,0.23319162344858,-0.21873118246650441,0.09918722645252312,nan
1740794494.3460603,-2.411774262718603,1.0974683609038907,-1.4789399468487718,1.1175919684042757,nan
1740794494.3499658,-1.1348554954209453,0.9738575529063446,-1.4963773847318331,1.308759367630632,nan
1740794494.3538713,1.2699787846057782,0.4875165980942995,-0.6232973640686473,0.5943452477991502,nan
1740794494.357777,2.710289348075352,0.4349198141026727,0.15660314087523108,-0.4247764657670362,nan
1740794494.361685,1.8396273883920045,0.8115733620602864,0.42068374769491496,-0.9020424569277272,nan
1740794494.3655906,-0.5460342253468718,0.7845652231820532,0.6033717311514019,-0.4768393418285032,nan
1740794494.369496,-2.2047867630855755,-0.28267299361688353,1.0866897451519786,0.40299701953064004,nan
1740794494.3734016,-1.674622263267347,-1.8592133062291378,1.392493665274661,0.9172473452621239,nan
1740794494.3773072,0.25253257843355004,-2.504570403783354,0.6885769511970419,0.6266456433378254,nan
1740794494.3812127,1.4179540735253957,-1.2662234545510784,-0.9484877159046833,-0.19928671341044626,nan
1740794494.3851185,0.644336412764219,1.1741416990247966,-2.2227436983975646,-0.9123264195916717,nan
1740794494.389024,-0.9980328661597373,2.8887338849134796,-1.8923355732478044,-1.038165768417543,nan
1740794494.3929296,-1.4217310096288482,2.3993906545476396,-0.2129116259545304,-0.5417369534388038,nan
1740794494.396835,0.08938148905374395,0.07733099529032901,1.244858055061208,0.25959063059554943,nan
1740794494.4007406,1.9979004397821716,-2.1400574302473743,1.2971732782381658,0.8979070740564039,nan
1740794494.4046462,2.1580038507086523,-2.4734584557488155,0.383028702908771,0.9623912601055024,nan
1740794494.4085586,0.1897826764051499,-0.8335664835652744,-0.12490709476490508,0.36118664596240063,nan
1740794494.4124641,-2.047293964831664,1.237460943206428,0.3444776101364117,-0.48737741141426616,nan
1740794494.4163697,-2.4067097419385943,2.045363329597299,0.9177856054814114,-0.8593319799112143,nan
1740794494.4202752,-0.6822417875050505,1.1785643069075509,0.47746351155733563,-0.35996858886672545,nan
1740794494.4241807,1.2913653240508787,-0.3669589749685329,-0.8382460912962801,0.580251836570302,nan
1740794494.4280863,1.6669170906203472,-1.284444246061497,-1.719675178797416,1.0043170165853672,nan
1740794494.431992,0.4452160561788635,-1.0974598030344178,-1.2351360527122752,0.38575746887067064,nan
1740794494.4358976,-0.7896143490469837,-0.33126810114477073,0.0817747386886253,-0.745655833903838,nan
1740794494.4398031,-0.7601755291951867,0.22844008485759384,0.9095856101766056,-1.288445992557532,nan
1740794494.4437087,0.20321677806706973,0.30751517533722944,0.6798760665477973,-0.7253483790425207,nan
1740794494.4476142,0.7907528346258722,0.21898258897859604,0.08481164213937752,0.3281434909887392,nan
1740794494.4515197,0.33528885955362775,0.3296350330338096,0.04023669894720164,0.8317494035014436,nan
1740794494.4554317,-0.510534592926246,0.5859453012021237,0.5171984454068115,0.4800831768284824,nan
1740794494.4593372,-0.6982593186801652,0.5952508434137552,0.6965749182831994,-0.03963945904609148,nan
1740794494.4632428,-0.06631720876249773,0.11680665686447514,0.12875418603980623,0.02525513930753219,nan
1740794494.4671483,0.5466846433176352,-0.5999250517631839,-0.662850785565209,0.5303150226434508,nan
1740794494.4710538,0.3813767240276937,-0.9994203235535298,-0.8721890422117623,0.6275196808832125,nan
1740794494.4749594,-0.338811647283324,-0.7406484235564281,-0.42248854452652124,-0.11961609000874938,nan
1740794494.478865,-0.7241834357046878,-0.027109372204414298,0.02298137034240498,-1.0876929799211021,nan
1740794494.4827704,-0.29118336629755776,0.5793944313298779,-0.008236518122224347,-1.2481329730473008,nan
1740794494.4866762,0.5071179485346835,0.6670143967843073,-0.20950367938162082,-0.36542799815684496,nan
1740794494.4905818,0.847387627063408,0.30282696351821015,-0.007459806981356164,0.7004248992107128,nan
1740794494.4944873,0.4502023728942151,-0.11106536401480036,0.5717982928889079,0.9526160046295391,nan
1740794494.4983928,-0.21053562011816818,-0.2575171379431432,0.880918697500713,0.3346380525587602,nan
1740794494.5023038,-0.526131633975688,-0.15138620113068682,0.5016608152825847,-0.3208929730836901,nan
1740794494.5062094,-0.3829366236394638,-0.0034751452547094183,-0.18933195774238434,-0.32911775475408794,nan
1740794494.510115,-0.11817685085805786,0.06921529580218688,-0.5027248280182768,0.11613870832817588,nan
1740794494.5140204,-0.008712668324437378,0.1230749111663728,-0.3094063946409065,0.33888200504789945,nan
1740794494.517926,0.007560519531467375,0.2019148388496179,-0.12652791608072353,0.09619306288966935,nan
1740794494.5218315,0.10464046091202016,0.18623576808103814,-0.32057783737853335,-0.17803205690512056,nan
1740794494.5257373,0.24615890617077862,-0.07117565894150252,-0.546624741833813,-0.051425289379721933,nan
1740794494.5296428,0.23213379143637577,-0.4739420225909779,-0.23106165511356422,0.2601290058144429,nan
1740794494.5335484,0.017145344266096124,-0.6619928207724061,0.5370341528029734,0.1604840682576393,nan
1740794494.537454,-0.17593539107247314,-0.3593570553596681,0.9619385695346481,-0.48021528600913876,nan
1740794494.5413594,-0.12755329559389206,0.27347114370392867,0.5085408806902182,-1.0184382096381974,nan
1740794494.545265,0.08072099931105577,0.7271487219520489,-0.34944726760442457,-0.7285186340632676,nan
1740794494.5491755,0.15301386482525786,0.6378314889133999,-0.6402116468275034,0.31143637668577595,nan
1740794494.553081,-0.04177135656669013,0.15831059040433998,-0.09252694318748933,1.2175959076178535,nan
1740794494.5569866,-0.28349336239357753,-0.2221421739559018,0.5015351902800202,1.2104449407880806,nan
1740794494.560892,-0.2582889023392216,-0.21484058135698528,0.27858402214428685,0.39350039653209395,nan
1740794494.5647979,0.050552756535614696,-0.013600843901402575,-0.5659941859117541,-0.4466268928333601,nan
1740794494.5687034,0.3236600943049673,-0.007659276664822267,-0.9597797752327448,-0.7026643631689908,nan
1740794494.572609,0.27258591037236846,-0.2835015038781954,-0.2732564387717424,-0.46030082643990156,nan
1740794494.5765145,-0.02839845223132447,-0.5154092208317849,0.8472172149193996,-0.18791876660893783,nan
1740794494.58042,-0.2374476831753702,-0.365755763969123,1.188372847678484,-0.1248879979803529,nan
1740794494.5843256,-0.1416553959305547,0.0995532631454052,0.37860745018106745,-0.12112093474821163,nan
1740794494.588231,0.11638678766437867,0.4802422934855156,-0.7010959405594197,0.01058612128521494,nan
1740794494.5921369,0.22724769913695544,0.4955619481936976,-0.9636745236752148,0.19941108845254765,nan
1740794494.5960467,0.07028500784637871,0.26432008543412183,-0.3197827272586008,0.2531155276315752,nan
1740794494.5999525,-0.17673033111632167,0.09216783255552657,0.370578444238298,0.1584059905793963,nan
1740794494.603858,-0.26422124716671336,0.06842794504175607,0.4135303152842477,0.09067057541109486,nan
1740794494.6077635,-0.13815800472964557,-0.0054381572543262535,0.028115012135104207,0.1415148871500791,nan
1740794494.611669,0.04728363675816795,-0.27947736884373353,-0.11412143417310401,0.18213870637526608,nan
1740794494.6155746,0.1356336206790004,-0.5695359484802317,0.169843764668707,0.06425851324979628,nan
1740794494.6194801,0.12247715774231947,-0.5229427739085257,0.39293219250737815,-0.1442073771203749,nan
1740794494.6233857,0.10216902567123319,-0.05868808956391753,0.125503567528134,-0.24654035080467812,nan
1740794494.6272912,0.11893694353796098,0.4632953485451462,-0.39968966123689714,-0.2072056652758288,nan
1740794494.631197,0.11776897262288016,0.5822374192756977,-0.5934812259670189,-0.2037953135124461,nan
1740794494.6351025,0.030355696868426946,0.21668254919012417,-0.26884779947869414,-0.3269048961589585,nan
1740794494.639008,-0.13239531029993865,-0.25423814100668174,0.1659012037171029,-0.3546544338614931,nan
1740794494.6429176,-0.28440186921513727,-0.3870088015223726,0.2833886897186792,0.003993082411119792,nan
1740794494.6468232,-0.33292763653503954,-0.10063492324818007,0.1584221425649564,0.6409766987147181,nan
1740794494.6507287,-0.22860485001846992,0.2994316936073077,0.1466933084661729,0.9995222393638317,nan
1740794494.6546342,0.018256942431671648,0.456059099754971,0.29302902767504324,0.6346846859996232,nan
1740794494.6585398,0.32159580389779374,0.2615588074646792,0.24482642561874043,-0.2259732793704786,nan
1740794494.6624453,0.519494066606155,-0.13057371016867583,-0.1884095512954933,-0.8372573663425384,nan
1740794494.666351,0.4519459597181565,-0.48110433794199364,-0.6325483046121718,-0.7062463872025178,nan
1740794494.6702566,0.1039943196361314,-0.6037531955157269,-0.5372491743369004,-0.10692079791206453,nan
1740794494.6741621,-0.32338026520148416,-0.4147173773683749,0.09529034738544016,0.26920876132473054,nan
1740794494.6780677,-0.5375313200398707,0.024206773155955732,0.6198400432663628,0.11366373704020535,nan
1740794494.6819732,-0.400757968260885,0.47864557155277165,0.486020810402983,-0.1987614820352457,nan
1740794494.6858788,-0.06008711500303889,0.6517077023756175,-0.1016326691408423,-0.14307432688225497,nan
1740794494.6897871,0.19208635693280768,0.4266940907434667,-0.4483901157489717,0.27535672694207486,nan
1740794494.6936927,0.19882771833961493,0.005935584931832035,-0.22895922397222174,0.5383856593335132,nan
1740794494.6975982,0.06957278661179497,-0.26219223884762377,0.15582586333115725,0.2880931193346182,nan
1740794494.701504,0.024619823289392075,-0.2296286320656792,0.16578005363999077,-0.2065659150583196,nan
1740794494.7054095,0.13085737959237373,-0.08117590547396414,-0.1418762393940822,-0.379986903876406,nan
1740794494.709315,0.22688625332647452,-0.08276219549065046,-0.21101691054534738,-0.07794306687226435,nan
1740794494.7132206,0.12167321902549823,-0.2409786285065181,0.20702004519018918,0.2511794497201379,nan
1740794494.7171261,-0.1593873843878386,-0.29842216787669107,0.626826780123851,0.1262902165140883,nan
1740794494.7210317,-0.3653361209342198,-0.07939493063731444,0.4004414525736963,-0.345820216922862,nan
1740794494.7249372,-0.272627397975198,0.25344142730723807,-0.40702234384198505,-0.576316404046627,nan
1740794494.7288427,0.06489459705034888,0.37605443107165365,-0.9796814465380038,-0.2063759295076517,nan
1740794494.7327485,0.3402025763005899,0.20480472347733217,-0.6655334856532239,0.43919562595002476,nan
1740794494.7366564,0.2808909275745771,0.004072513903616453,0.25157623092976805,0.7045153718772698,nan
1740794494.740562,-0.08095130141634896,0.039351247704165815,0.8654487827691647,0.33857589276737954,nan
1740794494.7444675,-0.42304535642626584,0.21049453902278897,0.6620505893546117,-0.24643094220464865,nan
1740794494.748373,-0.42126105880996445,0.1590315051891995,0.018490466007130238,-0.46308899122805847,nan
1740794494.7522786,-0.04304634763897336,-0.24868129778424503,-0.3493755845286286,-0.18301734403777808,nan
1740794494.756184,0.4210081715755631,-0.6702857988705827,-0.2342020968848145,0.19523678786454046,nan
1740794494.7600899,0.6085825610035716,-0.6293894879649313,-0.04313967417365943,0.24850125622358915,nan
1740794494.7639954,0.38864813995652997,-0.07714789338551337,-0.1382154722748542,-0.026086414782240268,nan
1740794494.767901,-0.048937908255465526,0.5082172407836043,-0.33891437656148615,-0.2919599747394643,nan
1740794494.7718065,-0.38001649314365477,0.6312387030463209,-0.2174127799087139,-0.28915282100352085,nan
1740794494.775712,-0.4245495895107203,0.3054570877181984,0.2616501803184306,-0.06661130546496426,nan
1740794494.7796175,-0.26320999345943585,-0.02349703623997855,0.6314532204011011,0.16603928996637288,nan
1740794494.78353,-0.10416609391357387,-0.043393806259277724,0.4836734034732153,0.28913746249541455,nan
1740794494.7874355,-0.05353537740751602,0.07614911037217076,-0.03857405307313264,0.31216561243836827,nan
1740794494.791341,-0.027845326436048024,-0.02914877386288068,-0.4325915790277193,0.2421773421802437,nan
1740794494.7952466,0.10940760017106589,-0.3827445425013164,-0.425278762433707,0.03933492057032602,nan
1740794494.7991521,0.34640832319217224,-0.5844358424068304,-0.20183523817112342,-0.2661341205924198,nan
1740794494.8030577,0.4906978580043385,-0.3057152317317432,-0.05472815608947227,-0.4968491900663532,nan
1740794494.8069632,0.35902201462219785,0.2552462890077355,0.0007889598469327541,-0.4561483606025833,nan
1740794494.8108687,-0.008739082795953843,0.5513089374250356,0.1322023058676434,-0.13611661278182918,nan
1740794494.8147745,-0.354739201670799,0.31225235078789826,0.3274040579319694,0.2511579649429033,nan
1740794494.81868,-0.4428163074947113,-0.13300676647747667,0.3479716133953808,0.4655013310650116,nan
1740794494.8225856,-0.28476938038603283,-0.2390919479207343,0.09118245621416388,0.4313713130690425,nan
1740794494.826491,-0.10420770222845993,0.11376140769163401,-0.18335083320147658,0.2334187679973874,nan
1740794494.830403,-0.07141066323241105,0.47675973920240305,-0.15737021735444034,-0.020000461263843337,nan
1740794494.8343086,-0.10613935756642479,0.35303659835128026,0.08236483267116339,-0.26283440963723914,nan
1740794494.8382142,0.015428845030313242,-0.23065061432198225,0.0970699464166192,-0.4182671074201279,nan
1740794494.8421197,0.3541958613529733,-0.7500833850792193,-0.3097721976406091,-0.3772599093557325,nan
1740794494.8460255,0.655647414413921,-0.7443908753640436,-0.716386713835095,-0.10759880190035304,nan
1740794494.849931,0.5648305518854213,-0.2579980292857555,-0.5050575951625147,0.235964104931831,nan
