timestamps,TP9,AF7,AF8,TP10,Right AUX
1740523841.0263479,0.3277208119281979,0.3812874865701272,-0.04937009826624925,-0.20371861636238422,nan
1740523841.030254,0.25199003527564046,-0.13538609661371218,-0.06353056582159362,-0.13261224585237588,nan
1740523841.0341597,0.04063212526222392,-0.46703512705913325,-0.0699469902288108,-0.14756551071881494,nan
1740523841.0380654,-0.0663908207508337,-0.6529863709996077,-0.09628502284780202,-0.15176634819097193,nan
1740523841.0419712,0.027350421795087523,-0.6725097236045031,-0.09104036882663051,0.044305544908576536,nan
1740523841.045877,0.1662909226011012,-0.4139820903968462,0.004786684164759136,0.39876744489133525,nan
1740523841.049783,0.11076498685335875,0.05107985358345809,0.14545020024263028,0.5777943160462949,nan
1740523841.0536888,-0.1815623071273052,0.37580915875401605,0.19447111451900265,0.31065579014843386,nan
1740523841.0575945,-0.4662846687029384,0.28709975111302816,0.07664915932921464,-0.2427130210288077,nan
1740523841.0615003,-0.4360214960813859,-0.04090047124460436,-0.11147136271910159,-0.5955965831712774,nan
1740523841.0654063,-0.042907633771033966,-0.13962001529318244,-0.18404731536694807,-0.44398954257926654,nan
1740523841.069312,0.4199097296303823,0.19128477917727335,-0.06475154989487562,0.001855105434694682,nan
1740523841.07322,0.5796729441763899,0.613134953130805,0.12323213195344346,0.2658380985344551,nan
1740523841.0771258,0.33130208792960825,0.640734536894967,0.1830141678109301,0.14741488857017646,nan
1740523841.0810318,-0.08040007948405394,0.21476126882912946,0.047224591856973405,-0.08538706212113775,nan
1740523841.0849376,-0.3176595495368511,-0.2717704610159697,-0.16081541979007347,-0.06732588696871565,nan
1740523841.0888433,-0.26913099178571664,-0.4983526197406683,-0.25874831482251853,0.198064633588067,nan
1740523841.092749,-0.10648048378846943,-0.5665171057160319,-0.173069472511144,0.35010742988844773,nan
1740523841.0966551,-0.04820012680319156,-0.7038163376978789,0.023917160822255434,0.13371296498125618,nan
1740523841.100561,-0.10976691297532899,-0.7721353512921487,0.2074377681354756,-0.26597482061714184,nan
1740523841.1044667,-0.1112728560351819,-0.35170979065107344,0.29566949158894557,-0.4274556631406244,nan
1740523841.1083724,0.08376452032668756,0.6061372275796978,0.26436068660402545,-0.18238497253149036,nan
1740523841.1122785,0.37507836943738215,1.4358066218911454,0.11957801610937031,0.19728730073150735,nan
1740523841.1161842,0.49430868590940763,1.3349005614079121,-0.10199152229853231,0.31967867824482554,nan
1740523841.120092,0.2666520615406479,0.2959757352690278,-0.31324776850741004,0.10252128521212212,nan
1740523841.123998,-0.2007403908736817,-0.7570847020467674,-0.3997566528881748,-0.17918915379595204,nan
1740523841.1279037,-0.5869090418608146,-0.9115015038782432,-0.29660071899579094,-0.23418954253969163,nan
1740523841.1318095,-0.6132160338195601,-0.2454281837102081,-0.04784087835591213,-0.0550421188524292,nan
1740523841.1357152,-0.25814485180766383,0.31207066916453474,0.2176165273564279,0.1384655823151411,nan
1740523841.1396213,0.23764675362616064,0.08663666514741823,0.3723398115494682,0.1747692574182604,nan
1740523841.143527,0.5565235049388805,-0.5815148386932626,0.3601576923709599,0.0768042708892906,nan
1740523841.1474328,0.5235797399624171,-0.8044065561348918,0.2062998133938354,-0.034990032178612025,nan
1740523841.1513386,0.20676144356683843,-0.22982316083528623,-0.010183780053828695,-0.0898664162593689,nan
1740523841.1552446,-0.156144678327782,0.5777835335233276,-0.19069825892032996,-0.08226656136133266,nan
1740523841.1591504,-0.3399862015928785,0.8584381320800436,-0.25915526829242824,-0.012907639483824507,nan
1740523841.1630561,-0.2893923970610984,0.5234007252091574,-0.20995901657894958,0.09907866367325727,nan
1740523841.1669638,-0.13118169628551193,0.11485269352933947,-0.11802038827532753,0.15745547821477754,nan
1740523841.1708696,-0.03225466688956044,0.02136343828566708,-0.07118739762457983,0.04027199244796509,nan
1740523841.1747756,-0.03137341100706457,0.033641956837231674,-0.07242189122526219,-0.22836174498418726,nan
1740523841.1786814,-0.01291985423989742,-0.21122115339045713,-0.0267915458729541,-0.40830751639451107,nan
1740523841.1825871,0.13824035762998566,-0.5808298794173018,0.1426350679655182,-0.24565761865937347,nan
1740523841.186493,0.3586580537835051,-0.5514009118442739,0.3654931484191743,0.22128979198931353,nan
1740523841.190399,0.41755182115673806,0.02650126721521055,0.44741960387087587,0.6184652018340634,nan
1740523841.1943047,0.14746464093878048,0.5573200940075512,0.25567666553079904,0.5693532145430851,nan
1740523841.1982105,-0.3295809587343301,0.33937304039761546,-0.12367522971195488,0.07736115222784423,nan
1740523841.2021163,-0.6454794410040364,-0.5045200299967997,-0.4415225361692146,-0.46223344090212376,nan
1740523841.2060223,-0.5067256879232982,-1.0123415156755164,-0.5068066935741145,-0.6406763089110314,nan
1740523841.209928,0.007474452101739584,-0.4316483372027032,-0.3355426036152427,-0.39615569676267787,nan
1740523841.2138357,0.4858886176775143,0.8558312846669766,-0.07900012012126786,0.0051571109493751,nan
1740523841.2177415,0.5536677939721781,1.6520091859327681,0.1527753999366468,0.2825249183983555,nan
1740523841.2216473,0.21414651996670653,1.1852337278378644,0.3453365658201035,0.36562177449934313,nan
1740523841.225553,-0.17768264267044226,-0.11324171732571722,0.47075665204388445,0.32821556884027475,nan
1740523841.229459,-0.279157199642008,-1.1239915392827418,0.4122361947775624,0.20925181149544667,nan
1740523841.2333648,-0.08532380361765,-1.1865174998867136,0.08427838382714856,-0.009577226030510679,nan
1740523841.2372706,0.11086888308880512,-0.597379628406244,-0.37482222394169773,-0.27431247581830204,nan
1740523841.2411764,0.05997523105997954,-0.059661762873620273,-0.6226286694371003,-0.4149724690060242,nan
1740523841.2450824,-0.17588138104476803,0.11023421597957828,-0.41384117885066407,-0.29992025951945583,nan
1740523841.2489882,-0.3072119422413787,0.11595238920083362,0.11261007963356,-0.0037674324728371074,nan
1740523841.252894,-0.14530558088970463,0.2062397360264084,0.5105200347139159,0.24420736658212958,nan
1740523841.2567997,0.18821987718790523,0.3384673789097146,0.44053172972631977,0.2882157876200723,nan
1740523841.2607074,0.38915900801041664,0.3615030022888352,0.0009890949734270007,0.17743202938174446,nan
1740523841.2646132,0.28571442006657843,0.3165611206133261,-0.3807287272319557,0.05475900503461055,nan
1740523841.268519,0.0016620101738558386,0.35329448834696353,-0.37899367509415943,-0.028261130278510058,nan
1740523841.2724247,-0.19105910795208994,0.401657688841783,-0.06099734989463329,-0.12215392522042608,nan
1740523841.2763307,-0.1546159972903397,0.1565281504351576,0.24507880749897376,-0.226801605839616,nan
1740523841.2802365,-0.001649340748782214,-0.4948716307289036,0.30869076170994353,-0.2245140952584596,nan
1740523841.2841423,0.056422140147831486,-1.153365161734394,0.1716708061725463,-0.0296214094062721,nan
1740523841.288048,-0.0548936659801209,-1.2060883713301886,0.0016730553682327597,0.23740332327595176,nan
1740523841.2919538,-0.20511073802032387,-0.48068131117903873,-0.12323113834117892,0.32133732952709215,nan
1740523841.2958598,-0.21128378347475804,0.5110524100726959,-0.22182781192947093,0.11440387331149794,nan
1740523841.2997656,-0.03278321247116219,1.0567438155130457,-0.26241884878640453,-0.18853943247038107,nan
1740523841.3036714,0.1931121307789617,0.912282715847087,-0.1353361904750516,-0.2830836920604205,nan
1740523841.3075788,0.29335834124729016,0.42065441512584656,0.1688454935300349,-0.09415955532474794,nan
1740523841.3114846,0.2195631548028413,0.03388229808640235,0.42607726415002545,0.14271078573442375,nan
1740523841.3153906,0.0702540188631264,-0.13201229564495162,0.3455735802566919,0.1642052216850412,nan
1740523841.3192964,-0.026963699729105575,-0.23339496347136196,-0.0888377392248237,-0.011508398822050835,nan
1740523841.3232021,-0.04147932536825674,-0.35049054895259785,-0.5138861967721247,-0.12422562608496145,nan
1740523841.327108,-0.051678268300301956,-0.3784575707201571,-0.5116755659297185,-0.00896985090459663,nan
1740523841.331014,-0.14170203847064505,-0.25278822027896686,-0.049845130958912506,0.18756662475177963,nan
1740523841.3349197,-0.2896445598760428,-0.10677244728423617,0.4586151394635553,0.18314884260607076,nan
1740523841.3388255,-0.3584487771851084,-0.09095686079720554,0.5682582649573952,-0.08235957832821382,nan
1740523841.3427312,-0.20969789686857085,-0.12125073741924206,0.2414863094689486,-0.3452604061954071,nan
1740523841.346637,0.14932307430112957,0.03362724997475266,-0.16247896624002475,-0.3046218263554915,nan
1740523841.350543,0.5186741363504658,0.3948227854883346,-0.3084948936382909,0.03348175382033932,nan
1740523841.3544502,0.6274722492412533,0.6461459558473743,-0.21515429877072637,0.35111534536696626,nan
1740523841.3583562,0.3524265246526328,0.47570734116736413,-0.1339738495480485,0.35364679364924423,nan
1740523841.362262,-0.14704913802819877,-0.016499578567768406,-0.1758806302413264,0.06586458604444037,nan
1740523841.3661678,-0.5207401709983869,-0.39103743485216647,-0.17261337221477832,-0.22184825911816167,nan
1740523841.3700736,-0.5038072093094489,-0.368638299583686,0.05982048147045959,-0.2653206404984305,nan
1740523841.3739793,-0.1485005722736946,-0.13350229102617409,0.4093709366167593,-0.08577510597782614,nan
1740523841.3778853,0.21174097038135276,-0.05188362538732974,0.5316999677814566,0.10596305303388531,nan
1740523841.381791,0.2587935025335629,-0.17899990647024383,0.2439527184332821,0.147550146050408,nan
1740523841.385697,-0.015520052611634156,-0.2110525893873573,-0.2246581820922569,0.057976271108779585,nan
1740523841.3896027,-0.30021132776390824,0.05221752105015486,-0.45009990323454874,-0.03630603283322967,nan
1740523841.3935087,-0.26352441069515803,0.36628256126663034,-0.2679383966757193,-0.05527161685676469,nan
1740523841.3974144,0.11995517849797228,0.31710826216462856,0.05851188055704664,-0.028798702270856517,nan
1740523841.4013216,0.5298427208186025,-0.11229901646713634,0.15256568996268946,-0.03219877477825801,nan
1740523841.4052274,0.5901604105878706,-0.4365984214422998,-0.04465086939054204,-0.08546236146025346,nan
1740523841.4091332,0.21392448801780606,-0.21731722196012276,-0.22491635969490273,-0.11924971749945709,nan
1740523841.413039,-0.31953148134280773,0.3880018902752352,-0.09548409288036867,-0.037626240051670055,nan
1740523841.416945,-0.6139523601159435,0.765537897102186,0.25735741129947853,0.1720276633509622,nan
1740523841.4208508,-0.4891385287640032,0.5188570311791625,0.44797367754680884,0.37796070641972973,nan
1740523841.4247565,-0.10075852824836085,-0.1281694169750418,0.22626755788858527,0.3740979366431619,nan
1740523841.4286623,0.22974713488032253,-0.640052977769026,-0.22418859686512058,0.06364258145359707,nan
1740523841.4325683,0.2930550321654949,-0.7461568414255536,-0.4613119964258643,-0.39658493563338515,nan
1740523841.436474,0.13344385685008572,-0.5787497742418217,-0.24544849531304752,-0.6663099268002554,nan
1740523841.4403799,-0.037133454509395765,-0.3172050674388579,0.2075335314776669,-0.5014149215543738,nan
1740523841.4442856,-0.045576582057105436,0.06856235604040857,0.4439283492377607,0.0026316472505299874,nan
1740523841.4481928,0.09771683249905584,0.6051355789961933,0.2276143017674471,0.46850545272083205,nan
1740523841.4520986,0.22349984324238453,1.008889153836717,-0.23214407556772249,0.5738689399549506,nan
1740523841.4560044,0.1646026869928248,0.8543700803571533,-0.4967632469832911,0.3347416855722755,nan
1740523841.4599104,-0.0827098679020986,0.11482126952832034,-0.32708780911164786,0.038254639782225326,nan
1740523841.4638162,-0.33532733625024824,-0.6465551382449073,0.09984634667159922,-0.09123051345495954,nan
1740523841.467722,-0.3713156707137704,-0.8056538568043943,0.38340766890982825,-0.10718628687195295,nan
1740523841.4716277,-0.13371939748970713,-0.3590990455649655,0.2962680782819107,-0.19725101620359625,nan
1740523841.4755335,0.19649489064501474,0.09139736166131858,-0.0070750994053009235,-0.3775099386116501,nan
1740523841.4794395,0.3471764786430903,0.07300039236267768,-0.16864584057695847,-0.42391700066548677,nan
1740523841.4833453,0.20258748366353307,-0.20591045166375438,-0.008266764058125872,-0.14784603572799038,nan
1740523841.487251,-0.08585240823119672,-0.18314403300308885,0.2792264006253879,0.3178124882558538,nan
1740523841.4911568,-0.24634756805489355,0.2708452360145521,0.3193716370133121,0.5958209660677157,nan
1740523841.4950647,-0.15135568208365807,0.6354429827702538,-0.04218470395952537,0.4489553368472696,nan
1740523841.4989705,0.07073975932472859,0.3997174613744366,-0.5456250127122403,0.032793239384410484,nan
1740523841.5028765,0.19014767036044475,-0.23943069224587296,-0.7431149090457666,-0.28010782992023636,nan
1740523841.5067823,0.12137229930016331,-0.5637714413471969,-0.427235403133219,-0.2966267595139107,nan
1740523841.510688,-0.011546268445386209,-0.20549311398657957,0.17455061624013843,-0.15759729742915746,nan
1740523841.5145938,-0.04974863352567748,0.3913153321074447,0.6313071268930519,-0.09469802000596782,nan
1740523841.5184999,0.00549456426375657,0.5126259140411408,0.7045397840599045,-0.12048590190919971,nan
1740523841.5224056,0.01389733914406717,0.03902778299609572,0.4888467967604375,-0.04629283416150618,nan
1740523841.5263114,-0.09934913716668314,-0.45334647759672014,0.1954611350601835,0.20898549958915408,nan
1740523841.5302172,-0.21917583879904098,-0.4508498097268555,-0.10491498069334756,0.4364822111193708,nan
1740523841.5341232,-0.16638630622528305,-0.1145453410558075,-0.451519818779481,0.3455662448364929,nan
1740523841.538029,0.06827222537091178,0.033502187397578424,-0.7563927105314926,-0.07148212712597635,nan
1740523841.5419366,0.27328373614995727,-0.1176245375084343,-0.7487184641315092,-0.4713704210004089,nan
1740523841.5458426,0.23391141468573856,-0.11802453881871697,-0.26840190822086324,-0.499026531768662,nan
1740523841.5497484,-0.020645268915396614,0.3419420730858855,0.42566497838513073,-0.1554508254201101,nan
1740523841.5536542,-0.22982783278702096,0.8483069805503761,0.7906552632048776,0.2235166240208385,nan
1740523841.55756,-0.17183966687976987,0.6805605736743924,0.5395703277967853,0.3382997077723931,nan
1740523841.561466,0.10383646154735136,-0.21591226174230888,-0.008088368429696532,0.21013591797142614,nan
1740523841.5653718,0.3301576389853872,-0.985207583883867,-0.23911478626482907,0.0746299011729364,nan
1740523841.5692775,0.2897143546683907,-0.7925839305818431,0.057812832478760186,0.05896577221276689,nan
1740523841.5731833,0.005756368846210112,0.1435976183938327,0.41343962421200986,0.053550470528908746,nan
1740523841.5770893,-0.31373789400055985,0.7384174483383629,0.20617612574549085,-0.0862937763423173,nan
1740523841.580995,-0.4708341708349584,0.30965172055588763,-0.5574892195105825,-0.2955784609483837,nan
1740523841.5849009,-0.39878536727423647,-0.5861507393174479,-1.1352113291846726,-0.34309108111571707,nan
1740523841.5888085,-0.14473153568845623,-0.8021021029918967,-0.8194105566818704,-0.11950931254197086,nan
1740523841.5927143,0.18678603724929294,0.016264973573832588,0.24068907359784517,0.191902847190911,nan
1740523841.59662,0.4550916329161682,0.9845360479775542,1.1185930681387677,0.2920528570025795,nan
1740523841.6005259,0.5189435518623263,1.0146947335087233,1.0538224326219554,0.1003800589364492,nan
1740523841.6044319,0.33533066703755426,0.08009483673304565,0.22904395779460499,-0.14248914144636124,nan
1740523841.6083376,0.03241203436953057,-0.7979786592695509,-0.4776666665996127,-0.1343458982642124,nan
1740523841.6122434,-0.1784735224001987,-0.7713102319103755,-0.4655528978547609,0.14895420414594115,nan
1740523841.6161492,-0.21042406334840094,-0.08348787422329515,-0.0024432219684279006,0.4090985900909222,nan
1740523841.6200552,-0.19245102820670312,0.36874513536009623,0.19591693624288894,0.32862004580173676,nan
1740523841.623961,-0.29532114555403566,0.17750547983304554,-0.15126525380902803,-0.09677242531359125,nan
1740523841.6278667,-0.4690795159035772,-0.18312633736689424,-0.5886113505227843,-0.5371002458612808,nan
1740523841.6317725,-0.4348924025939444,-0.11492773160050247,-0.5111926964160162,-0.6309743191766708,nan
1740523841.6356802,-0.00848566241785106,0.274179460803508,0.10396726593169858,-0.3079896011407209,nan
1740523841.639586,0.5965390649491482,0.36121579673492027,0.6806219745248009,0.16890147675136621,nan
1740523841.6434917,0.8894613732554489,-0.08425533122477949,0.705046767171447,0.4538243218123814,nan
1740523841.6473975,0.5893606240364856,-0.5277672360249871,0.25054709408148973,0.4082717262980008,nan
1740523841.6513035,-0.04595416019651247,-0.3536712474423158,-0.20589770747743197,0.17377327663361505,nan
1740523841.6552093,-0.45579428878515016,0.2950529184990584,-0.3559796052956554,-0.005534799502591745,nan
1740523841.659115,-0.357191247358118,0.6505052236135723,-0.29788509437197674,-0.01837734585635056,nan
1740523841.6630208,-0.028849630184220338,0.2860929340434749,-0.2378749736749193,0.03950724965184362,nan
1740523841.6669269,0.03296300901674332,-0.3332350528232285,-0.15752281551029448,0.0006865639489801232,nan
1740523841.6708326,-0.29811824651741375,-0.4474407232641679,0.08141575397630078,-0.1796383647565581,nan
1740523841.6747384,-0.6221307584138704,0.014097040649178468,0.3906663051535792,-0.365203698965134,nan
1740523841.6786442,-0.4694409459018106,0.3441233301586689,0.43264800226832845,-0.3688364680653666,nan
1740523841.6825516,0.1553159212217386,0.003935079702894977,0.04053851601462747,-0.137520557612018,nan
1740523841.6864576,0.7612338408638016,-0.6134835663931452,-0.461274761204644,0.18968164229964576,nan
1740523841.6903634,0.8857662937708332,-0.6274086066079246,-0.5348985254622729,0.4004934209410077,nan
1740523841.6942692,0.5346363759478249,0.1910691100945221,-0.04898107792650034,0.3820595410341139,nan
1740523841.698175,0.07473220052063212,1.0254794636021773,0.514456691655309,0.18767826896532722,nan
1740523841.7020807,-0.22377999783122604,0.9214997937138864,0.5725341691380063,-0.038922381999819906,nan
1740523841.7059867,-0.4146265529617157,-0.07113101751438478,0.09552452310218361,-0.1818372308161298,nan
1740523841.7098925,-0.6354856771027975,-0.916283064667894,-0.3800941526944998,-0.20608113693308752,nan
1740523841.7137983,-0.7784143360437268,-0.7686298068482114,-0.39405782291011576,-0.13749036372695503,nan
1740523841.717704,-0.5527606118743951,0.0897861230629081,-0.0733313154045206,-0.03040742069870941,nan
1740523841.72161,0.10522574471014023,0.6443056589833435,0.1016446102613761,0.04797593882517938,nan
1740523841.7255158,0.8061661010061254,0.35068702469156354,-0.05121039370624501,0.044392053515973535,nan
1740523841.729423,1.0112000616897796,-0.30605622849361996,-0.19422756288428641,-0.032899818494884304,nan
1740523841.7333288,0.5702182142481503,-0.4997416743338941,0.03595323954133555,-0.10040773550512762,nan
1740523841.7372348,-0.11352571651531267,-0.0782820398532725,0.47126866497076114,-0.06856595609255016,nan
1740523841.7411406,-0.4911006828533418,0.33665819675737546,0.5517275906476716,0.058108808151095294,nan
1740523841.7450464,-0.39737586845713757,0.2095506506256051,0.035846645947038396,0.16891560576054163,nan
1740523841.7489522,-0.1308106870192446,-0.2213528540834828,-0.6096933698983119,0.15950073418971533,nan
1740523841.7528582,-0.04558943552410778,-0.28087849867809794,-0.6848112773818339,0.05052314099364453,nan
1740523841.756764,-0.15954210308671263,0.2417997218229301,-0.07306540834176616,-0.034198979421288384,nan
1740523841.7606697,-0.20811124457679414,0.7725471875767096,0.582890030603158,-0.016384088343873105,nan
1740523841.7645755,-0.019858467203800058,0.6102395131743247,0.5887411738855658,0.03846790107098893,nan
1740523841.7684815,0.26444203613913425,-0.23822279653043738,-0.02778356749459518,0.0023917423871704447,nan
1740523841.7723873,0.36961122383151795,-1.0311301904141126,-0.5756528242322397,-0.1445607030048508,nan
1740523841.7762945,0.21028483494600422,-1.071740383143224,-0.49778708870330074,-0.2664182228501736,nan
1740523841.7802002,-0.03213128752482223,-0.3821081867008671,0.04345531784395983,-0.2167765263413194,nan
1740523841.784106,-0.13937443555419654,0.42755302698807873,0.44079392889215224,-0.009364950174568011,nan
1740523841.7880118,-0.08928072227863344,0.8242041779044222,0.3742122797571001,0.19202484303445969,nan
1740523841.7919178,-0.02684008460826781,0.7612120681450211,0.09844365455078455,0.25130364874238564,nan
1740523841.7958236,-0.052571331697128645,0.4891893950613499,0.0035566276401879297,0.1891075243807644,nan
1740523841.7997293,-0.10868950225464954,0.164219216596315,0.08037995584997012,0.11542247900566888,nan
1740523841.8036351,-0.0824001011529346,-0.23033221211463856,-0.013191928491013617,0.07043238945806514,nan
1740523841.8075411,0.03368586053217751,-0.6516074998313691,-0.40595197497298635,-0.011021059966764309,nan
1740523841.811447,0.12939395603453846,-0.8668514349297269,-0.7353808781326958,-0.16889426946351344,nan
1740523841.8153527,0.11053344589480191,-0.6463059399695839,-0.5339113302127553,-0.30770315100794143,nan
1740523841.8192585,0.0031241313604927668,-0.042054233939073524,0.1837243719834517,-0.2744502090517359,nan
1740523841.8231657,-0.08468595838257455,0.5959530994242789,0.8631955506074478,-0.045359560853035434,nan
1740523841.8270714,-0.0767387134970248,0.8879602111436431,0.9664075271060245,0.21283450118593508,nan
1740523841.8309772,0.010769367919063043,0.692927091489435,0.4888558769387634,0.29744213912460243,nan
1740523841.834883,0.09925473406140592,0.15830242244456724,-0.12954514226768718,0.1672822222868411,nan
1740523841.838789,0.11089721693663411,-0.4073550027893654,-0.5151729595159472,-0.038875044423992325,nan
1740523841.8426948,0.017550495598118266,-0.6967126591381194,-0.6498025438347076,-0.16319040030719884,nan
1740523841.8466005,-0.1294762941762435,-0.5509591708796584,-0.6650015957475944,-0.16530493923563233,nan
1740523841.8505063,-0.20812944870068462,-0.07842806201941743,-0.5289378923946035,-0.0956637176547679,nan
1740523841.8544123,-0.11119629211611312,0.36349633084634086,-0.09905690081931537,0.008445479072447722,nan
1740523841.858318,0.12692669016015498,0.4219832258654166,0.5434653480657434,0.14100402388331948,nan
1740523841.8622239,0.30364199984735857,0.0858348998804894,0.9889487088234864,0.2545759501898507,nan
1740523841.8661296,0.21656905560528353,-0.2574324954807929,0.8547781975451179,0.24421902956849473,nan
1740523841.8700376,-0.10162571074031951,-0.20214810927196897,0.2125945681631391,0.05618193663481531,nan
1740523841.8739433,-0.3562553783144206,0.20667503183583824,-0.44155017583290784,-0.2107785033277037,nan
1740523841.8778493,-0.2693500817267055,0.46851717453889896,-0.6677698165416339,-0.3695649381819209,nan
1740523841.881755,0.10039421511572592,0.17886152889521015,-0.471130507333148,-0.3239436497212968,nan
1740523841.885661,0.37478788831889803,-0.4456673611803097,-0.1858495770692787,-0.1479877992151403,nan
1740523841.8895667,0.24727205892276685,-0.7189189665074213,-0.05359072132814328,0.029098859382278436,nan
1740523841.8934727,-0.16349543520011206,-0.2360950559769348,-0.01606786320720136,0.1705706739658052,nan
1740523841.8973784,-0.4170537875463232,0.592525901663271,0.09004661881416455,0.3103203489617462,nan
1740523841.9012842,-0.22954212443099675,0.890023971205419,0.26072881885449056,0.4082980915813505,nan
1740523841.90519,0.20523868974515244,0.2473223510188828,0.3382077432543924,0.3263637866656383,nan
1740523841.909096,0.4296989130512977,-0.7632349384595629,0.24574983402706013,0.013136192787570545,nan
1740523841.9130018,0.23453386533438567,-1.1115485971706558,0.08992681687426306,-0.33800915120623115,nan
1740523841.9169095,-0.12345339519059287,-0.36952721817295314,-0.0030178443461951914,-0.42755137728608267,nan
1740523841.9208152,-0.2473165576635565,0.8101751549694483,-0.060837088833532164,-0.18765765179306237,nan
1740523841.924721,-0.07202280567991184,1.3223060380647653,-0.18736872348555378,0.09354489285417904,nan
1740523841.928627,0.08793246313574733,0.6991242189970509,-0.3487770817636452,0.0770073892504995,nan
1740523841.9325328,-0.034537947672404534,-0.4612901794272594,-0.3570347296796509,-0.2098441899538169,nan
1740523841.9364386,-0.2943815844670874,-1.1335938644683574,-0.11632790895196318,-0.3623767945618379,nan
1740523841.9403443,-0.2994764373884668,-0.8608814735246931,0.195635165364302,-0.0655919532315844,nan
1740523841.9442503,0.08131410981345204,-0.08522918115699864,0.29648361356506786,0.4893506422623277,nan
1740523841.948156,0.4973468470390761,0.4368755099049678,0.1409435976759907,0.7617267537376429,nan
1740523841.952062,0.48775790037791955,0.4191375786333106,-0.010811452124835417,0.45183293857531276,nan
1740523841.9559677,0.03039042693926303,0.1954503333446108,0.0767384979310401,-0.15329654362978376,nan
1740523841.9598737,-0.39185484244395924,0.18077515199873553,0.2885220268471246,-0.49554557629879514,nan
1740523841.963781,-0.3203840781292152,0.34482223740200507,0.27519882707094373,-0.35993238870074906,nan
1740523841.9676871,0.14712893244286465,0.30523778868669177,-0.09713522641149754,-0.06759596879507986,nan
1740523841.971593,0.4434682214209063,-0.12624536774309986,-0.5219553236038865,-0.037441076988203745,nan
1740523841.9754987,0.1609575338298893,-0.6388541829925443,-0.5652395705852747,-0.2663453663451788,nan
1740523841.9794044,-0.47498671702050527,-0.7393524187938323,-0.1657334521951475,-0.35932729123170226,nan
1740523841.9833105,-0.8184913974258887,-0.3134298447087979,0.2812679682852849,-0.051864704818643685,nan
1740523841.9872162,-0.4735939164808521,0.2404179968427972,0.36746381991600663,0.43498069199144274,nan
1740523841.991122,0.29783728704494716,0.46361022080623904,0.11505138116715154,0.6418432758041214,nan
1740523841.9950278,0.8457259659375497,0.33070784911282847,-0.09919868778268337,0.4031086471102504,nan
1740523841.9989338,0.764978579396779,0.1923051364175154,-0.019309223584706877,0.009443116724679623,nan
1740523842.0028396,0.232096059644283,0.25791514541827304,0.20623487689106765,-0.17176354222797102,nan
1740523842.0067453,-0.24840174555475536,0.29208821147402614,0.25350886574683795,-0.118867833031386,nan
1740523842.0106528,-0.35848442132164104,-0.054806234091877785,0.03964639550884126,-0.10366066987393911,nan
1740523842.0145588,-0.204552856167496,-0.6750898218111615,-0.2017283352880164,-0.27441725456889265,nan
1740523842.0184646,-0.10086113617654598,-0.9593818708092089,-0.24628930636086468,-0.43869660936943805,nan
1740523842.0223703,-0.19715885466486752,-0.45216273641811183,-0.1535061964458862,-0.3228150241704212,nan
1740523842.026276,-0.34723144068325434,0.5219115124790259,-0.13531785881266867,0.04693918790304604,nan
1740523842.030182,-0.30558357161191074,1.0738244010532556,-0.2191043575685288,0.3479792895485092,nan
1740523842.034088,-0.0031828499563935535,0.6779916519190933,-0.17886972686737326,0.34624192795065634,nan
1740523842.0379937,0.3793824404755789,-0.21900191010917638,0.15164923190405882,0.1631378097317131,nan
1740523842.0418994,0.5824053986327807,-0.6660278125775976,0.586397973011157,0.0867298516513734,nan
1740523842.0458052,0.48972636800519687,-0.27780295755277745,0.7154406441041239,0.1844849820741122,nan
1740523842.0497112,0.19840149648423921,0.32748751254909214,0.3360640844391632,0.22487581091623618,nan
1740523842.053617,-0.09743452785704095,0.2783657825149547,-0.3083308464609469,0.003440316039505024,nan
1740523842.0575244,-0.2718751354022797,-0.4590290558959444,-0.7485200686120173,-0.3581146696670102,nan
1740523842.0614302,-0.3273387660319511,-0.9615623522018851,-0.7089432991419553,-0.5302520644352609,nan
1740523842.065336,-0.3216145966048852,-0.4149325501664202,-0.28729168334157923,-0.3592200120789407,nan
1740523842.0692418,-0.27000078583044046,0.8455804786756649,0.2131004134058832,-0.03085820915099866,nan
1740523842.0731478,-0.14124989300848445,1.5763703057920477,0.5330797559531935,0.17361204783411477,nan
1740523842.0770535,0.05655293572570936,0.951350625554194,0.5518880627586598,0.19641733728100427,nan
1740523842.0809593,0.22359184612111904,-0.5064882483178406,0.27270449066985575,0.19615199189027438,nan
1740523842.084865,0.24370986497537736,-1.4535890551323725,-0.1597971495474134,0.26530069382142724,nan
1740523842.088771,0.12117206156618113,-1.1271827940670425,-0.45928883972894385,0.2799710191001682,nan
1740523842.0926769,0.007984034542444047,-0.059539487051533536,-0.3697417597025547,0.0881556473128069,nan
1740523842.0965827,0.05314046770625465,0.6299606920834093,0.06069075270060858,-0.22934197095622982,nan
1740523842.1004884,0.22201803536131443,0.4753110813909627,0.432960179865239,-0.3966429386082516,nan
1740523842.1043959,0.3041508370375965,0.02216627286812169,0.350139275947322,-0.2536574338126129,nan
1740523842.1083016,0.13217592120614316,0.007763006908187044,-0.14371307810507838,0.05077674472261202,nan
1740523842.1122074,-0.2205049762665007,0.43447725854575053,-0.5548667917151118,0.2262916608048158,nan
1740523842.1161134,-0.4963121001757202,0.6278969176732934,-0.44309479196454343,0.15491632293648197,nan
1740523842.1200192,-0.5119880238670366,0.12493829670007955,0.09562711783401884,-0.0267995465881186,nan
1740523842.123925,-0.3245468149506763,-0.7186264656996423,0.526069725245514,-0.13423923117084308,nan
1740523842.1278307,-0.11719302452279186,-1.0955245851941355,0.45495491830921736,-0.12948768861012658,nan
1740523842.1317365,0.039263190626258715,-0.6115636984985678,0.03175772705229149,-0.07703059932458625,nan
1740523842.1356425,0.2381550548723429,0.33196905606012694,-0.27601342465596673,0.006217048778530882,nan
1740523842.1395483,0.5326403077051467,0.971310213192124,-0.22860812472010092,0.14842998633289586,nan
1740523842.143454,0.7537777995375566,0.86910164963699,-0.01958133913697164,0.2836444276807402,nan
1740523842.1473598,0.6303490200075212,0.18203514311617738,0.055077654860723795,0.24169488116620966,nan
1740523842.151267,0.11187789639781094,-0.578133736620531,-0.016506794551361767,-0.03675336049496727,nan
1740523842.155173,-0.4959311431462799,-0.9199003470624829,-0.023210996667507748,-0.3352490575627587,nan
1740523842.1590788,-0.7879085580358323,-0.6201417383393315,0.09259003071512709,-0.33823574481061847,nan
1740523842.1629846,-0.6451224859581333,0.1533705160286674,0.10998702233160411,-0.005494418000718381,nan
1740523842.1668904,-0.3120858484733008,0.8700647000185705,-0.13347616655551686,0.3234973384240481,nan
1740523842.1707964,-0.08447395317773247,0.9536604079107918,-0.40692741700894536,0.285972382007455,nan
1740523842.1747022,0.009891379801841925,0.29217726183120707,-0.2821418331209989,-0.08044133604160685,nan
1740523842.178608,0.15857287899613715,-0.5547302578345557,0.3005013375089055,-0.37233773968502665,nan
1740523842.1825137,0.4357208181647645,-0.8309091421191254,0.8179586304740172,-0.29341810809658353,nan
1740523842.1864197,0.6410125650029271,-0.36774093588396645,0.6707897521414243,0.011857963690479105,nan
1740523842.1903255,0.5293720705577692,0.21275299664152705,-0.11683629046813972,0.17833085671089666,nan
1740523842.1942313,0.1405587755473132,0.2177904477915982,-0.8445534020588509,0.10191710506107624,nan
1740523842.1981382,-0.20838010688517541,-0.2603088647445999,-0.8519260109107775,0.04752418990096502,nan
1740523842.2020442,-0.28204214223277024,-0.4322575053441471,-0.20879334295495103,0.23596572380671038,nan
1740523842.20595,-0.19190312170409762,0.16701781062157717,0.4033253971832913,0.467587485583594,nan
1740523842.2098558,-0.22437634252052724,0.9674872364878104,0.4585927258313861,0.32620713560465586,nan
1740523842.2137616,-0.4404150631667959,0.9545541167965126,0.10503282790777943,-0.24986941215153038,nan
1740523842.2176676,-0.5598049872158917,-0.048106754295685845,-0.12000159445383811,-0.7732573607110317,nan
1740523842.2215734,-0.2978529053788622,-1.0078605553081896,0.039030728374026324,-0.7087845656706542,nan
1740523842.2254791,0.25159029228017643,-0.8313873193279387,0.3157449220973448,-0.10449599453556462,nan
1740523842.229385,0.6690426544205078,0.268681144301974,0.326231191098769,0.43029882968990335,nan
1740523842.233291,0.651076585233452,0.9151467391353706,0.03906654704882891,0.40942229818761666,nan
1740523842.2371967,0.31663737762734007,0.18837762871997868,-0.2623379625413671,0.006089858064535628,nan
1740523842.2411025,0.025623706954647885,-1.1745508857356262,-0.38271079329339697,-0.19958334096528366,nan
1740523842.2450104,-0.043264207444143866,-1.527260113421537,-0.3956057844093858,0.062264518653386544,nan
1740523842.2489161,-0.03637158097823968,-0.2214804384736767,-0.3961774819217144,0.4510526597925992,nan
1740523842.252822,-0.15363613312099064,1.5681863800671054,-0.2565736245617967,0.47254429427509215,nan
1740523842.256728,-0.3524554681251266,2.105924311096329,0.19158731316154917,0.08770053403341768,nan
1740523842.2606337,-0.4143763203565343,0.9698761875374077,0.7691284738405454,-0.2860865270844354,nan
1740523842.2645395,-0.2575616714576555,-0.6268802108586154,0.9580933333995337,-0.3356994776471847,nan
1740523842.2684453,-0.05304096157552231,-1.3181956168085645,0.443521545335802,-0.21819333378648517,nan
1740523842.2723513,0.014833151708950046,-0.9896464744688609,-0.42536829246904834,-0.2671843817729292,nan
1740523842.276257,0.004060337151002245,-0.5026291191135844,-0.8897403538190273,-0.4658259139678137,nan
1740523842.2801628,0.11651683884286974,-0.35149733156928864,-0.5602341540361415,-0.42470840064863113,nan
1740523842.2840686,0.36819021697798754,-0.13130907525283017,0.1504692660445102,0.07501286187931079,nan
1740523842.2879746,0.49977127371559144,0.5670686716912532,0.4679455206314962,0.690548123841863,nan
1740523842.2918823,0.30052119312952313,1.239065146260649,0.09525423558975642,0.8402018586948319,nan
1740523842.295788,-0.06224973023677388,0.9671468329989775,-0.48722120262777585,0.3883699656521897,nan
1740523842.2996938,-0.1883770906503334,-0.23464701483320385,-0.5756998308934094,-0.15913465252830208,nan
1740523842.3035998,0.0503679955172312,-1.1337642948228062,-0.0051531510361607115,-0.2270307673479934,nan
1740523842.3075056,0.2806882887206622,-0.6763386152683176,0.7062031504469466,0.15810402515587518,nan
1740523842.3114114,0.033465813265869795,0.6106517059601021,0.9162647725442544,0.40083619865592995,nan
1740523842.3153172,-0.6484119318548814,1.1211839402414978,0.4687668613708236,0.03511215111902884,nan
1740523842.3192232,-1.1531971446855687,0.12919559994790109,-0.23774876047780275,-0.7328826183153909,nan
1740523842.323129,-0.9312170803806338,-1.224545496047046,-0.6667671317812643,-1.2433087642675997,nan
1740523842.3270347,-0.10705010933167276,-1.2720145608435254,-0.5716295436509389,-1.0650797532918883,nan
1740523842.3309405,0.6552353646103031,0.09657740789283298,-0.11701253903254197,-0.3589237997756083,nan
1740523842.3348465,0.8885657706372914,1.2394070247742441,0.2762230449602403,0.40787022639536463,nan
1740523842.338754,0.7892771496158424,0.7890838650986074,0.22372682903801477,0.9616698132502179,nan
1740523842.3426597,0.8588270501957228,-0.6161773540268433,-0.2984334432926129,1.346859851123602,nan
1740523842.3465657,1.1625258910163174,-1.1187301139350379,-0.8031273741517624,1.618068364257081,nan
1740523842.3504715,1.1227616062464918,0.0010126374207555338,-0.5963134312323745,1.5534209286194034,nan
1740523842.3543773,0.1433780455729837,1.3840012040268017,0.5163144337892992,0.7682908323810835,nan
1740523842.358283,-1.613586590386265,1.2965346296628018,1.7657799753704662,-0.8529351789234016,nan
1740523842.362189,-3.162453547653717,-0.17794060828028638,1.9013847150891001,-2.7995386073711708,nan
1740523842.3660948,-3.422112294355074,-1.2730872945993947,0.4218492069350871,-3.9913864224763755,nan
1740523842.3700006,-2.016861283098929,-0.8279260271563065,-1.6640371632330782,-3.339263832437134,nan
1740523842.3739064,0.5243367936104427,0.254503209781266,-2.57399632109579,-0.5859026005389574,nan
1740523842.3778124,3.1498630125534968,0.3059267223315474,-1.4744558787408355,3.128460693196031,nan
1740523842.3817182,4.777135596744748,-0.7583211464438663,0.5910507016775122,5.629071628250098,nan
1740523842.3856256,4.624626841386755,-1.2200584321511683,1.705569100968704,5.109741804175927,nan
1740523842.3895314,2.484777063480508,0.09868640303805858,1.0599798422379614,1.6557488903865987,nan
1740523842.3934374,-1.015439262431951,1.9874742960620078,-0.2528554561558946,-2.545230209674552,nan
1740523842.3973432,-4.450786716492437,2.126933024547751,-0.5659345009279413,-4.81497945942608,nan
1740523842.401249,-6.195320951061573,0.09121331809913621,0.3980691175003636,-4.137099885195187,nan
1740523842.4051547,-5.322822136414837,-1.8229575933594004,1.216264200291224,-1.7895712514092814,nan
1740523842.4090607,-2.145058924050034,-1.3118251900030995,0.5179979473920064,0.1998595724493818,nan
1740523842.4129665,1.9988876455621063,0.9061081457235055,-1.2438576077298953,1.1075172953739398,nan
1740523842.4168723,5.4224486367709845,1.7323379562811712,-2.1554399243717826,1.791856950967957,nan
1740523842.420778,6.711141300176601,-0.4389500109712172,-1.0203990596288417,2.950270845566555,nan
1740523842.424684,5.138012309381085,-3.3289565129771788,1.1532792907610911,3.6048667020936085,nan
1740523842.4285898,1.0673890604081793,-3.1378140216966686,2.1496993303686778,1.9708290712558516,nan
1740523842.4324973,-3.773036688361767,0.8234643843037077,0.9632869514856016,-2.010986689732974,nan
1740523842.436403,-6.77351785546226,4.8103210752689325,-1.090747962396806,-5.562240067071112,nan
1740523842.4403088,-5.975928612917563,4.560343225443751,-1.8254558479201841,-5.259144568405657,nan
1740523842.4442146,-1.7471241250104796,0.12185791860669934,-0.54203742872443,-0.6397634492849709,nan
1740523842.4481206,3.0630825367297234,-4.039410328403838,1.3139715134086563,4.715903281638189,nan
1740523842.4520264,5.129471811824718,-3.89544636232518,1.809298058956936,6.231061982051943,nan
1740523842.4559321,3.3468829074769655,-0.14933340735129558,0.5394481281334711,2.6635661166970315,nan
1740523842.459838,-0.2753289079748538,2.8441922033646385,-1.1519936392279877,-2.7094013128627177,nan
1740523842.463744,-2.5035559310747555,2.0649603950705018,-1.733776044678146,-5.295816090766342,nan
1740523842.4676497,-1.8154365029262776,-1.089416618403985,-0.9343725513938997,-3.461523843788647,nan
1740523842.4715555,0.45054667045507035,-2.864079234481831,0.3472013807821017,0.40791538103513253,nan
1740523842.4754612,1.7490015948846689,-1.5008734605136398,1.1657694839674804,2.762762920241841,nan
1740523842.4793687,0.9458141724455118,1.235015314634139,1.240547102409005,2.336629062034678,nan
1740523842.4832745,-0.7965811250514693,2.6102476021426906,0.7266231200260701,0.6997227666132501,nan
1740523842.4871802,-1.565590760341774,1.9654414649964302,-0.19501695479744235,-0.0792163184350898,nan
1740523842.491086,-0.7877780712105694,0.6837665954513623,-1.214984271418795,0.3166435860202537,nan
1740523842.494992,0.3935477149191417,-0.16617650703271483,-1.6679871382339564,0.6127803675036243,nan
1740523842.4988978,0.627663296949584,-0.9995366318208672,-0.939815485461774,-0.1824420718870888,nan
1740523842.5028036,-0.12538351545644216,-2.3056853099599097,0.7007466596336446,-1.5909942435722064,nan
1740523842.5067093,-0.7294607334795801,-3.071597503237805,1.9783328267028595,-2.3226200066893754,nan
1740523842.5106153,-0.3052513489982485,-1.6931532414917978,1.7163257060948036,-1.6852442756441264,nan
1740523842.5145211,0.7830334796358343,1.575320490195088,0.11497224160137698,-0.11423723378696445,nan
1740523842.518427,1.4212211529616356,4.074833299721495,-1.3346075240651765,1.4364848339075706,nan
1740523842.5223327,0.9896152767581561,3.3618295075000515,-1.3762148947958721,2.2514967799223156,nan
1740523842.5262399,-0.08229263912041665,0.07144739237755646,-0.2861843827335592,2.05500864493359,nan
1740523842.5301456,-0.9075791770907643,-2.5809634626180307,0.550351985347019,0.9346829296074941,nan
1740523842.5340517,-1.0273285777662897,-2.2988037375648265,0.27309383877579235,-0.5859295315791532,nan
1740523842.5379574,-0.6290535375284549,-0.1139912579122816,-0.5469531999929389,-1.5893823025529106,nan
1740523842.5418632,-0.114324453384045,1.117874727475638,-0.7429185972850639,-1.371876832717348,nan
1740523842.545769,0.27436867531544795,0.20044398731878005,-0.006554138404685392,-0.23102804080975828,nan
1740523842.549675,0.41237153241828084,-1.2078977805836917,0.8500991026321021,0.6040042091028067,nan
1740523842.5535808,0.18731976057571392,-0.9762224991725723,1.0388389070209092,0.17621080514925055,nan
1740523842.5574865,-0.31661830477141467,0.7179552955098013,0.7465594255375432,-1.0583530619540351,nan
1740523842.5613923,-0.6247018034965286,1.7264017819908148,0.624656433222205,-1.5763237483494126,nan
1740523842.565298,-0.18785061039132464,0.8053619388232625,0.5947650010892459,-0.4350684725537955,nan
1740523842.569204,0.9208321341731237,-0.77476361906161,-0.2124491073192239,1.5834308718347618,nan
1740523842.573112,1.7740901154916344,-0.9476610579085591,-2.0456103662514096,2.696324532496696,nan
1740523842.5770178,1.3530101007640383,0.4054933601937854,-3.490557640611871,1.948138485373063,nan
1740523842.5809236,-0.333373590606007,1.3044759610532939,-2.562887775407616,0.10068285505705533,nan
1740523842.5848296,-2.0279727085570545,0.31520642158743284,0.8913301172409539,-1.3258254946086512,nan
1740523842.5887353,-2.3219565490284557,-1.4831025918783762,4.323428706198293,-1.618850765651182,nan
1740523842.592641,-1.016504112559877,-1.8289676671189212,4.642331872790454,-1.254327851203746,nan
1740523842.596547,0.693523978492818,-0.22308367204277035,1.422606384123589,-0.9130214221911391,nan
1740523842.600453,1.4302091397576817,1.3619994109484872,-2.398538330310416,-0.5943572875494876,nan
1740523842.6043587,0.9472009054630735,1.0088248103332764,-3.3956680438883304,0.07826274671114787,nan
1740523842.6082644,0.17659777945458627,-0.6147879090386612,-1.1699709146306683,0.99239997499518,nan
1740523842.6121702,0.06132921222920774,-1.0726964619774004,1.3354915508819754,1.4677203404693584,nan
1740523842.6160762,0.5285268805581136,0.6011536794997162,1.1397477049982527,1.1112321469982451,nan
1740523842.619984,0.70069818130286,2.4054548875682493,-1.4580818570699532,0.37108058434245417,nan
1740523842.62389,0.001487298343611958,1.7244997110082474,-3.2217603452899906,-0.056127994760589946,nan
1740523842.6277957,-1.1357002335087778,-1.256676728979026,-1.6143436847774346,-0.16391673418339114,nan
1740523842.6317015,-1.7042494559106924,-3.414964249508035,2.2927828185434613,-0.5449120077455165,nan
1740523842.6356072,-1.1541601311609078,-2.2526946780012658,4.841689051010598,-1.3096438657166034,nan
1740523842.6395133,0.1027561298708694,1.0505344984130782,3.601046337790096,-1.5759662693913092,nan
1740523842.643419,1.148306589115183,2.869761307538923,-0.17968683723514972,-0.49475891914439685,nan
1740523842.6473248,1.384575023577962,1.309263537027451,-3.0289204956089524,1.3575335561818347,nan
1740523842.6512306,0.9021153279021195,-1.6092915048367356,-2.8763386255324144,2.204015641939039,nan
1740523842.6551366,0.19253692108662512,-2.344046674911642,-0.8854771573820733,1.013879587735647,nan
1740523842.6590424,-0.3369955884569853,0.03118921365999402,0.27923723672529743,-1.0913461952770074,nan
1740523842.6629481,-0.5770217168972142,2.8058751722019943,-0.43080608287476985,-1.9027666381510921,nan
1740523842.666856,-0.6169526171704103,2.8184684531989137,-1.4589677691637697,-0.6373765730899198,nan
1740523842.6707618,-0.5679231247939425,0.020729603540788646,-0.7131479596277563,1.1038491891460682,nan
1740523842.6746676,-0.459396244587346,-2.655232468704818,1.8067291460347394,1.2428134180811468,nan
1740523842.6785734,-0.21727977276453989,-2.714866281923608,3.8158113987974103,-0.21909883195079183,nan
1740523842.6824794,0.2590325452202719,-0.6805927373792983,3.161661036669465,-1.182544843994852,nan
1740523842.6863852,0.9026243236413628,0.962072047985047,0.15279296079645122,-0.133877110456317,nan
1740523842.690291,1.3277631011636404,0.8195002527015927,-2.7130513513325725,1.7463858491601691,nan
1740523842.6941967,1.0100750534282563,-0.09121790879595396,-3.249621362796405,1.8256774034254606,nan
1740523842.6981025,-0.18172488283795032,-0.042512303418669864,-1.6045797493984406,-0.6827494462228532,nan
1740523842.7020085,-1.5934160589646278,1.0904138989571384,0.23120541521044635,-3.3786899133518835,nan
1740523842.7059143,-2.1145992933525246,1.7641450629772328,0.6829235054560856,-3.165025837389726,nan
1740523842.70982,-1.1445694755016333,0.8191516528789515,0.08254600088760823,0.1616608290912291,nan
1740523842.7137277,0.7034046841947834,-1.0203808616215602,-0.10195867482892207,3.4552865335186844,nan
1740523842.7176335,2.0022085032814805,-1.9806644178732642,0.7864415673886023,3.57135997763392,nan
1740523842.7215393,1.7785521449739659,-1.2660279154282736,1.7797071129829094,0.7306560260566127,nan
1740523842.7254453,0.4093668250751901,0.1567996927778517,1.5013577001405518,-1.9256564202989561,nan
1740523842.729351,-0.81074744303804,0.7820583169350241,-0.06932983861385908,-1.9521702072781757,nan
1740523842.7332568,-0.9947587246423031,0.20967151429937614,-1.4144020896246268,-0.1287679442581517,nan
1740523842.7371626,-0.45582911927621844,-0.6191418236028609,-1.1787062525577114,0.8847226574953003,nan
1740523842.7410686,-0.1328457608613432,-0.6063435072646575,0.17887171178971595,-0.10046205507984211,nan
1740523842.7449744,-0.37570666579418743,0.3805904253409548,0.7891806096193981,-1.5278739995517174,nan
1740523842.7488801,-0.5544522697880409,1.524712612436503,-0.4531921413381358,-1.2479898323234822,nan
1740523842.752786,0.03441743843460102,1.8843502033481672,-2.364825109416165,0.725081828036729,nan
1740523842.756692,1.0856099283330967,1.0803680343217632,-2.5021331849700124,2.2266821035823328,nan
1740523842.7605994,1.4366899139729632,-0.5565178719802748,0.13418553723956678,1.5749891380957874,nan
1740523842.7645051,0.4174516433382117,-2.1700397465520775,3.635314982347524,-0.46325799649930866,nan
1740523842.768411,-1.162831088556277,-2.7465336661896758,4.776340216168799,-1.6720427680030245,nan
1740523842.772317,-1.6868961172152488,-1.7249337411358827,2.229788682693539,-0.977204941116495,nan
1740523842.7762227,-0.47784662897007846,0.41399155883443534,-1.9412145677415258,0.5141182640921449,nan
1740523842.7801285,1.3175373930148604,2.2563207902005424,-4.201396082267734,1.0632356316921814,nan
1740523842.7840343,1.8267697046250644,2.5133908515872267,-2.979600812366468,0.33248258704668066,nan
1740523842.7879403,0.4470339865434885,1.1786671941777795,-0.0614496755154364,-0.5257845460523727,nan
1740523842.791846,-1.444347683679748,-0.4646893210355461,1.4855295165395774,-0.5332004922141005,nan
1740523842.7957518,-1.913754289018531,-1.1263532744334215,0.5817574167331889,-0.026802663183453354,nan
1740523842.7996576,-0.527414385442332,-0.7355135568926516,-0.9185037725694873,0.05423455584813415,nan
1740523842.8035636,1.2015470352120696,-0.2535806546369952,-0.5490875046816146,-0.42611839560335546,nan
1740523842.8074708,1.471151045395359,-0.3576011799720533,1.8131980000796992,-0.6315243311444244,nan
1740523842.8113768,0.1358125114594727,-0.6360242704423,3.6561002254605937,0.035261998782862417,nan
1740523842.8152826,-1.1863227879056826,-0.28251658316954026,2.5416669500258506,1.0356786944734253,nan
1740523842.8191884,-0.9324256878040946,0.6479057936028177,-1.1369426338213333,1.3155068723985062,nan
1740523842.8230941,0.6774740856255225,1.1258149939505275,-4.343087225444003,0.5960785314006052,nan
1740523842.8270001,1.8786067739914218,0.4440951531843054,-4.331542509578526,-0.3536007593783483,nan
1740523842.830906,1.2610261893558443,-0.7031619002651774,-1.2510196648500531,-0.7449567569483916,nan
1740523842.8348117,-0.7425238378632244,-0.879374307984907,2.180392510634616,-0.669506887614079,nan
1740523842.8387175,-2.3173714109811776,0.3142120630569981,3.3730805598579647,-0.7038715455731446,nan
1740523842.8426235,-2.08231332866458,1.5163621335547504,2.0669996922394427,-0.8726216849885277,nan
1740523842.8465292,-0.32830482484477885,1.0405843473380343,0.019187751435421854,-0.509444041443705,nan
1740523842.850435,1.4529770893116194,-1.0359432741864116,-1.0505610169978505,0.6964868939112054,nan
1740523842.8543422,2.02885350320574,-2.631586010365946,-0.9067430667888128,1.896512492685971,nan
1740523842.8582482,1.3228722149840835,-1.7977146970872744,-0.39550752968046615,1.7830955950449194,nan
1740523842.862154,0.09531269795311313,1.0193771414741126,-0.14042178213664738,0.12965362612233447,nan
1740523842.8660598,-0.8976350011633724,3.183792228532111,-0.011441537916481111,-1.709953921802802,nan
1740523842.8699656,-1.309424756064879,2.4999975688796092,0.2513138355265527,-2.0877843807409824,nan
1740523842.8738716,-1.063698417373737,-0.4799882756561669,0.3795030235742888,-0.7442455621081483,nan
1740523842.8777773,-0.23682808253525497,-2.9506729415043216,-0.1066919046190045,0.9979352405151415,nan
1740523842.881683,0.7839766998603925,-2.6535061823028494,-1.0244615877369858,1.6670474522678416,nan
1740523842.885589,1.294077327669411,-0.06603514206082235,-1.369532417174229,1.0168853491056842,nan
1740523842.889495,0.7918433684536945,2.222665177189562,-0.32479507143428843,-0.08147001289666823,nan
1740523842.8934007,-0.39838613523980665,2.1723559221056052,1.6179812441286734,-0.7947964991487212,nan
1740523842.8973064,-1.23950084705524,0.1946685887317975,2.815428262286445,-1.0154427261194399,nan
1740523842.9012136,-0.9498127575071615,-1.5237926937946238,1.9715500866233224,-0.9638174636108244,nan
1740523842.9051194,0.1491274478355961,-1.3647441846618475,-0.4960952217715288,-0.5823842631155058,nan
1740523842.9090252,0.927409981048909,0.19941790469152187,-2.6910137339887306,0.2999337489092044,nan
1740523842.9129312,0.6620926216214041,1.327282226794059,-2.9301469273182392,1.3357397486316904,nan
1740523842.916837,-0.17698290506131753,0.8230887612436905,-1.239745927668429,1.659434424038809,nan
1740523842.9207428,-0.5075136026028623,-0.6940063402550698,0.8039118999797237,0.7873719227725925,nan
1740523842.9246485,0.06325382236315867,-1.5557616090335638,1.6575116929273144,-0.653985551457929,nan
1740523842.9285545,0.7534161382300325,-0.8167383589229048,1.1768246334237955,-1.4207537047536833,nan
1740523842.9324603,0.550234209241854,0.8098113040386212,0.44140489023135443,-0.9392908431308093,nan
1740523842.936366,-0.5163873018567409,1.7213192854529504,0.3720917745267358,0.09634484042886139,nan
1740523842.9402719,-1.316335901935274,1.0336991255196355,0.710848105401752,0.5406756917007188,nan
1740523842.9441779,-0.9071511733049199,-0.591082026515846,0.46106018974920265,0.07046029139531594,nan
1740523842.9480848,0.33238902012890514,-1.6434131341129539,-0.7577606196199991,-0.5590751259576587,nan
1740523842.9519906,1.094370013783724,-1.2151569695901576,-2.0243985461264282,-0.4897891699533968,nan
1740523842.9558966,0.6413441553894808,0.22603742280941,-1.9712665065169435,0.2623618283221622,nan
1740523842.9598024,-0.34436430824859615,1.3898238402397036,-0.3254435249109356,0.9374475927656917,nan
1740523842.9637082,-0.5838862034005086,1.3780755612687214,1.58352040123989,0.9589487830759535,nan
1740523842.967614,0.25535319239152293,0.3670473210410869,2.047145973205962,0.46759290044691054,nan
1740523842.97152,1.1247625227990223,-0.754199943632209,0.7383136083368687,-0.06230070653130781,nan
1740523842.9754257,0.8093222365549552,-1.2404127607562736,-0.8918338200053739,-0.44291743087632546,nan
1740523842.9793315,-0.609986300489552,-0.9691729689620211,-1.1144709375100808,-0.7884888203095368,nan
1740523842.9832373,-1.756278778483828,-0.27028093697519506,0.21104768607685545,-1.050961978141589,nan
1740523842.9871433,-1.4396980000608215,0.46435342451870426,1.442813965529152,-0.884007123516489,nan
1740523842.991049,0.058075268787395024,0.9390382952996005,0.9382144449891808,-0.11800233628318949,nan
1740523842.994957,1.3206673509687035,0.9324310266713662,-1.0618731433747424,0.8229491143366597,nan
1740523842.9988627,1.3119625372143968,0.3958874157694754,-2.5373465597862643,1.2393306542619202,nan
1740523843.0027685,0.35025722092831296,-0.35584141478690706,-1.7768653497848632,0.8993089167434156,nan
1740523843.0066743,-0.4436909330164711,-0.7430056393346974,0.7421876970391539,0.26332915188533235,nan
1740523843.01058,-0.43701065604940176,-0.43520075139053516,2.7282296258455014,-0.11913403654342837,nan
1740523843.014486,-0.010443877947064679,0.21815833521464592,2.360636301784498,-0.2557824065066134,nan
1740523843.0183918,0.12607890491874646,0.4527762218020451,0.08965795949321938,-0.5416074907874117,nan
1740523843.0222976,-0.15955702528054877,-0.08007599014798354,-1.9100486472443947,-1.012330296711845,nan
1740523843.0262034,-0.38555622325138156,-0.8249887433982674,-1.970099561047073,-1.0876695742809652,nan
1740523843.0301094,-0.18969330537867857,-0.8455373255470247,-0.450142879843358,-0.27290136432870665,nan
1740523843.0340152,0.191628718980089,0.11227305297551461,0.9333746973881718,1.0214942718161455,nan
1740523843.037921,0.2816796468671836,1.2179991303288624,1.0251546044013824,1.6783121457982801,nan
1740523843.0418286,0.015770646776064406,1.3650444118235954,0.23787439713822842,1.0238422777113863,nan
1740523843.0457346,-0.1937963704531095,0.35663558150433067,-0.2707525045840569,-0.3755019560081089,nan
1740523843.0496404,-0.037661197995861345,-0.8564064011508602,-0.05691689211997654,-1.2543843591294825,nan
1740523843.0535462,0.2656248679680982,-1.172733080317054,0.25522392323639964,-0.9546348063986375,nan
1740523843.057452,0.2723675222528961,-0.4631639599658813,-0.024996974639505783,-0.020640032391533513,nan
1740523843.061358,-0.06638291471769889,0.40744180876538527,-0.6737432276317945,0.5347267141354142,nan
1740523843.0652637,-0.3103103490996217,0.5980211396706087,-0.8201935392208485,0.3560724021910703,nan
1740523843.0691695,-0.1119834235800682,0.13545066829130017,-0.07882749266819516,-0.04052333576495603,nan
1740523843.0730753,0.28387444160382286,-0.310394228383263,0.8907642860750846,-0.07311032907132324,nan
1740523843.0769813,0.31201059414165705,-0.29778462188290944,1.094842475790738,0.18603773635691967,nan
1740523843.080887,-0.1735136672430902,-0.02593654613666125,0.33055960225763953,0.2384068598501135,nan
1740523843.0847929,-0.6374320184591468,0.10296953789627505,-0.602921345526548,-0.0815881350962047,nan
1740523843.0887015,-0.4677721124554342,0.06251860073287387,-0.8151613819333979,-0.36999794770056205,nan
1740523843.0926073,0.25586785869032413,0.1335539131524327,-0.2626092966865602,-0.22702231310265228,nan
1740523843.096513,0.7856083760733276,0.3632108123517997,0.3281774408489094,0.1685006449814401,nan
1740523843.1004188,0.5400022021252757,0.3917055270635018,0.3513490112649928,0.27682957807783093,nan
1740523843.1043248,-0.2220692921799969,-0.04234850821207337,-0.06355926975670384,-0.0728333757510774,nan
1740523843.1082306,-0.6883374184585915,-0.6041643215944907,-0.34660218861640235,-0.41614480267221365,nan
1740523843.1121364,-0.4046071662176738,-0.6423076774768043,-0.20494866361806743,-0.23105176415301007,nan
1740523843.1160421,0.2518865586280753,-0.0044469384480528215,0.12315916183305146,0.36608410813691117,nan
1740523843.1199481,0.5548714394275587,0.6478828149548542,0.2719533348427185,0.7067552141193558,nan
1740523843.123854,0.25462466156730124,0.534617649044033,0.19539498567385957,0.35841493975612165,nan
1740523843.1277597,-0.21867186463478003,-0.2961725853804971,0.10988080914526284,-0.34994378493618394,nan
1740523843.1316655,-0.3398852189760401,-0.9340649087354125,0.11571606715579323,-0.7017535696201492,nan
1740523843.135573,-0.09621581786857385,-0.6056178431238818,0.06741788403398925,-0.39897145355072466,nan
1740523843.139479,0.09702456861114095,0.42887134163866425,-0.15129028656120574,0.16021054502341123,nan
1740523843.1433847,-0.013504904322828146,1.1372683328840643,-0.37902097857084627,0.4025629665054962,nan
1740523843.1472905,-0.20569413515715465,0.8417741786837363,-0.34048002007011113,0.21191550221965905,nan
1740523843.1511962,-0.11760404482914764,-0.08394789492096191,-0.019758226254338825,-0.06205408609804119,nan
1740523843.1551023,0.23833937951400172,-0.7025338156616294,0.27074002483968856,-0.11739357019456549,nan
1740523843.159008,0.4578999689904487,-0.5528273603060042,0.24691016531289828,-0.028851010423755322,nan
1740523843.1629138,0.24531031677325488,-0.04025874686309926,-0.011434676867414206,-0.027256834107698646,nan
1740523843.1668196,-0.20496226725243424,0.16702586042665601,-0.17371423124527655,-0.1168473574202717,nan
1740523843.1707256,-0.42261246159683624,-0.08119619432212496,-0.06766669988755808,-0.0785693957030331,nan
1740523843.1746314,-0.20463909563477886,-0.3604900166416743,0.14133899237076678,0.1724400640351847,nan
1740523843.1785371,0.17003436770024974,-0.272777663688843,0.2060298230589528,0.4002657668632899,nan
1740523843.1824446,0.288013950379588,0.10583620589020312,0.11776754646257942,0.31138678663891955,nan
1740523843.1863503,0.06703509465646104,0.41307492651240024,0.060097543466992205,-0.07268906919492613,nan
1740523843.1902564,-0.20369753636077817,0.4612750132114343,0.08735856219766597,-0.4221387003368162,nan
1740523843.1941621,-0.2408698471970315,0.3570490501961358,0.011025791311866717,-0.4708594110841276,nan
1740523843.198068,-0.07105118183063334,0.22703428301695155,-0.30840368341462515,-0.2751673642029437,nan
1740523843.2019737,0.07506538071847298,0.02543952326521615,-0.6534593346818347,-0.06134019833974879,nan
1740523843.2058797,0.07978453753858544,-0.3002879750479713,-0.5989646305669987,0.08378552212350122,nan
1740523843.2097855,0.04659444938786239,-0.5820630613594151,-0.013919662850196404,0.25202651810231164,nan
1740523843.2136912,0.10303499637293449,-0.5452244516407302,0.6930264845455517,0.46779090102215237,nan
1740523843.217597,0.20214566020022426,-0.16354598679216198,0.9383612325054895,0.5488218081178933,nan
1740523843.221503,0.18896346766395128,0.23495780137849556,0.5562361083828444,0.3080046130927354,nan
1740523843.2254088,0.019341318883842516,0.3082483153173031,-0.06059220813449932,-0.16347583828719864,nan
1740523843.229316,-0.1755637600020156,0.08680457386834213,-0.4179383265949843,-0.5320698603693098,nan
1740523843.233222,-0.2550763264708764,-0.0815569331991239,-0.41509859463369314,-0.5632057487985479,nan
1740523843.2371278,-0.22563231828068786,0.03858370650705438,-0.3136744506618078,-0.3450212090311103,nan
1740523843.2410336,-0.1799216665969326,0.3035056092985841,-0.3003669665875991,-0.12352046942077595,nan
1740523843.2449393,-0.12778315991573264,0.396651743761127,-0.25199231279266215,0.011854230660322882,nan
1740523843.2488453,0.0186538533266325,0.20997775929246315,0.00801203361254683,0.1724803736862449,nan
1740523843.252751,0.2702566339518154,-0.08139915909191678,0.3559288171562037,0.4122696955616296,nan
1740523843.256657,0.45319666460327623,-0.28397013009772815,0.4479114106154465,0.5576088286062885,nan
1740523843.2605627,0.3642092102199126,-0.3830177930051691,0.16889576487253447,0.39458158707735597,nan
1740523843.2644687,0.028702734101581567,-0.4259073943500521,-0.1522272618812038,-0.021858692885774307,nan
1740523843.2683744,-0.27550097360240833,-0.339096378449708,-0.10545770542785741,-0.3683706715703822,nan
1740523843.2722802,-0.3007505281914799,-0.022802095113308194,0.2702803530315578,-0.3999985558197989,nan
1740523843.2761884,-0.09965173578936863,0.3846272718254563,0.47374078216274046,-0.21309440049042883,nan
1740523843.2800941,0.04663363463811594,0.5176874822182589,0.12195982561598522,-0.08824024425261753,nan
1740523843.284,-0.03554796786591986,0.1901470698970734,-0.5524609937431233,-0.12170565830374298,nan
1740523843.2879057,-0.21381911285549657,-0.2823417990317172,-0.90740898823497,-0.12921442271728484,nan
1740523843.2918117,-0.2234190158353357,-0.34179428634492254,-0.58665667905573,0.060213775071612234,nan
1740523843.2957175,0.00710728393877482,0.17161574174168512,0.10366466191061006,0.32710136640729753,nan
1740523843.2996233,0.27528884882109744,0.7539065412472474,0.5634151881186359,0.388142755924038,nan
1740523843.303529,0.35154529798717515,0.7338986201397384,0.5475627485853938,0.16826318139075308,nan
1740523843.307435,0.23275429324559221,0.007971130129129003,0.32811094433195276,-0.08390014796208742,nan
1740523843.3113408,0.09510195134214297,-0.8349485396487232,0.23797936788085258,-0.10931554868307844,nan
1740523843.3152466,0.0362939787429783,-1.1381130938688413,0.22811215406284502,0.024573926585684355,nan
1740523843.3191524,-0.03837918256547166,-0.8080203814738232,0.0057345743606530995,0.020340425474012266,nan
1740523843.3230605,-0.2363979127898589,-0.24727672407656343,-0.4605184718670201,-0.22798788868780304,nan
1740523843.3269663,-0.4563229257943195,0.21958642525988506,-0.771802037710675,-0.4444367339690263,nan
1740523843.330872,-0.44677923093733884,0.6369510022902104,-0.5383792264231071,-0.29192278439320296,nan
1740523843.3347778,-0.10847326980634023,1.0884292676585225,0.10249041005502445,0.17960859824239458,nan
1740523843.3386838,0.3321443479437237,1.2934279799337045,0.563962329037781,0.5346654441350321,nan
1740523843.3425896,0.5200074725677557,0.8027900278349659,0.4409084703060983,0.4318674244842013,nan
1740523843.3464954,0.3348735420878984,-0.3579955715420495,-0.039316533033829044,0.0077150913958592,nan
1740523843.3504012,0.003610036167913786,-1.4442757943261222,-0.28684471680926416,-0.29758492164012085,nan
1740523843.3543072,-0.16521521484424695,-1.599543148264603,-0.027181251672130313,-0.2467779657338729,nan
1740523843.358213,-0.1075078640776953,-0.7201019945903275,0.4027486901685259,-0.025763343363548248,nan
1740523843.3621187,-0.01624834351188917,0.40771361280439034,0.46539494190707786,0.05619977387597403,nan
1740523843.3660245,-0.056882199356636826,0.8869739383830898,0.03757759837235147,-0.03394216867736997,nan
1740523843.3699334,-0.15597969902919565,0.5550124211431864,-0.4750321809529808,-0.06304378440730288,nan
1740523843.3738391,-0.12207480097004744,0.0014457277849905905,-0.6073753813675316,0.09986490509410621,nan
1740523843.377745,0.06958940761358827,-0.16094584082264135,-0.310267756165663,0.2711624219917375,nan
1740523843.381651,0.20554023631491664,0.10200014691112749,0.08120030860196736,0.18389443327004343,nan
1740523843.3855567,0.08634406094564882,0.3703464024724862,0.2619812246827654,-0.14571881772660256,nan
1740523843.3894625,-0.19868564369970812,0.3236045272392476,0.22974750740909042,-0.40231249251077345,nan
1740523843.3933682,-0.3252193127098874,0.029640486972182824,0.15861755011331177,-0.3312936951836412,nan
1740523843.3972743,-0.08623533722425757,-0.25483594573327223,0.13111675905991935,-0.018739308329067214,nan
1740523843.40118,0.3481038439153917,-0.387598888785002,0.08875576805902333,0.24332281694713573,nan
1740523843.4050858,0.5685799714598013,-0.37748364469903367,-0.0033716830347321407,0.29989807331089036,nan
1740523843.4089916,0.33213960039887763,-0.25080333285365475,-0.07186911293449513,0.23923474359364177,nan
1740523843.4128976,-0.1891234730000342,-0.03587839803507571,-0.060338587546872276,0.17440034896160567,nan
1740523843.4168053,-0.5685153195187909,0.1453706949671921,-0.05144504380477782,0.057026097867408594,nan
1740523843.420711,-0.519525726760774,0.1363799764475558,-0.15965492876023246,-0.19559368932550586,nan
1740523843.4246168,-0.13026486875603124,-0.026333007530677334,-0.3156276741655489,-0.4581559415872283,nan
1740523843.4285228,0.2611532417537655,-0.06246816484201729,-0.27390523866540434,-0.4422867712270624,nan
1740523843.4324286,0.3842668192840007,0.2242575428775974,0.08665506733295104,-0.049587405461200884,nan
1740523843.4363344,0.2321199621236593,0.5994464152378545,0.5228499410872111,0.4139731909302467,nan
1740523843.4402401,-0.005191735798071377,0.5664765555937284,0.604402026073802,0.5043461186809306,nan
1740523843.4441462,-0.14405921725521037,-0.02109224395845138,0.17856328663949325,0.13158785047659868,nan
1740523843.448052,-0.13797249057566008,-0.6493204424740991,-0.4037976488620939,-0.3089019574296882,nan
1740523843.4519577,-0.05400419070471834,-0.649593797373765,-0.6068734561375286,-0.35850570211016686,nan
1740523843.4558635,0.025498327731212647,-0.022869134707203465,-0.25992969929540743,0.0006703698240586415,nan
1740523843.4597695,0.06424457814416731,0.4507696759297697,0.26489468306096614,0.34308062150702173,nan
1740523843.463677,0.06580980865593296,0.09214273349485609,0.44844565773655054,0.29140822110866954,nan
1740523843.467583,0.043577297633664094,-0.7811856422643436,0.1577894833128458,-0.07716552239861615,nan
1740523843.4714887,0.007950274713250723,-1.0839949700226903,-0.2568170453357741,-0.3589780131705242,nan
1740523843.4753945,-0.030992758566879584,-0.18716529536570803,-0.36966953752008375,-0.290098320924098,nan
1740523843.4793003,-0.06450803848625725,1.2458669540396663,-0.11372084694231081,0.006119458645363954,nan
1740523843.4832063,-0.08995351844131794,1.8533253539249401,0.2129172846861541,0.2245924829768821,nan
1740523843.487112,-0.10483161361440159,1.0109223218982137,0.30784925388917883,0.22299327910324576,nan
1740523843.4910178,-0.09191903465338251,-0.49447522849886993,0.1536406263971503,0.0963319592449651,nan
1740523843.4949236,-0.02103022212153838,-1.3141052919654357,-0.04653640941292966,-0.022362545260012183,nan
1740523843.4988296,0.11599391103952886,-0.9381432637142122,-0.13306157845041863,-0.11157532395028583,nan
1740523843.5027354,0.26356778623009064,-0.09079036904574515,-0.12079463250584054,-0.18710786497739196,nan
1740523843.5066411,0.3098351939488185,0.2240527176985122,-0.09635229452118278,-0.18503674657546304,nan
1740523843.5105486,0.16765631567053274,-0.15978450242224007,-0.07614614755872719,-0.026321840394056426,nan
1740523843.5144546,-0.12562075625126176,-0.5387503586617498,-0.014806069347718798,0.2185912275765006,nan
1740523843.5183604,-0.39251302978569097,-0.28050753803934625,0.08627114763948587,0.33651346920247527,nan
1740523843.5222661,-0.43368729595133815,0.4544881406148456,0.14925705694572167,0.199015353866742,nan
1740523843.526172,-0.20070022302058907,0.9840034085530772,0.11423645683050519,-0.07082941066352667,nan
1740523843.530078,0.13820214045671705,0.8953140950138596,0.019132987946733886,-0.23153397773609816,nan
