timestamps,TP9,AF7,AF8,TP10,Right AUX
1740794606.5714214,0.0031973299785954036,0.6324675687702447,-0.8089694877745311,0.1326115877601574,nan
1740794606.575327,0.09445369679554545,0.5317329761795291,-0.5291565419798646,0.07546706414741079,nan
1740794606.5792327,0.08663948121921222,-0.10365858408722824,0.10707649027175457,-0.12397915576064518,nan
1740794606.5831382,0.04080890021635983,-0.772140020822079,0.6973982545416887,-0.28764996637357787,nan
1740794606.587044,0.04435797916900694,-0.9027688446547507,0.8922500368391022,-0.23901672697605192,nan
1740794606.5909495,0.09463521747267403,-0.4714200806347834,0.635183258858087,0.012351059717566417,nan
1740794606.5948553,0.11147525672747274,0.042396818599488184,0.11855534185089893,0.265881200191758,nan
1740794606.5987608,0.0543732958858048,0.2794673924045897,-0.3982353952226994,0.31168261888520105,nan
1740794606.6026664,-0.023517237588315632,0.37970699192602275,-0.7001028536809735,0.12443978858247358,nan
1740794606.6065722,-0.059314862020810745,0.6246167789917739,-0.6507039264948064,-0.1153880061496027,nan
1740794606.6104777,-0.0773946039888678,0.8602335189817457,-0.25878791796922596,-0.1955293872909832,nan
1740794606.6143835,-0.14915054554035453,0.5639781283552963,0.2509364545862033,-0.07711948412620409,nan
1740794606.618292,-0.2580036668341811,-0.41689534644912746,0.5291415698308973,0.07195244013340758,nan
1740794606.6221976,-0.262819972848495,-1.401117624067931,0.38214711616274083,0.06023271100130455,nan
1740794606.6261034,-0.04507473140556219,-1.4237055511584076,-0.017816480964977215,-0.1066020821102019,nan
1740794606.630009,0.3167697783896001,-0.3016539098901975,-0.2699058587882154,-0.21076696143095003,nan
1740794606.6339147,0.5657606166768799,1.032284530970491,-0.1436002242409245,-0.05992372364293739,nan
1740794606.6378202,0.4879111855587062,1.4188282905020635,0.18214380114669826,0.2615629728612944,nan
1740794606.641726,0.11211603803836914,0.6487197118575649,0.3205265615258488,0.42571087028815324,nan
1740794606.6456316,-0.3149090064983393,-0.3854655391788873,0.10231812530413952,0.1933594537370444,nan
1740794606.6495373,-0.5387538974490045,-0.7090924641434236,-0.25635896349476306,-0.29099218602824756,nan
1740794606.6534429,-0.47657357840728787,-0.2714435856266773,-0.41956824278846583,-0.5898344789325863,nan
1740794606.6573486,-0.22228320892886955,0.1701548746188184,-0.2943674045878863,-0.39889032528313567,nan
1740794606.6612542,0.06864249125469155,0.04318648711362101,-0.06537109424807301,0.13074504022194092,nan
1740794606.6651666,0.27757029708599174,-0.3965259692213613,0.09070131255771528,0.5338897346183001,nan
1740794606.6690724,0.3491541599984531,-0.47669199597221334,0.20554385579392914,0.4959182523912091,nan
1740794606.672978,0.28606117492978994,0.020894256232881568,0.37662775248881103,0.1387646181079348,nan
1740794606.6768837,0.14304409077088404,0.6101176377391507,0.5106503921799365,-0.1688879770226381,nan
1740794606.6807892,-0.0011418078551616755,0.7075349679366504,0.3569967592256395,-0.22982913246511136,nan
1740794606.684695,-0.09986509834306376,0.29182503347843813,-0.15272213876529966,-0.1734524887015574,nan
1740794606.6886005,-0.16676936222842834,-0.162170120581119,-0.6942669340029495,-0.20070048106753474,nan
1740794606.6925063,-0.22915762685658106,-0.2968239314417408,-0.8045453740747124,-0.2787011566144475,nan
1740794606.6964118,-0.2575428253338251,-0.2252252480364113,-0.3650535746792885,-0.18811775886022586,nan
1740794606.7003176,-0.17490257539482815,-0.24624464446412397,0.24738398362283529,0.1433155429600728,nan
1740794606.7042232,0.04106471330921575,-0.38289354088799943,0.5458530363083808,0.47138016679556105,nan
1740794606.7081287,0.2828966043921322,-0.36585322632663425,0.4232365596980261,0.481576213394491,nan
1740794606.7120407,0.37867011064666345,-0.03654462017143055,0.1859212651618533,0.1637580679877432,nan
1740794606.7159464,0.24859388760896892,0.4023769804381337,0.12019329743464355,-0.1607898965310327,nan
1740794606.719852,-0.016126706179273455,0.6128092829013806,0.14170861200861665,-0.21422026318910858,nan
1740794606.7237577,-0.23923671812413702,0.49844428371314753,-0.038983725423837726,-0.0811764899247271,nan
1740794606.7276633,-0.3090795757269528,0.24299273822647408,-0.45444917661705975,-0.06881903494408982,nan
1740794606.731569,-0.23181254323953981,0.014510754322700109,-0.7245301229387718,-0.2783898468096918,nan
1740794606.7354746,-0.06590063751787234,-0.2158755923143274,-0.44762152884423073,-0.4357917181240809,nan
1740794606.7393801,0.13957250682685587,-0.5003246772843218,0.2917139974754704,-0.21911064697584964,nan
1740794606.743286,0.3203986133276016,-0.6838345147171808,0.9023078202464767,0.30546448187864317,nan
1740794606.7471914,0.36209160708184396,-0.5140524299370086,0.8231619260767402,0.6879664249407587,nan
1740794606.7510972,0.169575252799556,0.00257184226275808,0.0701817500240204,0.5659146155498147,nan
1740794606.7550027,-0.19625079101770238,0.4919515554229426,-0.7619579249342727,0.059699199178491744,nan
1740794606.7589142,-0.49442458290554353,0.5710001129907964,-1.0238726895024461,-0.36665108106207184,nan
1740794606.76282,-0.48231400450850986,0.2742879239904934,-0.5415351171217124,-0.40434751963513815,nan
1740794606.7667255,-0.14406814630889556,0.00898441588083731,0.3017897388596547,-0.17598915796875658,nan
1740794606.7706313,0.2771547962759209,0.06293322258978908,0.9186512545209272,-0.006903195949668762,nan
1740794606.7745368,0.4929326691830197,0.25909333881631125,0.9472528266010692,-0.021019811737564207,nan
1740794606.7784424,0.4103325268390482,0.18687536014432007,0.44200930180933734,-0.05745167726555076,nan
1740794606.7823482,0.1597777038578995,-0.26648735466972373,-0.23463194803565804,0.04289539396484464,nan
1740794606.7862537,-0.0805197404521794,-0.7324261081801612,-0.6858938658027067,0.19528022661234767,nan
1740794606.7901595,-0.2390300177656395,-0.7491837897383843,-0.7340066286812695,0.1904946081116738,nan
1740794606.794065,-0.3288941136367879,-0.2606956785105012,-0.49495540309335556,-0.003698254699469473,nan
1740794606.7979708,-0.33624630233963126,0.34224010191739135,-0.21942876526847327,-0.17358924377959778,nan
1740794606.8018763,-0.20438560520560875,0.641575942274116,-0.03174623496197837,-0.12022250351690604,nan
1740794606.8057868,0.058570555506954614,0.560432769686411,0.17075341883160536,0.08960447038640768,nan
1740794606.8096926,0.3111154321454017,0.3060579960996054,0.5238504745295429,0.20602400504673377,nan
1740794606.8135982,0.37577735659343803,0.060669187848182524,0.9106249495952662,0.10201069996941597,nan
1740794606.817504,0.21297068982721035,-0.15924429624170866,0.9565625413954456,-0.08786082493792943,nan
1740794606.8214095,-0.031845598326291136,-0.36208163356616074,0.40293251996840473,-0.15700404273271346,nan
1740794606.8253152,-0.17047085980980875,-0.44005108806799026,-0.5189103411744601,-0.08243964854590498,nan
1740794606.8292208,-0.14620896943868225,-0.2696156929531869,-1.185040900291666,-0.019037699441537517,nan
1740794606.8331265,-0.05359178243366335,0.07965843242071415,-1.1333846404969883,-0.0643636907651695,nan
1740794606.837032,-0.00559323602373387,0.33836283793073363,-0.506796831281809,-0.12281823487009165,nan
1740794606.8409379,-0.017507052226957382,0.2880451117886078,0.1180875191264424,-0.047522736953142054,nan
1740794606.8448434,-0.028965340413331524,-0.012175870625298565,0.34256880546472734,0.14163489593620024,nan
1740794606.8487492,-0.00573564048399938,-0.2837459498823782,0.3095451126410328,0.26345369672348623,nan
1740794606.8526592,0.018616829594892637,-0.29669517338149526,0.4146956477870416,0.19843415670553957,nan
1740794606.8565648,0.002241253945868544,-0.05511737483650542,0.7360769566136517,0.032176442981817883,nan
1740794606.8604705,-0.036083524710582675,0.2537575932716276,0.890468559993926,-0.0663939574831568,nan
1740794606.864376,-0.031489518619528895,0.4314043819298153,0.500632665147911,-0.060826085304852076,nan
1740794606.8682818,0.04820940752073431,0.3800168137704079,-0.2989040927666055,-0.06657961546972951,nan
1740794606.8721874,0.15380672321718233,0.1192850403313465,-0.9472892255057672,-0.1578289426498372,nan
1740794606.8760931,0.18932642157593463,-0.2279646670346131,-1.042068770869267,-0.237264923134654,nan
1740794606.8799987,0.09474883814292201,-0.47490718832274204,-0.7195830465366652,-0.15768372121829824,nan
1740794606.8839045,-0.0949889410781321,-0.47733308938596625,-0.38783621175463934,0.06381655667409357,nan
1740794606.88781,-0.2592527330592361,-0.2556205166694829,-0.17942689026450948,0.23470989091652666,nan
1740794606.8917155,-0.2695510667596701,0.015099878675959789,0.16266191888454887,0.2097436619321474,nan
1740794606.8956213,-0.09510130921300279,0.1811527999019732,0.8152122162523913,0.06329249917039458,nan
1740794606.899531,0.14352944361169973,0.2608145588609933,1.439974991527761,-0.013905352587943851,nan
1740794606.9034367,0.24775033588339754,0.36401151588547626,1.404760264958974,0.0407700950219702,nan
1740794606.9073422,0.11822935193226834,0.4660988606172712,0.4817617736193207,0.09472261713371709,nan
1740794606.911248,-0.12045503804971641,0.3577675446876479,-0.7841331816515096,0.012600180810284028,nan
1740794606.9151535,-0.2082552229154271,-0.08951957727533275,-1.5148855952011615,-0.15254412453995378,nan
1740794606.9190593,-0.012520997958052508,-0.6398506572865285,-1.3066617852670899,-0.224263371980257,nan
1740794606.9229648,0.2955691302870689,-0.8087000264961866,-0.542338267774028,-0.13382654767286503,nan
1740794606.9268706,0.37648245604357644,-0.3577302167779251,0.0895320098987681,-0.0055037599896239145,nan
1740794606.9307761,0.07469038202457091,0.36618895532150286,0.29194954928271827,0.017868162594088514,nan
1740794606.934682,-0.37918835065601286,0.7018376198905032,0.31748455578429874,-0.02925468555658958,nan
1740794606.9385874,-0.5647380753070083,0.33947319456663083,0.5043396110531413,0.011534423536201932,nan
1740794606.9424932,-0.2895505221853211,-0.3304461744786111,0.8025423641609525,0.18484652173616972,nan
1740794606.9464025,0.21048071885913783,-0.5988242008922293,0.8363940133998249,0.3212360887827633,nan
1740794606.950308,0.5057966441423069,-0.1668011132955445,0.37802812409374775,0.226871106921448,nan
1740794606.9542139,0.388557084792897,0.5494449225662295,-0.3468322183403029,-0.06509645062978339,nan
1740794606.9581194,0.030181634433151475,0.8459298292469946,-0.8549198558170754,-0.303019043573025,nan
1740794606.962025,-0.24863889796386793,0.41958505391978984,-0.855444794736263,-0.28642597453200114,nan
1740794606.9659307,-0.2970504188724135,-0.3794715537947099,-0.47085529342131366,-0.07514920115173253,nan
1740794606.9698362,-0.19553076482480716,-0.9162769013046157,-0.05252141564105341,0.10092423023352405,nan
1740794606.973742,-0.06498879753808832,-0.8243970034112569,0.1566310229940973,0.10096174931778357,nan
1740794606.9776475,0.07975693369589779,-0.233299306805347,0.17484929573750585,-0.010308612886232672,nan
1740794606.9815533,0.25384317927245786,0.42275544529200615,0.16884409434826936,-0.08748154928872967,nan
1740794606.9854589,0.361890122980605,0.74302329359381,0.2504837330889513,-0.07135040213414494,nan
1740794606.9893646,0.24479796018456712,0.5854609756102707,0.37842607734631467,0.001696147406723749,nan
1740794606.993273,-0.10595523138473335,0.11311676802359201,0.41608955648338547,0.09626642247791907,nan
1740794606.9971788,-0.4508867986536476,-0.31626061954165097,0.26849168772498766,0.2016894624582607,nan
1740794607.0010843,-0.4958374541472499,-0.39241920118912416,-0.01947670046890664,0.262425855607852,nan
1740794607.00499,-0.1891483002187824,-0.10781734303820369,-0.2883040545234596,0.17424139513731243,nan
1740794607.0088956,0.21473145626268259,0.20959177007682453,-0.4033604994289585,-0.08435460748616484,nan
1740794607.0128014,0.4029999411790647,0.19724938302318792,-0.3805376323603971,-0.3535805325106681,nan
1740794607.016707,0.28941665235750946,-0.15663130525086888,-0.3485211176202813,-0.41051115060431487,nan
1740794607.0206127,0.04298581896708032,-0.4698443681697278,-0.36025325127010766,-0.20827596123402145,nan
1740794607.0245183,-0.12123740758072434,-0.3671002461520477,-0.2744001276154151,0.06094183189176489,nan
1740794607.028424,-0.12778217525042068,0.0969272957744893,0.09597844640205752,0.18444104628543523,nan
1740794607.0323296,-0.0365761222872198,0.48804090529465677,0.681471209500571,0.1652249165010191,nan
1740794607.0362353,0.06343094483083442,0.4739876057983748,1.0728130054324119,0.16748667195406997,nan
1740794607.0401475,0.10566010623749107,0.1694945641701886,0.8547984509470818,0.2428488967292728,nan
1740794607.044053,0.03900455921189307,-0.06178600049622543,0.06566356962966927,0.2228565241330189,nan
1740794607.0479589,-0.13831170966356404,-0.07712558801730389,-0.743861973912792,-0.03945494894122184,nan
1740794607.0518644,-0.3142284917723577,-0.0850040822127649,-0.9938188913630828,-0.38625177515096304,nan
1740794607.0557702,-0.30527896355823303,-0.27775706886952306,-0.619892249841707,-0.4536927769480298,nan
1740794607.0596757,-0.041428102184391837,-0.4818923921744137,-0.08324551335323184,-0.10428727265123433,nan
1740794607.0635812,0.30265183319334316,-0.3397121532832242,0.16233319860294373,0.33669082589738014,nan
1740794607.067487,0.43778892824248794,0.17563014100520455,0.12707944129115384,0.3965387232237679,nan
1740794607.0713925,0.259487949016643,0.6065724997824259,0.14821027840906273,0.000824406043979067,nan
1740794607.0752983,-0.027728568744869005,0.4988696418663861,0.3712374246901312,-0.4085821376148452,nan
1740794607.0792038,-0.1382937967050169,-0.03182973998625778,0.5277379778993012,-0.36327330105562716,nan
1740794607.0831096,-0.03438525972472192,-0.3883567164566599,0.29971983551872017,0.09517311820896698,nan
1740794607.087021,0.046883726831767794,-0.18523625390253526,-0.20447984188666968,0.4707306379602688,nan
1740794607.090927,-0.08813228918969165,0.282900560449596,-0.5048818552084169,0.38972384933360393,nan
1740794607.0948324,-0.32255158132572603,0.3898436763452136,-0.30907312730946757,0.0015111166393793586,nan
1740794607.0987382,-0.3611434732399298,-0.06350759721694599,0.11705113289396007,-0.2574437912383204,nan
1740794607.1026437,-0.1054277233655928,-0.6024215175280196,0.2568068138259685,-0.20137055314388,nan
1740794607.1065495,0.20674985925207506,-0.6375952936225889,-0.03027468654701224,-0.05416974412789667,nan
1740794607.110455,0.2853671102573717,-0.13668397374180843,-0.34369631697376074,-0.07382092031706951,nan
1740794607.1143608,0.13864396987256586,0.39351612846407225,-0.2559016423357872,-0.18219151842955456,nan
1740794607.1182663,0.03895035435419395,0.5314004569209757,0.13942539561763795,-0.10134073148140016,nan
1740794607.1221719,0.14864324546436727,0.35891946310271317,0.3470380873377274,0.2062383414107853,nan
1740794607.1260777,0.29707050934498774,0.2007070779092303,0.1163940833865282,0.4181308901776459,nan
1740794607.1299832,0.20648251290754624,0.1258829734614293,-0.21315280173842518,0.24918956118368193,nan
1740794607.1338947,-0.12788651382642321,-0.07846444813358687,-0.13536144567166014,-0.15022801128196497,nan
1740794607.1378002,-0.4100871464860623,-0.4614631367875521,0.3426461743322026,-0.3449603301600057,nan
1740794607.141706,-0.41201821853759324,-0.6812251198447338,0.6348506848911777,-0.15080687467038736,nan
1740794607.1456115,-0.24792422557269464,-0.39626140725753256,0.25845640313579055,0.13510300474527806,nan
1740794607.1495173,-0.17962616815029867,0.21673400383201602,-0.541500711659896,0.1237434079115249,nan
1740794607.1534228,-0.2127918403673545,0.5684135036415583,-0.9961069885190369,-0.15174721214997047,nan
1740794607.1573286,-0.056297993896981355,0.3432240836800853,-0.6356682140740557,-0.2729001150573336,nan
1740794607.1612341,0.4466158745441829,-0.094161356249663,0.20984060978410587,0.008547887071899749,nan
1740794607.16514,0.9681478287354157,-0.14457420458234588,0.7813739082252822,0.41400588334740757,nan
1740794607.1690454,0.949364077302382,0.2487617603434146,0.6694959363343759,0.4574790680117951,nan
1740794607.172951,0.23397294304088556,0.4937497619143667,0.1323333684848478,0.048194996324695476,nan
1740794607.1768568,-0.6719132841773648,0.09836108068821388,-0.29752680389239483,-0.389081811276531,nan
1740794607.1807675,-1.0719108654297536,-0.6488483642218026,-0.3587817054688648,-0.42691949459963024,nan
1740794607.184673,-0.7685584143126404,-0.9506338085123646,-0.1672830585592818,-0.12608532037996242,nan
1740794607.1885786,-0.18745649632988012,-0.42712865741750977,0.06468575541064037,0.10352180165671583,nan
1740794607.1924844,0.16449488750431673,0.4333363255671564,0.22732081675185928,0.053354501295751366,nan
1740794607.19639,0.22383203868734333,0.8394637811189988,0.24825119083435612,-0.05558427257014242,nan
1740794607.2002957,0.27698421107071475,0.5608851296720911,0.039242261194572796,0.06065997168226665,nan
1740794607.2042012,0.45786229000363643,0.0517169082356323,-0.3416047854268972,0.31842152691691095,nan
1740794607.208107,0.5363163998108672,-0.21294328860380948,-0.568249433824231,0.369657213574112,nan
1740794607.2120125,0.2625003153189978,-0.25545229425849214,-0.30661546871623174,0.09020565002779034,nan
1740794607.2159183,-0.22483573623060418,-0.3384891401883106,0.3323020949853447,-0.23137788803659853,nan
1740794607.2198238,-0.498313245948251,-0.4179978504303994,0.7572387824139077,-0.276136762366584,nan
1740794607.2237296,-0.33895260135824085,-0.17223014924103217,0.49238582154250893,-0.12021197854767336,nan
1740794607.2276397,0.010254570915680527,0.4047450856978692,-0.22167662861832507,-0.09885476983089825,nan
1740794607.2315452,0.15434498372814,0.7554257196366221,-0.6117205631242066,-0.28465680775701363,nan
1740794607.235451,0.008843649268716546,0.3707260705921724,-0.24628479116911312,-0.3279145193101803,nan
1740794607.2393565,-0.16752506679226045,-0.45747913176216265,0.409063950663791,0.058420062288372196,nan
1740794607.2432623,-0.15847843369114661,-0.823652590643607,0.4956174873308123,0.6046674826666235,nan
1740794607.2471678,-0.04234412264522089,-0.26876483463544965,-0.19525148119677463,0.7151449106364904,nan
1740794607.2510736,0.006848937453654222,0.5820060906064982,-0.8927510898101486,0.2141821227576645,nan
1740794607.2549791,0.028913619288329365,0.7072194244328917,-0.7021864235007442,-0.3623653900632789,nan
1740794607.258885,0.2066272792731593,-0.055421416843528595,0.3172823882195208,-0.390823187571714,nan
1740794607.2627904,0.4988564903679606,-0.7616326343953406,1.147594555423279,0.04486337588915081,nan
1740794607.2666962,0.548275894415642,-0.5052857685509329,0.9321470472238738,0.23995742105662576,nan
1740794607.2706017,0.10188359036606101,0.43732191169269546,-0.07496119620480822,-0.20151198395497638,nan
1740794607.2745116,-0.5634853712790618,0.9230724391766358,-0.8342311433766895,-0.7745323460110245,nan
1740794607.2784173,-0.8350934169593401,0.35508468680861194,-0.7054027798360432,-0.649618892555431,nan
1740794607.282323,-0.4396114877070273,-0.5865839035768763,-0.0782591400376136,0.24320619548277053,nan
1740794607.2862287,0.2139939124258879,-0.8258986324005345,0.23758806635017934,1.0158076643642402,nan
1740794607.2901342,0.4870550329880605,-0.23720859834698282,0.027964736736394283,0.843718105732094,nan
1740794607.29404,0.23012198528168,0.2963030238158966,-0.17200950667091203,-0.026962006751218612,nan
1740794607.2979455,-0.11467202838360399,0.16080554479949588,0.10081070676182395,-0.5723944057403381,nan
1740794607.3018513,-0.12861633345537532,-0.13350643617518024,0.566729485345204,-0.25124400847953565,nan
1740794607.3057568,0.07137218776802501,0.24943712061266243,0.5666525452822562,0.35076018451586854,nan
1740794607.3096626,0.0859405495263484,1.0646351755549062,-0.032989553071244695,0.3162355878567155,nan
1740794607.313568,-0.12920615328884788,1.013010463828966,-0.6048800227524689,-0.3902863825058641,nan
1740794607.3174736,-0.15711107602795138,-0.5422056377073847,-0.5340779532433287,-0.8675293879098439,nan
1740794607.3213832,0.2635552411550988,-2.3139088055109185,-0.0062036107666944024,-0.46151769206950194,nan
1740794607.3252888,0.7404064816843431,-2.1987027551971297,0.23624264545907678,0.36333228136105616,nan
1740794607.3291945,0.606864381711299,0.22619707238747605,-0.1122143072710948,0.6300881139385199,nan
1740794607.3331,-0.22580489588684777,2.8163202434443186,-0.4686584944211945,0.14513447189754602,nan
1740794607.3370059,-1.0550705915041965,2.95688125890213,-0.10111107261562559,-0.2568765792589452,nan
1740794607.3409114,-1.1564990866727067,0.44456950541907175,0.8284148846755505,0.11020744557319066,nan
1740794607.3448172,-0.5859778317145182,-2.2062334447656937,1.2801638557388109,0.7594245190504227,nan
1740794607.3487227,0.016741650257633106,-2.505445492259024,0.5192558674985368,0.62449582983446,nan
1740794607.3526285,0.33400481781712316,-0.6452653498564791,-0.9101658508849569,-0.4167821709681787,nan
1740794607.356534,0.7098977096633973,0.9917395930154721,-1.6466738036252953,-1.1690496732534206,nan
1740794607.3604398,1.4010223933783266,0.7860706804312719,-0.9667268436636622,-0.6006059960818432,nan
1740794607.3643453,1.7985288902054233,-0.3152817658360146,0.4163213287152665,0.6442522428094022,nan
1740794607.368254,0.917115423277845,-0.2776126643059417,1.1376890253292138,0.8429473954116943,nan
1740794607.3721595,-1.1961538805872434,1.2036017197198439,0.6618187254438463,-0.5644192843214414,nan
1740794607.3760653,-2.9512931440264234,2.143375959758201,-0.2141582227729816,-1.9066272628541483,nan
1740794607.3799708,-2.612522451688981,0.7466945827543006,-0.36225772883512125,-1.0708114758285903,nan
1740794607.3838766,-0.25179306134284796,-2.113775845858415,0.3523805387852029,1.7273718836403655,nan
1740794607.387782,2.071468986221229,-3.5615037924840687,0.9264305626833612,3.666572712821873,nan
1740794607.3916879,2.3542797289892685,-1.8851776501776296,0.3861410628869063,2.3033825043250915,nan
1740794607.3955934,0.7133992039674099,1.472215990036439,-1.0459713078468211,-1.4472745050151703,nan
1740794607.3994992,-0.8898721162896109,3.418270881875424,-2.05220853899576,-3.977860592103158,nan
1740794607.4034047,-0.9227277650929607,2.4382607211245255,-1.4820301338372868,-2.84313290209795,nan
1740794607.4073105,0.13364407658249713,-0.1017555312978733,0.4919884843718341,0.5258049027345206,nan
1740794607.411216,0.6761388604314795,-1.783210357351876,2.4169107381512003,2.4634552803181378,nan
1740794607.4151285,0.08689146947553593,-1.6841434872509162,2.7320455584482,1.252051231903131,nan
1740794607.419034,-0.6264024220418604,-0.7718278298458751,1.0484314224255928,-1.020755033048011,nan
1740794607.4229398,-0.3663581215747753,-0.1827821006461056,-1.488541931433429,-1.123074115866721,nan
1740794607.4268453,0.46341154625938485,0.11131555153189182,-3.0183169427707064,1.293274985556633,nan
1740794607.430751,0.4803038834840101,0.6918430657775845,-2.367390733482988,3.1318842981843726,nan
1740794607.4346566,-0.692616043080653,1.3567823989957306,-0.001560578351103478,1.5297251560710659,nan
1740794607.4385624,-1.6564845642428985,1.1514645167151998,2.2546287472859756,-2.5103804912729593,nan
1740794607.442468,-0.8799421115204655,-0.202140763281056,2.6363646742000433,-4.8803238179459045,nan
1740794607.4463737,1.2220238670667092,-1.534868368423276,0.9177853069338411,-2.8166160877836903,nan
1740794607.4502792,2.5042513945661202,-1.412361987451874,-1.3531336684640902,1.9460247612488681,nan
1740794607.454185,1.535728846069965,0.08050280284320993,-2.1983437094578417,4.870196302831836,nan
1740794607.4580905,-0.6728633241172172,1.2876876988622792,-0.9921400200260181,3.2897819322121236,nan
1740794607.4620025,-1.8329059897277613,0.8975078260455679,0.9947551431974461,-0.9991941567375007,nan
1740794607.465908,-1.038498938381914,-0.4888410490065232,1.8500651297407624,-3.8102914986202214,nan
1740794607.4698138,0.3464041961500565,-1.1174934008722668,0.8572002852404755,-2.8060438749234993,nan
1740794607.4737194,0.5932367826473083,-0.2574623624292313,-0.9013697177048289,0.5594340000938471,nan
1740794607.4776251,-0.220497781887876,0.9267643206593104,-1.7193145249611697,2.962103536892946,nan
1740794607.4815307,-0.5765136112518692,0.8998788676495509,-0.9447221343462563,2.493356538165152,nan
1740794607.4854364,0.17367706249156878,-0.26599044481177414,0.5395316446419931,-0.015464225990252673,nan
1740794607.489342,0.7849753762471324,-0.9943064034055186,1.366191796235878,-2.3162481645783046,nan
1740794607.4932475,-0.06737543600299611,-0.2762878986410764,1.0099391270103326,-2.7872395976057933,nan
1740794607.4971533,-1.5287535498353593,0.9471661944355854,0.04506005848575292,-1.317262740135706,nan
1740794607.5010588,-1.2047156977489668,0.9319378644615784,-0.6759160928883093,1.0584892911512007,nan
1740794607.5049646,1.6120192380968807,-0.5725809535189544,-0.8220197451536226,2.865688827297493,nan
1740794607.5088758,4.205848071677814,-1.8118641274559666,-0.569462358478781,2.8549756865134044,nan
1740794607.5127816,3.0134415517061144,-1.0899525559118912,-0.11198029730357238,0.7795135226128708,nan
1740794607.5166872,-1.9618553518388542,1.0499823313403693,0.49733365518428707,-2.0658034636116227,nan
1740794607.520593,-6.2460294408737,2.274117584770198,1.0395586246069508,-3.455750962453959,nan
1740794607.5244985,-5.262438025869209,1.14413317880696,1.0059180004517108,-2.07217277227105,nan
1740794607.5284042,0.5376984619413837,-1.1257540997411033,0.08330181191918826,1.013457663993342,nan
1740794607.5323098,5.717925390205548,-1.997823379856618,-1.2559671992234906,3.029650493582596,nan
1740794607.5362155,5.422785655867086,-0.5354481640892713,-1.9195211933191743,2.107421505417626,nan
1740794607.540121,0.4543859491294927,1.4938744045172574,-1.1693670111872785,-0.7594839795327941,nan
1740794607.5440269,-3.789905880815414,1.6469332152956866,0.570275921504304,-2.6191289935196105,nan
1740794607.5479324,-3.284612337089333,-0.3731247012035805,1.9963769543010599,-1.5798416084589695,nan
1740794607.5518382,0.4873639673593067,-2.342084757655311,2.0733845291386452,1.2105445407124074,nan
1740794607.5557487,2.722512678306256,-1.9887638284996993,0.8846333176887199,2.7820485261774577,nan
1740794607.5596542,0.9958423578908352,0.5020151925827315,-0.6074268158199793,1.4795576979883116,nan
1740794607.56356,-2.1847180834737103,2.7089089712900662,-1.500216115928864,-1.33874633496447,nan
1740794607.5674655,-2.687286110608552,2.549430530472377,-1.567756902339423,-2.809171898816274,nan
1740794607.5713713,0.23492166988888183,0.33065095835719954,-1.0881073995598993,-1.573648156258604,nan
1740794607.5752769,3.146860660032196,-1.801244480847081,-0.35270770854999384,0.9293290635312654,nan
1740794607.5791826,2.584375617992372,-2.1471275100427385,0.4839966972209032,2.1329182849145853,nan
1740794607.5830882,-0.882524824048566,-0.9308192271779316,1.1969626511686506,1.036921929745816,nan
1740794607.586994,-3.376318049116422,0.36361295398386795,1.4267165280955423,-0.921918799882205,nan
1740794607.5908995,-2.1892450662262366,0.7097268049225706,0.9870781214102615,-1.5587875846424541,nan
1740794607.5948052,1.2573119208274732,0.362792492562545,0.15115872652058468,-0.24234256321866626,nan
1740794607.5987108,3.205096445214249,0.16922941622043663,-0.54323421442875,1.5720982865001076,nan
1740794607.602621,1.7806425078274017,0.4487638300775922,-0.8115736950232039,1.947838901487384,nan
1740794607.6065266,-1.1934144600463248,0.7376375670286417,-0.8334781654266517,0.4219314535297578,nan
1740794607.6104324,-2.535331069802808,0.4735151745690707,-0.8732839898818137,-1.631505559664474,nan
1740794607.614338,-1.202958139163894,-0.3192832547510128,-0.8005393195266464,-2.421256529312406,nan
1740794607.6182435,0.9504461449044586,-1.0709549528966853,-0.1965102097232166,-1.4083819699997262,nan
1740794607.6221492,1.5922668974230325,-1.2326687004485637,0.977476018557884,0.3709025021856416,nan
1740794607.6260548,0.4364418713718235,-0.6970870756242958,1.9659445461914498,1.468707336595276,nan
1740794607.6299605,-0.8457310176283924,0.2370389812476661,1.7339268805249508,1.3847492270960886,nan
1740794607.633866,-0.8018206205491517,1.1187975577482172,0.05670764302321754,0.7802159351946497,nan
1740794607.6377718,0.24042432363842706,1.5168332963951554,-1.952633291322329,0.4772980983469793,nan
1740794607.6416774,0.8241169878522504,1.1277717520637809,-2.6045550255861025,0.44612490704138824,nan
1740794607.6455832,0.17647384602486219,-0.025313292561095813,-1.1348437639783144,-0.05136840462480611,nan
1740794607.6494927,-0.9472389201027912,-1.4045582238611518,1.443723490995713,-1.3157488657452767,nan
1740794607.6533985,-1.1684312866440296,-2.1116566843377336,3.0370095505035035,-2.441778385284384,nan
1740794607.657304,0.0034295458751174937,-1.492059923426338,2.2069652617692883,-2.021535079613612,nan
1740794607.6612098,1.6291662355598449,0.23419524377363435,-0.5455492804869896,0.2326686204576085,nan
1740794607.6651154,2.192358959073065,1.9555774301503284,-3.1004381414781728,2.7447210943688245,nan
1740794607.6690211,0.964789969281406,2.4461811413967305,-3.4125719794863043,3.3062384963190525,nan
1740794607.6729267,-1.3052458702422773,1.348234810670816,-1.1701710552200222,1.253934628116322,nan
1740794607.6768322,-2.914915768801037,-0.5215493028056966,1.9604821483635666,-1.6841250746491525,nan
1740794607.680738,-2.5355249759243415,-1.8590432070189233,3.681654196648569,-2.9425744944483734,nan
1740794607.6846435,-0.3321970035812327,-1.9368618418048538,2.8545852745947293,-1.5952097659965832,nan
1740794607.6885493,2.0677721502119653,-1.060605021122739,0.26717052670936886,0.8146443725920368,nan
1740794607.6924548,2.8596417530399663,-0.05068683477106008,-2.155529592113243,1.9533649681865684,nan
1740794607.6963644,1.585627023551427,0.6166792347455224,-2.9034453142826484,1.0518483731431754,nan
1740794607.70027,-0.4909120934935049,1.0647955573821002,-1.861800494507979,-0.5685073759006576,nan
1740794607.7041757,-1.588147220690186,1.4742175521110956,-0.056045383601785716,-1.1887332208806916,nan
1740794607.7080812,-1.06201935749767,1.5314287555383936,1.3476198952302698,-0.5390698680735772,nan
1740794607.711987,0.12825845582584264,0.693922807233432,1.7880287023571624,0.24863859728127766,nan
1740794607.7158926,0.5792849954967898,-0.9434167242650507,1.3242281551674862,0.2709995289410451,nan
1740794607.7197983,-0.05911123615452155,-2.3025371455462973,0.2809868071273857,-0.06953450579892188,nan
1740794607.7237039,-0.8522276625448857,-2.1806531312907103,-0.9119684374788284,0.18028180980300543,nan
1740794607.7276094,-0.7598725812653144,-0.5513961654920408,-1.659538622430455,1.031362520217421,nan
1740794607.7315152,0.18588980735056543,1.2051433773771305,-1.3590802864946128,1.3330792121055723,nan
1740794607.7354207,1.0003933130875564,1.6213733337482101,0.062444150910382974,0.19419727923439328,nan
1740794607.7393265,0.8973876288004439,0.6750050021526398,1.757675600861931,-1.707338722256488,nan
1740794607.743235,0.09348878417819839,-0.2338294402464856,2.375376022475567,-2.615735424423303,nan
1740794607.7471406,-0.5495231348825554,0.04825466043339961,1.1730286524183757,-1.519302110936914,nan
1740794607.7510464,-0.47056132377513643,1.002831674943797,-1.1667822272494324,0.7634478289770504,nan
1740794607.754952,0.14080737356692044,1.019294504743744,-2.920173842528186,2.418329334921362,nan
1740794607.7588577,0.6871476590352118,-0.568776013847773,-2.699134427727805,2.367226293310447,nan
1740794607.7627633,0.7052577330675859,-2.397648720429077,-0.609433096543924,1.014959207480446,nan
1740794607.7666688,0.08542770865604435,-2.4127342820728805,1.8499427849846566,-0.5157697767542827,nan
1740794607.7705746,-0.9266629489547685,-0.26305600323944245,3.008896091295478,-1.4772491044203877,nan
1740794607.77448,-1.7184108270480565,2.057140660945975,2.2608197210924468,-1.7273649627375995,nan
1740794607.7783859,-1.5102442259490978,2.2710124247860506,0.3335296368858404,-1.2992742367329555,nan
1740794607.7822914,-0.02386127585104234,0.36787847375201155,-1.4328101993613933,-0.27106128555054987,nan
1740794607.7861972,1.8843814700136352,-1.3296400169879945,-2.0687451439721074,0.8960942863130519,nan
1740794607.7901094,2.609440170314088,-0.8049824510136955,-1.4953326719478242,1.3769785784178081,nan
1740794607.7940152,1.2892727545510902,1.2609160755125803,-0.3696534088131369,0.7734995679816983,nan
1740794607.7979207,-1.0427490057648916,2.1651962864229124,0.4966813959474805,-0.2228186970806824,nan
1740794607.8018265,-2.201013065688562,0.2930716047460072,0.7217873971612987,-0.418902666328373,nan
1740794607.805732,-1.0756935482372758,-2.830374462041425,0.5480421091683103,0.43786277547455166,nan
1740794607.8096378,1.025512886071059,-3.962594075484817,0.4843798267134295,1.1360312076866472,nan
1740794607.8135433,1.6599953192887502,-1.5868863747130242,0.6797090127995863,0.33987134062756613,nan
1740794607.817449,-0.02274516003475499,2.36662408057469,0.6712604766449508,-1.5976435113837948,nan
1740794607.8213546,-2.1777401399276126,4.394192589557115,-0.08752253900736226,-2.655854513028608,nan
1740794607.8252604,-2.226491607081473,2.863310633726481,-1.3640289370578544,-1.3267999535809594,nan
1740794607.829166,0.19762533672786894,-0.5713166513682008,-1.9947442864049112,1.4401290689278718,nan
1740794607.8330715,2.7000475221325546,-2.845060130013339,-0.9386185785819223,2.9706777100203707,nan
1740794607.8369832,2.7050809542708127,-2.446217248998008,1.367208560497432,1.7132113031837424,nan
1740794607.840889,0.2791445555049445,-0.43849882754781694,2.9483408499237798,-0.9723136095561914,nan
1740794607.8447945,-2.006479997773377,1.0891130104045141,2.0200774926300036,-2.2339679961128045,nan
1740794607.8487003,-1.9597472960652766,1.121451661163171,-1.0264502947004301,-0.8549600514594365,nan
1740794607.8526058,-0.05503910200903049,0.24068152006756188,-3.575995186892989,1.4394752974957465,nan
1740794607.8565116,1.389980340326432,-0.46519841202110773,-3.1122730737039213,1.9734448907425313,nan
1740794607.8604171,0.9606817720852071,-0.5322365869274963,0.22390112836528084,0.11676545245909854,nan
1740794607.8643227,-0.4722690195563359,-0.18261382360618356,3.5230853624400043,-2.0975000989680157,nan
1740794607.8682284,-1.1353595289456235,0.2689178693691688,3.7812260833269042,-2.3132477700988185,nan
1740794607.872134,-0.5295451035223173,0.6827572362270717,0.7894405677830866,-0.3874192488873779,nan
1740794607.8760397,0.27520141936693887,0.8640302222901238,-2.6694122179292763,1.6634937360167268,nan
1740794607.8799453,0.3029083263915627,0.4859705778622844,-3.521622510974909,1.9853533707073392,nan
1740794607.8838565,-0.07652830123691408,-0.48622481397504297,-1.2759214472228189,0.7030720174894568,nan
1740794607.8877623,0.09657431882091891,-1.4245528038103548,1.7333113888721672,-0.620129701144022,nan
1740794607.8916678,0.8062725423620145,-1.4211673124339212,2.769405170564297,-0.8704985666329385,nan
1740794607.8955736,0.9544251780681648,-0.22186249853407916,1.2119531747531667,-0.3212189726376699,nan
1740794607.8994792,-0.05919330220130996,1.3076954301140356,-1.2053262087199783,0.14556519897706566,nan
1740794607.903385,-1.240050188428212,1.8365643167524228,-2.305465592290286,0.18700541221541056,nan
1740794607.9072905,-1.0567555857488309,0.803293126550697,-1.3943999355286076,0.08704384167481818,nan
1740794607.9111962,0.523021166063839,-0.9822098621643559,0.5112454255580322,0.031207580769600785,nan
1740794607.9151018,1.6805725117941446,-1.9892986372820751,1.9026453866161124,-0.1732291078258422,nan
1740794607.9190075,0.7842643075325112,-1.2871491761843719,1.973084475911598,-0.5681948681678435,nan
1740794607.922913,-1.5282916738063999,0.6376179227994221,0.8631677858577932,-0.675529251008426,nan
1740794607.9268186,-2.832030718175804,2.243998846942125,-0.7468665910033524,-0.05305681788735552,nan
1740794607.9307294,-1.5603539727015099,2.156586269189766,-2.0197693308811444,0.9072838689167267,nan
1740794607.9346352,1.2239847248201128,0.2788557245640012,-2.2016162631772866,1.192114340986578,nan
1740794607.9385407,2.9824085822064337,-2.0512588469150277,-1.0027720664025122,0.36803709905208276,nan
1740794607.9424465,2.3951784121321245,-3.0226879067521617,0.9837568690969496,-0.724182927711236,nan
1740794607.946352,0.5006441798442679,-1.765712423301484,2.422400874425894,-0.8436870819026765,nan
1740794607.9502578,-0.8208261344874657,0.8718846161624605,2.1850503260153666,0.13187624702801712,nan
1740794607.9541633,-0.9717104770698926,2.9033051512425843,0.39232857968245893,0.9535793861917177,nan
1740794607.9580688,-0.8554311877861149,2.781318367806037,-1.5494372162431502,0.47167250349269796,nan
1740794607.9619746,-1.2471013769133323,0.6789421872219663,-2.1295789917353596,-0.9049872455344465,nan
1740794607.9658802,-1.6282164064800242,-1.682358554117172,-1.061652042552909,-1.6109868700246899,nan
1740794607.969786,-0.9751464781335987,-2.532788994271538,0.5434127379095542,-0.7846374678713521,nan
1740794607.9736915,0.6602664362511551,-1.5073634437429393,1.3058014037958303,0.6789319990584308,nan
1740794607.9776018,1.9511189635338497,0.2580889702980241,0.8389156148709075,1.2164774294099068,nan
1740794607.9815075,1.8000677113657972,1.3382155225796555,-0.085344644586387,0.5058058792512324,nan
1740794607.985413,0.6343860187151316,1.245489265099067,-0.4953787292329773,-0.19507419476834786,nan
1740794607.9893188,-0.16102066271110424,0.5405769716809289,-0.20256066999631717,0.26001723441869606,nan
1740794607.9932244,0.04886312672905141,-0.02592049783218249,0.18046047866023693,1.300447605431295,nan
1740794607.9971302,0.44665712102519517,-0.25888097925735737,0.06362960447693293,1.2203123028236675,nan
1740794608.0010357,-0.09117302443039012,-0.4303210441317884,-0.4300912390993421,-0.6411614801526812,nan
1740794608.0049415,-1.4735459539889522,-0.6946099592536046,-0.6325010397732265,-2.780354149935064,nan
1740794608.008847,-2.387647109732917,-0.8128178506062091,-0.11261912467269672,-2.9769094893588224,nan
1740794608.0127528,-1.7757168167187227,-0.4586860721696493,0.7898215349406393,-0.7538024744371871,nan
1740794608.0166583,0.0075562352479713255,0.3466714607097175,1.2349180495256442,1.984156030290023,nan
1740794608.0205638,1.644464476459545,1.1718097624694592,0.6811916211461959,2.9005713739654038,nan
1740794608.0244737,2.2090652252483105,1.4742357740114038,-0.5637496730175876,1.5739976022172086,nan
1740794608.0283794,1.807272237386818,0.9361149885494169,-1.553704521624734,-0.3219414934835731,nan
1740794608.032285,1.0083110681530028,-0.3325170669463918,-1.4802232679534586,-1.0104093369492149,nan
1740794608.0361907,0.08785302153211472,-1.713727829081056,-0.3350406607188901,-0.3934747412392315,nan
1740794608.0400963,-0.9327645722862007,-2.24922341316193,1.0863103726360903,0.254812505226008,nan
1740794608.044002,-1.7723072949335226,-1.246962903322113,1.8044121474414203,0.002468198661251507,nan
1740794608.0479076,-1.8819227798194704,0.9365225335753904,1.3674052969311967,-0.7693706820350775,nan
1740794608.0518134,-1.0810824287008982,2.7683891895109447,0.11184953521817001,-1.0926012888757184,nan
1740794608.055719,0.0798033784939173,2.611073658829455,-1.146483143069519,-0.6592307437689899,nan
1740794608.0596247,0.8515351589253672,0.2925141990047272,-1.673912219579659,-0.0002810739097889899,nan
1740794608.0635302,1.0722065170725668,-2.4156745715486663,-1.2234883616832464,0.4055944587746018,nan
1740794608.067436,1.1407302635773162,-3.2101011434904336,-0.10503746619815713,0.7208892408374298,nan
1740794608.0713491,1.212018788617461,-1.394621621880182,1.0150319142650774,1.2373793031981322,nan
1740794608.075255,0.8019782047724078,1.407109861985633,1.463454349836784,1.5908582798272464,nan
1740794608.0791605,-0.4823725697848583,2.7978896677029765,0.9547792043961495,0.9731238349115784,nan
1740794608.0830662,-1.9826948804228899,1.8726693390453084,-0.15750688104142355,-0.7416272551625168,nan
1740794608.0869718,-2.268823658419602,-0.12175760033526214,-1.0377145715882752,-2.406434575160944,nan
1740794608.0908775,-0.6813450993148459,-1.3025245734695603,-0.9820238675288939,-2.5231918447305475,nan
1740794608.094783,1.6108556970492829,-1.0689151909971273,-0.06350274424432437,-0.818080947387482,nan
1740794608.0986888,2.52176227324498,-0.36880603339993556,0.8420591952543389,1.3222748167741192,nan
1740794608.1025944,1.1729100636379715,-0.2716429193790321,0.8288671828491629,2.1569909492542125,nan
1740794608.1065,-1.1034702789954756,-0.6885507640152273,-0.13175037695149824,1.2751486883394558,nan
1740794608.1104057,-2.1063709784720253,-0.6827322990575896,-1.0998500696109408,-0.14462287560404563,nan
1740794608.1143112,-1.0422197168586502,0.21059576902775456,-1.0834894717369237,-0.705283064598124,nan
1740794608.1182199,0.7564278345865949,1.359721006308918,-0.057109596199483324,-0.22531051352520948,nan
1740794608.1221256,1.3963133682168225,1.7848736924692123,1.0146301458790143,0.2894760318360071,nan
1740794608.1260312,0.4489067411114394,1.2276969776265516,1.1937195904889464,-0.04423893432223093,nan
1740794608.129937,-0.7832641767900921,0.24014818718797842,0.5082981682946417,-0.9462955188163372,nan
1740794608.1338425,-0.8753917904250029,-0.6221171957042497,-0.21643399079911227,-1.3176973750399381,nan
1740794608.1377482,0.17860515781202996,-1.3108976028032402,-0.3774792617502634,-0.49128320276468307,nan
1740794608.1416538,1.142350782655929,-1.8887758095308143,-0.22015797962544206,1.0131117626643327,nan
1740794608.1455593,1.0038088100834541,-1.9750240770280543,-0.34557992772702983,1.9763777573299488,nan
1740794608.149465,-0.025129384541410053,-1.020712995104657,-0.7821475364362208,1.613519339970074,nan
1740794608.1533706,-0.9414662768565477,0.8196685191132629,-0.8603260556476242,0.20229635832419665,nan
1740794608.1572764,-1.0746484134092393,2.4387658739060303,-0.10560409866025366,-1.2764483996124445,nan
1740794608.161182,-0.590838214202244,2.6985394101841105,0.9855954050908329,-1.9715333591577855,nan
1740794608.1650903,-0.045621031797952696,1.5491986789174415,1.3644109806981997,-1.664019792697381,nan
1740794608.1689959,0.2530052146078694,0.008410208835040976,0.6409540073155823,-0.6640048779301113,nan
1740794608.1729016,0.35976653998482977,-0.9759071069704781,-0.3894417955747145,0.5576431683436338,nan
1740794608.1768072,0.4042756829837893,-1.3830610098637937,-0.6353178924914217,1.5811772445455827,nan
1740794608.1807127,0.4219087028004972,-1.7014820795596075,-0.0033174982821006704,2.0417531297010303,nan
1740794608.1846185,0.4305177273164822,-1.917777914975747,0.48931293713265167,1.6638416015101407,nan
1740794608.188524,0.45545324236660867,-1.3683798589879148,-0.01963678408327212,0.4590713220371485,nan
1740794608.1924298,0.39226297326003595,0.26193344728539797,-1.1080880360823229,-1.0949874624441476,nan
1740794608.1963353,0.004873665827872467,2.1191059023093857,-1.488967825020933,-2.191478654041257,nan
1740794608.200241,-0.754340463575237,2.7710368253091553,-0.5260688297402948,-2.183847870270146,nan
1740794608.2041466,-1.4607150637104434,1.6839017050865301,0.9704317259635808,-1.0777383470832387,nan
1740794608.2080524,-1.4655949122487189,-0.1518477513158756,1.6416370915290217,0.4271662468665317,nan
1740794608.2119641,-0.5543778915139086,-1.244355128396608,1.0908160968671983,1.4465754607751147,nan
1740794608.21587,0.7249399957196565,-1.1046298053085646,0.19180326017357205,1.561338708383075,nan
1740794608.2197754,1.5227209749783928,-0.5135558386555868,-0.11756480191522521,1.0350556694690964,nan
1740794608.2236812,1.4686873252123558,-0.37137138708186107,0.008980437447943026,0.4291156321676534,nan
1740794608.2275867,0.8938128443182131,-0.6331455100678282,-0.3105431160618725,0.039057944601983,nan
1740794608.2314923,0.2947321468901551,-0.584434533664035,-1.2983917629085986,-0.2636901892807443,nan
1740794608.235398,-0.22772604355549966,0.06078263467429236,-1.9529754215278035,-0.6734442599057425,nan
1740794608.2393036,-0.8471303882804243,0.7444513979177037,-1.1586884738791834,-1.058349421370047,nan
1740794608.2432094,-1.4507536066306739,0.8290026935594397,0.8241219886942941,-1.044273535162529,nan
1740794608.247115,-1.5063738990613749,0.4438121368304276,2.376477445755831,-0.488760994196597,nan
1740794608.2510207,-0.663121720574143,0.24778928737338088,2.1650377478976104,0.25359719368969413,nan
1740794608.2549262,0.6440685071091967,0.45149626053077485,0.5417973430291823,0.6540437327267107,nan
1740794608.2588377,1.4465667385742627,0.47705058618881924,-0.9222777699080253,0.5751020273622516,nan
1740794608.2627435,1.187771640852353,-0.21527197064508305,-1.1788140885029301,0.3893673414882186,nan
1740794608.266649,0.29158659823345157,-1.2207645223642771,-0.6539350655164615,0.4741540348095278,nan
1740794608.2705548,-0.32863235419294573,-1.4934664624664507,-0.39358165320690736,0.6881943231956167,nan
1740794608.2744603,-0.256046970441531,-0.5949594803304892,-0.6185294631699672,0.5101534992682322,nan
1740794608.278366,0.08564570255165689,0.6765696308972519,-0.5474838446154873,-0.27313190836146756,nan
1740794608.2822716,0.06680517505349406,1.1407702440926148,0.35564260783972407,-1.1605397881995256,nan
1740794608.2861774,-0.3634405612960335,0.5678966966526394,1.4136030157740533,-1.3719183931538732,nan
1740794608.290083,-0.6759701022006168,-0.15129963903225782,1.4039961298495163,-0.6854319162976168,nan
1740794608.2939887,-0.46021796207818105,-0.18434978201200283,0.10397843068942947,0.290214683600321,nan
1740794608.2978942,0.08675521044684624,0.23487632146603915,-1.2499665798896726,0.7527217848116298,nan
1740794608.3018,0.4382106579913203,0.2454293368356747,-1.2767657094572498,0.5331635790023711,nan
1740794608.3057106,0.35414643333545975,-0.370626717103136,-0.02865606069634231,0.1693424942707955,nan
1740794608.309616,0.06450767972999477,-0.8014111523133001,1.0679321996746607,0.18161009084243643,nan
1740794608.3135219,-0.10505317964914501,-0.2709919878371314,0.8629019349039025,0.44917671454118363,nan
1740794608.3174274,-0.09002653341595931,0.8078063213560076,-0.2365189469306992,0.4292070061529273,nan
1740794608.3213332,-0.0015255457151653927,1.164359364582936,-0.8574301711702439,-0.0907773818923542,nan
1740794608.3252387,0.13991883260724447,0.19664907708192686,-0.3595173526077018,-0.6669497746614329,nan
1740794608.3291445,0.3752466115594605,-1.181273032650069,0.43880240218523525,-0.7143117270769909,nan
1740794608.33305,0.5403905121269551,-1.4987427299342029,0.3619737700078941,-0.22297973413453345,nan
1740794608.3369558,0.27973287388537993,-0.41126701016181233,-0.5797896779814594,0.21885020730790403,nan
1740794608.3408613,-0.49446794927966786,0.9057195237488884,-1.1242987651585934,0.1337244607069862,nan
1740794608.344767,-1.2564473111519707,1.1281522827879897,-0.28490430295922947,-0.2693859821176481,nan
1740794608.3486726,-1.2340250599541718,0.27342546903812553,1.3501134139285698,-0.3562267573853524,nan
1740794608.3525827,-0.23650345740590498,-0.4449511767417059,2.123740886474957,0.14995290476844436,nan
1740794608.3564885,1.0023337715439682,-0.14806153671939987,1.0910039822973017,0.8050187071190972,nan
1740794608.360394,1.470460225776983,0.6772799408341563,-0.9263830347741675,0.9271253220567875,nan
1740794608.3642998,0.8726635546556297,0.8417224072831061,-2.1669945895064875,0.3486980414354948,nan
1740794608.3682053,-0.1221766373186163,-0.07314790420677315,-1.688949031047553,-0.42487879757229785,nan
1740794608.372111,-0.6391741883651235,-1.2179719545432885,-0.17113163316192911,-0.7808623669122758,nan
1740794608.3760166,-0.47331588763004795,-1.468556123025462,0.9611731169167699,-0.5971351038128906,nan
1740794608.3799224,-0.1221578776742229,-0.6475980872217983,0.9867510700999315,-0.2286301875554243,nan
1740794608.383828,-0.06408762987260723,0.41823186961968123,0.37750833699229186,-0.012205371421124073,nan
1740794608.3877337,-0.22572094130759615,0.9001153269179099,0.017233748819509006,0.06360651288396717,nan
1740794608.3916392,-0.2279271158795663,0.7453855999441698,0.1936193950986488,0.18840340059315988,nan
1740794608.3955448,0.028523605524360954,0.43867914980947303,0.44145547772221533,0.3796976767814569,nan
1740794608.3994546,0.24474678796171057,0.2792793758033185,0.22673917422467998,0.4375709490745902,nan
1740794608.4033604,0.17944782800526024,0.14579212679174108,-0.40650536107376983,0.22850442683487268,nan
1740794608.407266,0.0027361526399970935,-0.11416885165895162,-0.8999782738320744,-0.10943619926003485,nan
1740794608.4111717,0.0448791388606871,-0.3687550717044783,-0.7825802408891716,-0.3100823051769428,nan
1740794608.4150772,0.294218784354123,-0.41275018326875773,-0.13500198996447557,-0.27063142692377595,nan
1740794608.4189827,0.36250592847744195,-0.313938385675587,0.5072085880546301,-0.12167419100703995,nan
1740794608.4228885,0.0075831962310655,-0.3169484943240447,0.6514721284866667,-0.0241810261235662,nan
1740794608.426794,-0.4750247601051594,-0.4261185009319659,0.26637176675979013,0.011846924137515605,nan
1740794608.4306998,-0.5515133403579492,-0.32011920928248966,-0.22424523824636922,0.06650271037049403,nan
1740794608.4346054,-0.10530656228918388,0.19320412774156795,-0.33878026672210254,0.1382173394280297,nan
1740794608.4385111,0.3803536059518888,0.7882538069353431,0.019652939470578508,0.12710694328964556,nan
1740794608.4424167,0.3716345575336766,0.9075453953958449,0.46808412200386795,-0.005902207237287859,nan
1740794608.446326,-0.09402899063589362,0.4344965333187154,0.5084088997611538,-0.1449239254459032,nan
1740794608.4502318,-0.46659298189887355,-0.1255160112308495,0.03424338066042135,-0.14190754394023308,nan
1740794608.4541373,-0.33142516571458175,-0.25233142083338594,-0.529346479610081,-0.0009262192125692019,nan
1740794608.4580429,0.14915642902119994,-0.05465443027800015,-0.6426874865772112,0.1253097028869732,nan
1740794608.4619486,0.4916069137812462,-0.09201549111394346,-0.22349416983580075,0.12489096510200873,nan
1740794608.4658542,0.45618185824521323,-0.5689735566089084,0.25289258435602785,0.050124080294714234,nan
1740794608.46976,0.21414142422508967,-0.9602473920395472,0.2759805884395902,0.01697486704090961,nan
1740794608.4736655,0.0022025060658002783,-0.6236056500706775,-0.11648458521698746,0.0306670380064995,nan
1740794608.4775712,-0.18455474205687208,0.3281769356409122,-0.37316601376685327,-0.013769398009349575,nan
1740794608.4814768,-0.44450588357085924,1.03277338810523,-0.07443295455484276,-0.1543954567971807,nan
1740794608.4853826,-0.6451958657869682,0.837075891984404,0.5475405940976816,-0.2616377907729674,nan
1740794608.489288,-0.4723691802090366,0.0628068650363218,0.8370415142599993,-0.17530228372261394,nan
1740794608.4931967,0.13457192944463348,-0.37876185208572777,0.4470976866465324,0.08195716612622565,nan
1740794608.4971025,0.7489965437436136,-0.07216294319227917,-0.2721876657574591,0.29581010929049356,nan
1740794608.501008,0.8249050079085235,0.439618372208905,-0.6768446507543906,0.2847302491733007,nan
1740794608.5049138,0.29027412221732735,0.36841700634843494,-0.5341199635458523,0.0886610712804181,nan
1740794608.5088193,-0.35314749311200894,-0.3292010437499374,-0.19875750751386825,-0.10030017982810265,nan
1740794608.5127249,-0.5680455427315196,-0.9044432680800295,-0.09549727841253358,-0.16037932124536955,nan
1740794608.5166306,-0.3229442309163856,-0.7369956896388488,-0.18728075527672491,-0.13389561097949715,nan
1740794608.5205362,-0.014219102398263034,-0.06001152301544473,-0.08991808993189279,-0.104675691174653,nan
1740794608.524442,0.07060154174622517,0.38372105272529267,0.3457442699815348,-0.061810046253661516,nan
1740794608.5283475,0.044030384026946846,0.26904005185436275,0.7569026237730425,0.05307507680734864,nan
1740794608.5322533,0.13792444406560528,0.019306029184810173,0.6731662840972005,0.19829351055309383,nan
1740794608.5361588,0.2967857164116444,0.1685664696797678,0.10337760482283619,0.22452496155629342,nan
1740794608.5400672,0.23235369239985068,0.6171349275764024,-0.43559884544726746,0.05475842011099501,nan
1740794608.5439727,-0.13188055931239942,0.7391983106964568,-0.49560718738334486,-0.18115949742731316,nan
1740794608.5478783,-0.4577614005292713,0.18850011834844255,-0.17899208377757025,-0.2617337855504711,nan
1740794608.551784,-0.3605099149914029,-0.6260811988929355,0.04293696054128955,-0.12157781780370669,nan
1740794608.5556896,0.09586927320367061,-0.9788895579763037,-0.0822131280724595,0.07535815618410206,nan
1740794608.5595953,0.42990560224668856,-0.621585705191876,-0.32317887672533874,0.13486900639018357,nan
1740794608.563501,0.2989560768081485,0.01378102659086791,-0.30616575927477585,0.05481379637800674,nan
1740794608.5674067,-0.10197643836470846,0.3652145935899637,0.015190445741163043,-0.006483369025541628,nan
1740794608.5713122,-0.29529106220127493,0.3121882661309964,0.34578815462872153,0.0405487340960332,nan
1740794608.575218,-0.10280348765971369,0.13133336333720677,0.4450072435421145,0.10238783242760031,nan
1740794608.5791235,0.17434623629217738,0.04546841621855968,0.375312814492879,0.05243231817348542,nan
1740794608.5830293,0.17694327143703759,0.017601012746300583,0.3054850541458432,-0.0705258010959816,nan
1740794608.586941,-0.05704038242399271,-0.024010152802381012,0.20672848094288976,-0.10349541469488659,nan
1740794608.5908465,-0.18407868068556404,0.01953898771385241,-0.0870158849024534,0.001861620215796562,nan
1740794608.5947523,-0.040204308468123014,0.24025227943154634,-0.529168424309689,0.07702319489114064,nan
1740794608.5986578,0.14166262718398626,0.43957184466737376,-0.7568700302589286,-0.0527733524432568,nan
1740794608.6025636,0.06698963074697015,0.2511200799719012,-0.4769575070228403,-0.2957229754094717,nan
1740794608.6064692,-0.19450208978205236,-0.3705352168273772,0.10836695050799203,-0.3382794583692577,nan
1740794608.610375,-0.2770945610038579,-0.929193318448201,0.4372671073949785,-0.009808040911568318,nan
1740794608.6142805,-0.004619591960666733,-0.8333544620015532,0.2177762491304142,0.4596504809503006,nan
1740794608.6181862,0.3490929223714126,-0.06815259210034318,-0.1903274634229792,0.6334067812391808,nan
1740794608.6220918,0.3829227549704293,0.7130931732476764,-0.16252366218887543,0.3283391927406253,nan
1740794608.6259975,0.06748205208571949,0.8441890176897731,0.43002737304452704,-0.18192451091029574,nan
1740794608.629903,-0.22474548601732378,0.32460785550244514,0.9849533591344077,-0.459743508470755,nan
1740794608.6338146,-0.19665888942969242,-0.24005684982955164,0.7882445728276851,-0.3554701587274213,nan
1740794608.63772,0.010189573668724519,-0.33005807837322587,-0.1786322743278859,-0.10814803057649734,nan
1740794608.641626,0.03586250973357626,-0.020914050578033465,-1.1540990768218298,-0.014019021471013806,nan
1740794608.6455314,-0.19129258775436506,0.22101590750941913,-1.3377015206510134,-0.08440646447288638,nan
1740794608.6494372,-0.33722016243438946,0.12034630597014155,-0.650624142678867,-0.08948496966587437,nan
1740794608.6533427,-0.10183282725402579,-0.1578835279954492,0.267209978029995,0.10692982322292922,nan
1740794608.6572485,0.3515165355413513,-0.2989342282949055,0.7355087067788425,0.3557969428385447,nan
1740794608.661154,0.5476565269878965,-0.21674851384675997,0.6194524899861892,0.3999554422124829,nan
1740794608.6650598,0.2633448987376829,-0.06518249308174628,0.2811160769660033,0.18142488998039616,nan
1740794608.6689653,-0.19842886793909154,0.025312918971003236,0.10159106901359637,-0.09891526386527923,nan
1740794608.672871,-0.3667913032505326,0.07694961531560202,0.14732455285232923,-0.2203113076853338,nan
1740794608.6767766,-0.14769501421186015,0.13306507452334346,0.23561786410304364,-0.17253272942254685,nan
1740794608.6806872,0.10961834710040466,0.14006168215997752,0.1758850515877574,-0.11427058609275292,nan
1740794608.684593,0.07625023132524893,0.05304351094523599,-0.09978276976038228,-0.14775054491292072,nan
1740794608.6884985,-0.1611591691694665,-0.019434460391999288,-0.5284061321388194,-0.20124961288201298,nan
1740794608.6924043,-0.2491026139194615,0.08042947361160391,-0.9090394629840077,-0.14160448780792034,nan
1740794608.6963098,-0.032848642420370375,0.29336048713936597,-0.9327149268888076,0.05069428551791056,nan
1740794608.7002156,0.26039960145645896,0.3131150736038949,-0.38396143447226483,0.25710598272015633,nan
1740794608.704121,0.3213382461614032,-0.0650944540836517,0.5707652197472655,0.34782146113765594,nan
1740794608.708027,0.1270003226453278,-0.6123545654548305,1.3501389684225498,0.2898203091869389,nan
1740794608.7119324,-0.07951647419012377,-0.8174920613811782,1.3671307143479818,0.13379675509618288,nan
1740794608.7158382,-0.12126519921622404,-0.42232624892788057,0.5643811896544972,-0.05401242488866087,nan
1740794608.7197437,-0.07318196317473763,0.27108038070025425,-0.4834719609597703,-0.21577208023571834,nan
1740794608.7236495,-0.08863207260767793,0.7020217640459973,-1.0613318882867833,-0.29197602809170975,nan
1740794608.7275596,-0.15127101736264792,0.6187204479765792,-0.9203687442628977,-0.24676167479899372,nan
1740794608.7314653,-0.10829664388497816,0.25783427355148913,-0.39198935597851453,-0.11774324916431414,nan
1740794608.7353709,0.07815995614934652,-0.021722091120494186,0.04637824402336442,-0.0014034690793653642,nan
1740794608.7392766,0.2354456905916706,-0.1432531790765687,0.22359289969848628,0.04444249624107112,nan
1740794608.7431822,0.19099314017122734,-0.26109028340512125,0.27754018077209214,0.06622682354547506,nan
1740794608.747088,0.0030868892220297173,-0.4033009689806237,0.3285117209422571,0.1448059327540119,nan
1740794608.7509935,-0.11233254119444983,-0.3612696256475899,0.3058975101792154,0.26197146905783925,nan
1740794608.7548993,-0.06604471572950274,-0.00803778867855589,0.1263173518469081,0.28424951420807804,nan
1740794608.7588048,-0.001418609280869408,0.405968085576059,-0.08877458904675982,0.11493174763627557,nan
1740794608.7627106,-0.071640573101902,0.4517338828654117,-0.11507645110864549,-0.15976390471326923,nan
1740794608.766616,-0.19509327417735647,0.034576061430959655,0.060773011088635066,-0.3263436184132589,nan
1740794608.7705219,-0.14175519782116558,-0.42663575242751417,0.16063377036917723,-0.26108295963747125,nan
1740794608.7744315,0.14128811061541824,-0.4345217492085541,-0.059825722922406406,-0.06034866633035908,nan
1740794608.778337,0.40029146320471587,0.023969146036484826,-0.457184087580073,0.07186311044562563,nan
1740794608.7822428,0.34307794177559153,0.46076688014272954,-0.5934224992811282,0.04664396788800926,nan
1740794608.7861483,-0.011822518757441756,0.43984105431936565,-0.22555363763416905,-0.03649159675800181,nan
1740794608.790054,-0.3426724181229092,0.043425862671849585,0.3726589070101792,-0.03450437553039276,nan
1740794608.7939596,-0.38094666931715726,-0.27598982647248793,0.6635113179366545,0.06977514445802933,nan
1740794608.7978654,-0.1757312407478382,-0.2326472356251105,0.410988526806491,0.17327517167825918,nan
1740794608.801771,0.0349231621858133,0.019189162354321273,-0.07927187062157966,0.1935228775919722,nan
1740794608.8056765,0.13212563685715062,0.14181135243601942,-0.3107477626272443,0.1444372970348929,nan
1740794608.8095822,0.1883806777727844,0.016072289534227215,-0.12626769371374696,0.06612975482603956,nan
1740794608.8134878,0.25263765899512086,-0.19133338159218657,0.17269074148961838,-0.05590444242372092,nan
1740794608.8173935,0.20949448012652538,-0.2813114646704732,0.20625657523059196,-0.2408115064391041,nan
1740794608.821303,-0.04401030388151222,-0.20925594260590982,-0.07419367336054185,-0.4016650410369466,nan
1740794608.8252084,-0.3496007441220173,-0.01964779183856836,-0.38825897081603306,-0.3672709240548179,nan
1740794608.8291142,-0.37679481246377605,0.256575164952709,-0.46276214655702796,-0.06857307498508289,nan
1740794608.8330197,-0.022628492588281698,0.5326914329998328,-0.27399521075350036,0.32463098819476044,nan
1740794608.8369253,0.3803694877872729,0.5818100990951693,0.03187480750071965,0.5187328836503027,nan
1740794608.840831,0.38532220787864924,0.2095723900683053,0.3415378865939845,0.37336419778653085,nan
1740794608.8447366,-0.04432095203631636,-0.42847080509727253,0.6059588153858643,0.036906962516095314,nan
1740794608.8486423,-0.44925134681512846,-0.821336755110685,0.7148560095029887,-0.21503199184535549,nan
1740794608.852548,-0.3798867933842485,-0.5779557274294828,0.48369035574319047,-0.2516009816903961,nan
1740794608.8564537,0.0848357128570926,0.09899629588522937,-0.13369278420467995,-0.16564729705114528,nan
1740794608.8603592,0.4307987934602288,0.5582799328444921,-0.8497802128091962,-0.10350068110639553,nan
1740794608.864265,0.30921152055039425,0.3927273153217844,-1.1722223840128363,-0.08417917126688781,nan
1740794608.8681736,-0.07755511150229466,-0.10649805505044427,-0.811303250980527,-0.02473129745372254,nan
1740794608.8720794,-0.258468455349177,-0.3051932953795933,0.03192281177650528,0.09854331151096807,nan
1740794608.875985,-0.07504974740240852,0.007672446278415595,0.8088033197362461,0.19095308570542827,nan
1740794608.8798907,0.16011706323807115,0.3763092647320225,1.0668970775412623,0.16093219000313308,nan
1740794608.8837962,0.09916000711222879,0.2694179396863873,0.7659942213177238,0.04589738162823318,nan
1740794608.887702,-0.18562553893450806,-0.22709253226425846,0.20510041018089606,-0.0360786852278816,nan
1740794608.8916075,-0.3042222940586052,-0.49848940757263355,-0.28880031803416206,-0.0410386983493211,nan
1740794608.895513,-0.06220485940244148,-0.17825337744964956,-0.5700032891161466,-0.04218785814654372,nan
1740794608.8994188,0.28034203231539406,0.36502043810851975,-0.6381320938223504,-0.09991040682860423,nan
1740794608.9033244,0.3304522492625246,0.46587499338250704,-0.5107096669294828,-0.14730902742415236,nan
1740794608.9072301,0.046274721105786565,-0.007634774392351088,-0.2045189544796633,-0.07057754769697389,nan
1740794608.9111357,-0.22852201332922192,-0.47933024647626254,0.1814781061653777,0.10857083065390426,nan
1740794608.9150438,-0.20423546349967953,-0.38000842036945387,0.4518918210246348,0.2084483893829687,nan
1740794608.9189496,0.015526672900305856,0.14212367498736475,0.45131104750126533,0.09392988087618766,nan
1740794608.9228551,0.11464218834652216,0.4157801730599822,0.21976791978902147,-0.13043342472081387,nan
1740794608.926761,0.00019389659876029275,0.10463659376593507,-0.024084844633362648,-0.20734932918207358,nan
1740794608.9306664,-0.09094910679201623,-0.35882901517339955,-0.08469355447598616,-0.02405412792401174,nan
1740794608.9345722,0.052159886941735185,-0.32177022921291937,0.023466217744430494,0.23248108184520339,nan
1740794608.9384778,0.28253798463093976,0.24482057701635895,0.10213512184749156,0.2694329778621969,nan
1740794608.9423835,0.24859490283753738,0.6760404022660009,-0.01351166406181284,0.02053437200124377,nan
1740794608.946289,-0.14154501858255192,0.41906702573205695,-0.27125954666612356,-0.2716150019005807,nan
1740794608.9501948,-0.5403443698885394,-0.28288048460088083,-0.44345401561075387,-0.3217167604863051,nan
1740794608.9541004,-0.5200841510329801,-0.6753819029236153,-0.35162121226408716,-0.10534367696566634,nan
1740794608.9580061,-0.053640617324717345,-0.38886063110965263,-0.042836491333536515,0.14344184084375022,nan
1740794608.961918,0.45318796618494983,0.15503327192794247,0.26047610760539697,0.2106123961789853,nan
1740794608.9658237,0.5995092563712932,0.2978665307076052,0.3771024136536429,0.11351247361644984,nan
1740794608.9697294,0.3685193052453054,-0.05527207321541738,0.3183549592874394,0.01847891803486876,nan
1740794608.973635,0.03927688380338073,-0.36730272141922177,0.22234216263373724,0.010982236573560155,nan
1740794608.9775407,-0.18122412992271758,-0.16817686880842408,0.16448906608267327,0.018901552690329095,nan
1740794608.9814463,-0.31799637492270105,0.37282825653853024,0.07522944384057854,-0.04280051986508378,nan
1740794608.985352,-0.4344896132718425,0.6773352499127192,-0.1357260974812231,-0.12958881258998373,nan
1740794608.9892576,-0.42950582459553843,0.446308144670411,-0.4053143218156397,-0.1250775128429284,nan
1740794608.9931633,-0.15256741013240033,-0.050894662037389043,-0.5267704706474587,-0.011085629607190582,nan
1740794608.997069,0.3108260379245267,-0.368869676267565,-0.36350011722876535,0.09154718482750777,nan
1740794609.0009747,0.6097963492509811,-0.3904758555528151,-0.023966351611315495,0.07406448416498139,nan
1740794609.0048802,0.4693565859285905,-0.3264238562721437,0.23063717725948882,-0.018225324340735743,nan
1740794609.0087805,0.015935924907927855,-0.3178482849291007,0.2653823622718746,-0.04650109670666067,nan
1740794609.012686,-0.32751049582552655,-0.2391997322821327,0.21115020752783664,0.034512108442370806,nan
1740794609.0165918,-0.2851033933929784,0.05252212479639943,0.27747572569396206,0.1112891106803686,nan
1740794609.0204973,-0.0042879575779085745,0.4220460531846507,0.4461643772941376,0.060136365163561904,nan
1740794609.024403,0.14585530834071533,0.5610446858114284,0.43313749942508795,-0.0808834922400901,nan
1740794609.0283086,0.0017202882686261057,0.36228000921724185,0.015522938992568885,-0.14542441697757658,nan
1740794609.0322144,-0.23860243559156594,0.04948266586128134,-0.6313698380204549,-0.04512627776373692,nan
1740794609.03612,-0.27750832950071413,-0.11188765457084192,-1.0096409198974308,0.11021744353066588,nan
1740794609.0400255,-0.056959031845055706,-0.12367375761025286,-0.7650546880289131,0.13624433511168926,nan
1740794609.0439312,0.2115955720783984,-0.17280208601235109,-0.05764273972557664,-0.004818404792396595,nan
1740794609.0478368,0.3090597524413649,-0.30390810262471074,0.5782298226048098,-0.15569915999714004,nan
1740794609.0517426,0.2207430788567105,-0.3335243702556967,0.74428020617967,-0.14800408967184486,nan
1740794609.0556533,0.08001314288104819,-0.1363186982683048,0.5108893037268205,0.0038868820340131863,nan
1740794609.0595589,-0.02127403325512813,0.11886945071815733,0.23674239129395086,0.12862763964088228,nan
1740794609.0634644,-0.09836394174882879,0.16146200720070794,0.125399064092719,0.1043075793143893,nan
1740794609.0673702,-0.17514456003462928,0.007736417086473258,0.042368072194155657,-0.0057050531887023045,nan
1740794609.0712757,-0.2050171780964785,-0.015418379184037195,-0.22593966113956301,-0.043735859340412415,nan
1740794609.0751815,-0.1329978909851992,0.2866323058047542,-0.6211713155885912,0.042559283166916324,nan
