timestamps,TP9,AF7,AF8,TP10,Right AUX
1740793657.393004,0.33910375801739745,-0.18731964719081368,-0.6551028366115041,0.1105900810280407,nan
1740793657.39691,0.5023762368726927,0.02073115319462402,-0.7800631791808925,-0.45937891972683276,nan
1740793657.400816,0.30573704879324526,0.3791005163589782,-0.36353500042202136,-0.6683453925263342,nan
1740793657.4047217,0.04873781074873178,0.6878308909556404,0.2447763776752971,-0.3198506967725005,nan
1740793657.4086277,-0.041728223175260676,0.6792657141052496,0.5023369065132894,0.25502212124680124,nan
1740793657.4125338,-0.011726975648366585,0.2744067518393128,0.28502515082819857,0.5718164833936943,nan
1740793657.4164398,-0.0351533961700567,-0.30234660883523473,0.0004307403476997087,0.4559945334202315,nan
1740793657.4203458,-0.17013353144523857,-0.6842661123453011,0.03799553152315314,0.10531305613736001,nan
1740793657.4242518,-0.3057419649999219,-0.6616975065469661,0.258243922692257,-0.20523166501977405,nan
1740793657.4281578,-0.30150485759532125,-0.33631443227560526,0.19590584386139065,-0.35726896459960095,nan
1740793657.4320636,-0.11983358998171208,0.011810119183992888,-0.2728092856816656,-0.3474803343101711,nan
1740793657.4359696,0.16262520670930664,0.1945365816229431,-0.6777449967482471,-0.17077167851627548,nan
1740793657.439878,0.4080382037788727,0.24142150243307225,-0.4889124699085738,0.1345977412098578,nan
1740793657.443784,0.4683070525296806,0.27394488989123755,0.20607058957280588,0.38006722543458377,nan
1740793657.44769,0.25919409654690756,0.3088255960826178,0.7403310811239404,0.3256177767400089,nan
1740793657.451596,-0.13670960646431507,0.2400830611047899,0.602517781196399,-0.035994800961745316,nan
1740793657.4555018,-0.45643134361040244,0.016541431234420922,-0.014448335293405336,-0.3742803832646949,nan
1740793657.4594078,-0.44029581572273735,-0.22524922410867496,-0.48917058552636294,-0.3231295072936735,nan
1740793657.4633138,-0.09246055795516912,-0.2725366008963412,-0.48522289834395943,0.09769844872520003,nan
1740793657.4672198,0.27425848181829215,-0.08671322052285814,-0.21891693871957082,0.4549619076817121,nan
1740793657.4711258,0.3248157803186807,0.11458136015465169,-0.03242230035631752,0.3585264066524196,nan
1740793657.4750319,0.04794806279873865,0.07928232962046787,0.0750535394285616,-0.1013778340407178,nan
1740793657.4789379,-0.23182771996011967,-0.18318802764903175,0.3164588205982715,-0.453500330534362,nan
1740793657.4828436,-0.21529561693073396,-0.3818656639892279,0.6217113863051384,-0.37393550025448935,nan
1740793657.4867527,0.04224879331466412,-0.2521581867068655,0.5566666560857328,-0.02318134410128883,nan
1740793657.4906588,0.21972253193225247,0.14240100122359994,-0.1147007169821888,0.19234118750839,nan
1740793657.4945648,0.12838656528480086,0.4619671277488348,-0.9325731101203333,0.11874175773847712,nan
1740793657.4984708,-0.06797851593875566,0.4465403371431163,-1.0672678249221714,-0.002826390592779276,nan
1740793657.5023768,-0.08167010193316325,0.1757004030593284,-0.23205646519941195,0.09785019802163447,nan
1740793657.5062828,0.11129119731618588,-0.05712476146156071,0.8735348785980871,0.33193963983019636,nan
1740793657.5101888,0.22197720916364788,-0.0941199475649577,1.2022845019616235,0.34407632309605096,nan
1740793657.5140946,0.01676311628263009,-0.06682444637210495,0.4430008981808876,-0.027010011832960135,nan
1740793657.5180006,-0.35126026227834267,-0.17872556738100961,-0.649220393116965,-0.49990442196601587,nan
1740793657.5219066,-0.4776745047776347,-0.3963370447241375,-1.0475226239863382,-0.6330442809013163,nan
1740793657.5258126,-0.1712466965157279,-0.4454308852439728,-0.4870093455135079,-0.30455206535585405,nan
1740793657.5297186,0.3042113634070736,-0.13997069740442136,0.371164396343193,0.17531486265594284,nan
1740793657.5336277,0.5061627773536225,0.34525245123998344,0.7283003147325294,0.4245088814997989,nan
1740793657.5375335,0.28679188352835944,0.6051904642323196,0.43846780776813377,0.3687940041836378,nan
1740793657.5414395,-0.08177872618077861,0.41986886119309624,-0.024330338037049395,0.2126270703294997,nan
1740793657.5453455,-0.24604002801679395,-0.008383363188917024,-0.22383359155882898,0.11089201301810883,nan
1740793657.5492516,-0.14642487028020013,-0.2704257847669423,-0.19317070710457224,-0.00015736454484927746,nan
1740793657.5531576,-0.0033469328503447624,-0.18258147834676197,-0.20655670321939817,-0.21591506469813768,nan
1740793657.5570636,0.006623778472164863,0.04418038222997365,-0.31206623291839547,-0.42124682727444074,nan
1740793657.5609694,-0.052506587936410505,0.07565935681249543,-0.2678442511533253,-0.36786292679636096,nan
1740793657.5648754,-0.027516425086514668,-0.15322222140839478,0.07427929457130354,-0.005485360655452908,nan
1740793657.5687814,0.07408839646574518,-0.3688342954554124,0.4845295043368192,0.3703373419574921,nan
1740793657.5726874,0.09124752303494145,-0.27793127876640805,0.5668482067366283,0.39541111393747347,nan
1740793657.5765934,-0.043309450552447316,0.09490576861481895,0.2162039896893934,0.04797533014846753,nan
1740793657.5805023,-0.1698358459680699,0.4258728338950175,-0.23888134810230274,-0.2979117910472366,nan
1740793657.5844083,-0.08767476726097803,0.4309237831284024,-0.3840204591343652,-0.26904672561071796,nan
1740793657.5883143,0.16809168162886962,0.1440316494638749,-0.155874608837976,0.09644045165529035,nan
1740793657.5922203,0.3281903651082526,-0.15186440824061817,0.1155233815620319,0.3878113108242264,nan
1740793657.5961263,0.19168294822457366,-0.2322394624116171,0.08253058426091178,0.26708010795523357,nan
1740793657.600032,-0.13428242801573156,-0.1291055404226455,-0.24396688065331498,-0.16910107398539828,nan
1740793657.603938,-0.34925750569802755,-0.033033064886374586,-0.497100081311941,-0.4916915635726969,nan
1740793657.607844,-0.28433692394313603,-0.052349060623548514,-0.3114323175048242,-0.3756414349328683,nan
1740793657.6117501,-0.049463700629382455,-0.11128048221498543,0.30806967342615615,0.08952405925195607,nan
1740793657.6156561,0.13938586496645788,-0.07406986452544394,0.9278570832870331,0.5007200814490435,nan
1740793657.6195621,0.19892281503207043,0.07854066894441085,0.9975657129354338,0.5112100304118729,nan
1740793657.623468,0.19072382067218843,0.22546047766105765,0.3122242433391072,0.10944854015124036,nan
1740793657.6273768,0.15198689267495433,0.24025290358680645,-0.732996719610854,-0.40167388852038766,nan
1740793657.6312828,0.027991233499446835,0.11619334226576829,-1.3599505252422928,-0.6495307332158528,nan
1740793657.6351888,-0.18932037396028625,-0.0488124662789337,-1.018200438362269,-0.44951741809933826,nan
1740793657.6390948,-0.3425786661745956,-0.16268776778090407,0.08560623040080474,0.08115086610323129,nan
1740793657.6430008,-0.23957192804582872,-0.20682004005117766,1.0708584240447778,0.5986591128767432,nan
1740793657.6469069,0.0889347970149684,-0.2019454825283842,1.1200069389375837,0.752576721765622,nan
1740793657.6508129,0.35330869453647873,-0.1451666003368166,0.24095884721063943,0.4276334919551388,nan
1740793657.6547186,0.2976070245697493,-0.01273553111972998,-0.7108967281779778,-0.1618993525768273,nan
1740793657.6586246,-0.004019263748384134,0.1761476613471319,-0.8435059127624877,-0.621911842737405,nan
1740793657.6625307,-0.22137586565572387,0.32620875688785045,-0.096076638759039,-0.6743877564534462,nan
1740793657.6664367,-0.14911044479632315,0.3242396523475389,0.7253753836955078,-0.35354475303637806,nan
1740793657.6703427,0.06039804420064386,0.14155090271179005,0.7893658660799137,0.06639715818262693,nan
1740793657.6742513,0.10168907359542897,-0.12358419705169632,0.07252572953888992,0.32636231358222034,nan
1740793657.6781573,-0.09085302054647702,-0.3125354952956606,-0.6823291346204577,0.3672945776925574,nan
1740793657.6820633,-0.25257933066146776,-0.32534582464886935,-0.7894044784724658,0.29191488859404113,nan
1740793657.6859694,-0.12106077953174511,-0.18769631776983345,-0.29601026936547686,0.19795815793432597,nan
1740793657.6898751,0.2171553763917464,-0.01250869435322524,0.19434812154506387,0.08874164072309544,nan
1740793657.6937811,0.40039645447781586,0.10172873490250063,0.26512435989093336,-0.06540047495981664,nan
1740793657.6976871,0.20741306338767493,0.14194246349694617,0.10402494575128704,-0.23232072367275483,nan
1740793657.7015932,-0.18179170726040195,0.16049683947460544,0.1534220232282998,-0.32425215937915824,nan
1740793657.7054992,-0.3854637323132762,0.1912917800119467,0.4807536913927788,-0.28762361921000895,nan
1740793657.7094052,-0.2332671558784425,0.1927925682149237,0.6556591803229231,-0.15215730470404004,nan
1740793657.713311,0.08579723059023589,0.08729506101294378,0.2760461397542771,0.015654845660094004,nan
1740793657.717217,0.2719301783647092,-0.13199142237796244,-0.49872390274062445,0.175696830667821,nan
1740793657.7211256,0.22444970274617326,-0.34042286686044054,-1.046319087971035,0.3051894412780352,nan
1740793657.7250316,0.06379976220382871,-0.35900022536237036,-0.9029531463354741,0.34928855998132746,nan
1740793657.7289376,-0.0808279943225044,-0.12520971528928468,-0.21202996892727274,0.23587437022172497,nan
1740793657.7328436,-0.19515125572744885,0.20751316877691592,0.4634786584257876,-0.02883446084459118,nan
1740793657.7367496,-0.2809426743446392,0.37076717554783517,0.7039417920204849,-0.30206745857008743,nan
1740793657.7406554,-0.24551864978692473,0.22051407495564002,0.5488430855002708,-0.39124605833510395,nan
1740793657.7445614,0.00078614388984857,-0.110602883274876,0.3004893429235946,-0.22723350115676733,nan
1740793657.7484674,0.3516101274427553,-0.31845336298176,0.13618190868235883,0.056094197992336274,nan
1740793657.7523735,0.5205530525719636,-0.21109802259814425,-0.01478246092913733,0.2336026930449947,nan
1740793657.7562795,0.3230518898698304,0.10411844173064026,-0.2608688893317899,0.1879740199176566,nan
1740793657.7601855,-0.09548754417391253,0.32550714190697716,-0.5255446923231367,0.0011378684320078253,nan
1740793657.7640913,-0.38923830705791573,0.25496604886012525,-0.5891747883842078,-0.13942344189723813,nan
1740793657.768,-0.37327408433471365,-0.014318749384364003,-0.325444160090829,-0.11223914400893137,nan
1740793657.771906,-0.18851398239296507,-0.2111071879183168,0.14595596335652103,0.0493345860827762,nan
1740793657.775812,-0.07632991947548429,-0.17367624891241598,0.5399251378504982,0.20528382788696328,nan
1740793657.7797177,-0.06060760700469206,-0.004187104003599662,0.6176953347234873,0.22397957567724563,nan
1740793657.7836237,0.047195147613988506,0.06591616311153166,0.3405945688960751,0.0707813660507395,nan
1740793657.7875297,0.3275554755715407,-0.05950163766141268,-0.12004288921612655,-0.17016346923896272,nan
1740793657.7914357,0.5521797428135644,-0.23664550999353867,-0.48581552333260036,-0.340088008968192,nan
1740793657.7953417,0.4067954831512178,-0.23958519451914348,-0.5268328186832347,-0.30273337176257253,nan
1740793657.7992477,-0.10433815923124047,0.0017581131766832047,-0.20835595938320406,-0.05241268199419745,nan
1740793657.8031538,-0.5814669147848501,0.33248930780217784,0.2601212785561729,0.2511949824321121,nan
1740793657.8070595,-0.6169081188676862,0.5193793098724381,0.5468793543039576,0.3838823578207434,nan
1740793657.8109655,-0.21728526567898696,0.4390198656126143,0.44064241087913264,0.23942021151819667,nan
1740793657.814874,0.22521625887331856,0.13386371129676866,0.024142128036155137,-0.06610854782072853,nan
1740793657.81878,0.36573898789840653,-0.25811217426201744,-0.38837613189378517,-0.2838049393271634,nan
1740793657.822686,0.23022386957052082,-0.5781780469244745,-0.509086730765267,-0.24854776083529417,nan
1740793657.826592,0.08135084481776907,-0.6741404360260083,-0.3002488050163531,-0.020409255482177566,nan
1740793657.830498,0.05045532364904556,-0.4460797408020091,0.030426674244765126,0.18365223799537592,nan
1740793657.8344038,0.016171387566878578,0.05122640243292892,0.23347310383148795,0.19433202955380327,nan
1740793657.8383098,-0.14812633934242,0.5550248974379789,0.21800619367676044,0.029703682446700675,nan
1740793657.8422158,-0.32689622028438403,0.7304828390679303,0.0853758787666338,-0.14895733341810632,nan
1740793657.8461218,-0.2725004653092823,0.44803628815768143,0.006519405943429546,-0.1956351109792055,nan
1740793657.8500278,0.05650199840169871,-0.06039296603305887,0.07125809833364843,-0.09139036608393265,nan
1740793657.8539338,0.3791973305942207,-0.37648017851248466,0.22019227309446104,0.07215512321424083,nan
1740793657.8578396,0.38097903890076257,-0.28141862286887526,0.2888943900447018,0.18518931377397924,nan
1740793657.861749,0.07191066436985383,0.02974142717744752,0.1325907491413159,0.19094468012731777,nan
1740793657.8656547,-0.22459755971109235,0.15236963289468072,-0.23994479084489842,0.09700093665033901,nan
1740793657.8695607,-0.2437283761532484,-0.09201721856460643,-0.6229852744301843,-0.04727135403332047,nan
1740793657.8734667,-0.06285621993938868,-0.44554181547116445,-0.7303301296840159,-0.17561168481476006,nan
1740793657.8773727,0.03531551664858373,-0.4708742405976404,-0.41741771453913346,-0.2275685073274811,nan
1740793657.8812788,-0.06815326422604036,-0.022081107865994425,0.17181481769995424,-0.17223257233543757,nan
1740793657.8851848,-0.18863792604110458,0.5659642444724527,0.6865164730705168,-0.024440022124567095,nan
1740793657.8890905,-0.08806248282008412,0.7805212589763212,0.8304115158336107,0.15614093549228358,nan
1740793657.8929965,0.2085214669068528,0.4232885928773498,0.5734094080046414,0.2819162974583318,nan
1740793657.8969026,0.42115778943155946,-0.20530418425858163,0.12934676016348398,0.2695730204789571,nan
1740793657.9008086,0.329346648280145,-0.6014061123230079,-0.2497665094430212,0.0914141116737625,nan
1740793657.9047146,0.010142891612859996,-0.5166849188842624,-0.44723518430732934,-0.17452764109890403,nan
1740793657.9086235,-0.2655701362985213,-0.12930138255800425,-0.48433349700935635,-0.3556584240992697,nan
1740793657.9125295,-0.3251111558609776,0.1949441388031893,-0.417561326130672,-0.2984703486929664,nan
1740793657.9164355,-0.22641288909343277,0.25885409404339477,-0.27775053258858284,-0.018826467081477803,nan
1740793657.9203415,-0.11853209969103666,0.148589922810923,-0.09049760137856722,0.26685914345068584,nan
1740793657.9242475,-0.049263512294826645,0.05212949697565676,0.10248736947841551,0.31231597910806147,nan
1740793657.9281535,0.04336330464369541,0.034466632067929825,0.2710486949543159,0.08300249728063304,nan
1740793657.9320595,0.18899391980015565,0.013489198919964283,0.41494403995735185,-0.18640212196555986,nan
1740793657.9359653,0.3076926611067281,-0.08434943047487928,0.5146887090443316,-0.2181769446647413,nan
1740793657.9398713,0.29399986556378416,-0.20412394469133224,0.4793159352176038,0.011539100543510438,nan
1740793657.9437773,0.13608387831525406,-0.217673927530888,0.20741373397956409,0.23399929456512716,nan
1740793657.9476833,-0.08070259361134625,-0.07253769011451947,-0.2592787537865466,0.1775521205029203,nan
1740793657.9515893,-0.2623931415856704,0.14449611816632713,-0.6756199269907235,-0.11953185414564957,nan
1740793657.9554982,-0.35520220100975475,0.29100331286322734,-0.7561985068102507,-0.3328104796123201,nan
1740793657.9594042,-0.3193096845366355,0.29209283873269615,-0.43412237583691154,-0.2062764400877949,nan
1740793657.9633102,-0.12488440215650365,0.17261063068804766,0.06071518745127635,0.1527571025480528,nan
1740793657.9672163,0.17699764351274475,-0.005402280313576181,0.4046126800302617,0.377878107571528,nan
1740793657.971122,0.41319448778426443,-0.19775770479760696,0.4528661614272787,0.2377684327478455,nan
1740793657.975028,0.3977552154618105,-0.361322842870208,0.30161768379348053,-0.12046610788531775,nan
1740793657.978934,0.12068849245037194,-0.41726462235232137,0.118212035305399,-0.3442867315166181,nan
1740793657.98284,-0.20480436300464847,-0.28274192303301543,-0.02090868092683033,-0.2532476959536492,nan
1740793657.986746,-0.33018423330375546,0.03350115999394801,-0.11024392237267251,0.007894186926291248,nan
1740793657.990652,-0.20726114612395347,0.38082151292422434,-0.11689847037537458,0.18163027673813836,nan
1740793657.9945579,-0.007310239312059229,0.5484294160105533,-0.004304783657828457,0.1865042551425153,nan
1740793657.9984639,0.09146270576397145,0.42803740366170695,0.1423701661871755,0.13935955335474387,nan
1740793658.0023727,0.08647982967372841,0.10626814078606361,0.12151022275370274,0.13145942042025582,nan
1740793658.0062788,0.09034098597838915,-0.20707974249451896,-0.15794000242662248,0.08629009105433978,nan
1740793658.0101848,0.13182673407040432,-0.34865796546185324,-0.4827638262920853,-0.10546448964287675,nan
1740793658.0140908,0.10068073303353871,-0.3097155276488259,-0.4870629195201215,-0.36505296851907104,nan
1740793658.0179968,-0.07910311626536934,-0.19456036047111083,-0.06291243913967473,-0.44210171385995745,nan
1740793658.0219028,-0.28260976827315853,-0.09528630670233187,0.44408883059935494,-0.1901915280927246,nan
1740793658.0258086,-0.27638300662995274,-0.019655567239231703,0.5568953587471968,0.22770866471456835,nan
1740793658.0297146,0.0049058703539442625,0.06977082878337844,0.19811391656958582,0.4759509298788322,nan
1740793658.0336206,0.33246107331166047,0.17532483822248102,-0.19396937538483297,0.3869647593748106,nan
1740793658.0375266,0.3907386650316559,0.24492714765408058,-0.15323912798474934,0.11325794372843596,nan
1740793658.0414326,0.10607476628279314,0.22805633343901677,0.2582278543662331,-0.07854242180150371,nan
1740793658.0453386,-0.27032980082809643,0.12942574791368522,0.49199577402610295,-0.11125017018941148,nan
1740793658.0492473,-0.41454000233513866,-0.0029406546823536033,0.14127076628296714,-0.132438786883528,nan
1740793658.0531533,-0.23334343138899455,-0.12691112965327725,-0.5611217815490818,-0.2603366948441327,nan
1740793658.0570593,0.09341434451850461,-0.2207040431973691,-0.9620965442278749,-0.38107757686070803,nan
1740793658.060965,0.3238875345009379,-0.25247379311573476,-0.6793257873156435,-0.2683451747359009,nan
1740793658.064871,0.3506077291035621,-0.17389783769129644,0.02498108550927141,0.11333933228526723,nan
1740793658.068777,0.20406028306028298,0.017733577630395844,0.5795068807313041,0.49953709133778185,nan
1740793658.072683,-0.045516783693346406,0.21601318163067357,0.7010068947870972,0.5640810606884321,nan
1740793658.076589,-0.31559088480679126,0.25433714297585763,0.5519907101517092,0.24696781894530861,nan
1740793658.080495,-0.4716696237159469,0.06748035432884149,0.36729349185986393,-0.18816285743763447,nan
1740793658.084401,-0.36752243595670425,-0.196538249713136,0.12461854108423212,-0.4147355481422233,nan
1740793658.088307,0.0021701193759438055,-0.2752530915684123,-0.293181679645568,-0.32827957069918534,nan
1740793658.092213,0.41584974391361623,-0.04873333475550402,-0.7216201338322158,-0.07783948471459184,nan
1740793658.0961215,0.5700897233981231,0.3037893583687987,-0.7398238762259015,0.12583533789133022,nan
1740793658.1000276,0.35213111973550965,0.4451830152492541,-0.18128814982209523,0.18292248119532029,nan
1740793658.1039336,-0.04934663647506203,0.21041404680960285,0.5097477491658798,0.11355854025992491,nan
1740793658.1078393,-0.32732435216362105,-0.21171826874510022,0.6406402568238687,-0.019511018957875652,nan
1740793658.1117454,-0.33705767051026064,-0.45350658650771014,0.04406503962761974,-0.145021529135783,nan
1740793658.1156514,-0.1783068162443641,-0.33229569119825725,-0.6437089493772823,-0.17750970914901254,nan
1740793658.1195574,-0.029746370327606294,-0.020963525312222724,-0.6177094080297606,-0.059419439608426834,nan
1740793658.1234634,0.036130739894377074,0.15663583117314478,0.19855350520067408,0.15554812519426897,nan
1740793658.1273694,0.05677040755677354,0.07780796073602399,1.014243609792253,0.3012155839173732,nan
1740793658.1312754,0.06351529954813774,-0.06806170487798481,0.9882650041213743,0.23872986081194783,nan
1740793658.1351812,0.04157618870718368,-0.02498077193945041,0.11478758354259994,0.006951957598553711,nan
1740793658.1390872,0.006238070267829434,0.21515714502698371,-0.7908212810253388,-0.20120139227902503,nan
1740793658.1429965,0.03677926180290189,0.39078624211210744,-0.9585924891202131,-0.2335616742123547,nan
1740793658.1469026,0.16770845780419813,0.2658947758148738,-0.409011199762739,-0.12941173927584856,nan
1740793658.1508086,0.27652984316719403,-0.0949211615496711,0.19320906597126908,-0.04978407200857112,nan
1740793658.1547146,0.17092555246624297,-0.38262703191458625,0.3135766395252497,-0.0717665744448162,nan
1740793658.1586206,-0.16988482004637573,-0.36539759994051935,0.04821066493916732,-0.09718970942572308,nan
1740793658.1625266,-0.49398483723710335,-0.11736164569218586,-0.12833312734179703,0.012401273877681137,nan
1740793658.1664326,-0.49509024606458246,0.08679896904709193,0.0397645541670427,0.23945974317988564,nan
1740793658.1703384,-0.14271212797786564,0.07553285225531403,0.3537579712205212,0.3945701800052975,nan
1740793658.1742444,0.26121072966672376,-0.05716312583739204,0.46247412237627816,0.3080214979010577,nan
1740793658.1781504,0.39145483560901234,-0.08850578833113713,0.25718382715973725,0.012859513544768364,nan
1740793658.1820564,0.2314379773445979,0.07417818322036536,-0.08200877720427548,-0.28102266857811875,nan
1740793658.1859624,0.04631655050069016,0.29811112483450636,-0.33428553455857085,-0.38238242515002413,nan
1740793658.1898708,0.041315896783472236,0.371034825175447,-0.4220074658068431,-0.27142491478117275,nan
1740793658.1937768,0.1255202858080122,0.20798963787916971,-0.36894813886019223,-0.07424450886896183,nan
1740793658.1976826,0.06241990556126972,-0.08879585725715523,-0.20033725661591537,0.07461658079120059,nan
1740793658.2015886,-0.19479428309932284,-0.33707365056834326,0.04310503657500328,0.12860221419422707,nan
1740793658.2054946,-0.4115848756974208,-0.41069363837873546,0.2525007877793161,0.12129581004085226,nan
1740793658.2094007,-0.3424165729865122,-0.2925028284632572,0.3157008667247643,0.10712453019267164,nan
1740793658.2133067,-0.027639710622112776,-0.05322738212728097,0.247204766922781,0.11563151407004105,nan
1740793658.2172127,0.2481518469600782,0.18663258318251907,0.174866806259249,0.1321080375936326,nan
1740793658.2211187,0.2779891916395411,0.30261999664749073,0.15330156500542547,0.10249909239560698,nan
1740793658.2250245,0.13780121284070798,0.23660590729225794,0.057425538528967965,-0.0211450428621762,nan
1740793658.2289305,0.04227611920764818,0.05402773797904336,-0.2416610804692208,-0.20727643963344528,nan
1740793658.2328365,0.06106056377983886,-0.09083584621049423,-0.6035719934202198,-0.3239769999889001,nan
1740793658.2367456,0.061048582859079575,-0.08733292269960438,-0.6450039547536754,-0.2389647185479427,nan
1740793658.2406516,-0.0724002898772563,0.02169804129874374,-0.14368133543064607,0.027124661920722114,nan
1740793658.2445576,-0.24585805403223965,0.08269547214763152,0.611513497435268,0.2706885846025791,nan
1740793658.2484636,-0.2574399568229411,0.0006770552082139055,0.9919446224445907,0.27925755639953004,nan
1740793658.2523696,-0.05667061215869527,-0.14613451849662837,0.624800834217694,0.053485136875684604,nan
1740793658.2562757,0.1751248160096945,-0.1853660008731311,-0.20936166447378224,-0.17499858639460547,nan
1740793658.2601814,0.22989248349311778,-0.04802709842118493,-0.8286960891668761,-0.17815114123721384,nan
1740793658.2640874,0.10321501874287155,0.13640245948758256,-0.7966848557479533,0.027748678120419385,nan
1740793658.2679935,-0.03346192390583026,0.1667605552124853,-0.28099047990861165,0.2081031876783136,nan
1740793658.2718995,-0.06258470345839348,-0.007978778604710942,0.21315205112271512,0.17503813348742073,nan
1740793658.2758055,-0.043804890343104266,-0.21400242952972942,0.37784823983612337,-0.015689871154898834,nan
1740793658.2797115,-0.08206743775018326,-0.21708986236822791,0.31325401809727244,-0.15744970452714105,nan
1740793658.2836204,-0.141597420879491,0.03638056569990472,0.26719768046386533,-0.14429069483198045,nan
1740793658.2875264,-0.07860538932425494,0.34858575459309976,0.29696680487806965,-0.06673008802041139,nan
1740793658.2914324,0.13713374673549728,0.4438902163434242,0.25116930987654984,-0.05071031481244145,nan
1740793658.2953384,0.3159596889447588,0.21819477381464605,0.0175048434200405,-0.07323808862762361,nan
1740793658.2992444,0.23456748743226055,-0.17121977348564332,-0.3175368390616516,-0.009512585076309253,nan
1740793658.3031502,-0.0864147086764329,-0.4479160804783552,-0.5667214401746762,0.1549767876990941,nan
1740793658.3070562,-0.3591635232234948,-0.446233533468915,-0.6164181557545588,0.2525727646025598,nan
1740793658.3109622,-0.317140742628163,-0.22090567598049987,-0.4547401206899182,0.13274814620287737,nan
1740793658.3148682,0.0011627625997779674,0.04082257940039686,-0.09618110156174177,-0.11156469401420675,nan
1740793658.3187742,0.291656493683686,0.1969736237733801,0.40676656298045255,-0.21038099023224757,nan
1740793658.3226802,0.2963942722742571,0.24486767884940597,0.8604184614136415,-0.03765188692701244,nan
1740793658.3265862,0.04223364236908241,0.2591355533755054,0.9538896537918836,0.20294158882345018,nan
1740793658.330495,-0.22592717278867488,0.2632710917399341,0.5150517229393684,0.19076996993022596,nan
1740793658.3344011,-0.2983303834542573,0.18760557322495688,-0.24174867074643114,-0.12287203192447387,nan
1740793658.338307,-0.15635990716978074,-0.032345389484030436,-0.81215766120792,-0.41951345718130556,nan
1740793658.342213,0.08009969597807436,-0.32660786170183986,-0.8255761458232814,-0.3550028588386459,nan
1740793658.346119,0.28112532433227394,-0.49357683696075566,-0.3762094213824553,0.04539196773339017,nan
1740793658.350025,0.3590037881712457,-0.3681668734461824,0.09638151168118501,0.40278404234058324,nan
1740793658.353931,0.2587278277293825,0.0007377716830996308,0.24674845274694068,0.39751902204373835,nan
1740793658.357837,-0.014875138769833636,0.3578739437074461,0.1109128982968608,0.10015099389148889,nan
1740793658.361743,-0.3401351201865891,0.45118352879166435,-0.027265718231757188,-0.14899320838404048,nan
1740793658.3656487,-0.5080578334518506,0.2454469284703062,0.022574437148300163,-0.13972714201551936,nan
1740793658.3695548,-0.377947310538755,-0.06939883040740048,0.20264550253274313,0.010031149155370088,nan
1740793658.3734608,-0.020644763812003676,-0.26869880353124026,0.3447963695673284,0.05791054208064888,nan
1740793658.3773696,0.3192282879948727,-0.27236411091063184,0.35963375968356565,-0.053298363214652644,nan
1740793658.3812757,0.4258775775687141,-0.14389417775051885,0.25394152879929827,-0.1658695391390394,nan
1740793658.3851817,0.28134326723404623,0.03338316751134508,0.04027738096393818,-0.14909421390111904,nan
1740793658.3890877,0.04394022537899142,0.21722295558889634,-0.2689848536878125,-0.06096902331713244,nan
1740793658.3929937,-0.11331953196224265,0.3451282605524256,-0.5741489243123871,-0.022411720839351376,nan
1740793658.3968995,-0.13068298806788792,0.29360119343957264,-0.6872335537202023,-0.010592237801039165,nan
1740793658.4008055,-0.06258023238702526,-0.009922597495533564,-0.4917679185760551,0.1093474174241811,nan
1740793658.4047115,-0.0036388202406245035,-0.4239519255531582,-0.08299004589900767,0.3392786501650809,nan
1740793658.4086175,-0.023879522319611667,-0.6232812345346279,0.31023389471027646,0.4457693679909489,nan
1740793658.4125235,-0.12970481638886,-0.38182474900335633,0.5426147734073243,0.20247184233430737,nan
1740793658.4164295,-0.24137963993449638,0.16305901558880892,0.6346829612167734,-0.2878248484568447,nan
1740793658.4203353,-0.22339815405219254,0.5875053529464042,0.6277756893228027,-0.6194987007729169,nan
1740793658.4242442,0.0007423857428939438,0.5703552451984261,0.4462736938615733,-0.4898915214608204,nan
1740793658.4281502,0.3296801104283971,0.19466267071480856,0.005642879137943924,-0.031808299490292256,nan
1740793658.432056,0.5151184369408113,-0.16863361179038966,-0.5568206009275789,0.32790149705930305,nan
1740793658.435962,0.3730311329923106,-0.2602905950880478,-0.886478396076216,0.3282779096734307,nan
1740793658.439868,-0.018192202989447334,-0.1612182530524567,-0.7425805216435016,0.1153973151711424,nan
1740793658.443774,-0.3639135526658295,-0.11119809647537746,-0.28407792345037025,-4.287914672386335e-05,nan
1740793658.44768,-0.4253155384109312,-0.175220687691755,0.08434510089958029,0.05949915443353467,nan
1740793658.451586,-0.23251934300775828,-0.1832073920703327,0.17195294882187837,0.08664216497098168,nan
1740793658.4554918,-0.008541027166346379,-0.0021952303562127813,0.2031515240601236,-0.07531635086574662,nan
1740793658.4593978,0.09083549265920209,0.23630896128677334,0.4705480231677432,-0.2722040275724589,nan
1740793658.4633038,0.106290335080472,0.27546363305859956,0.8529084464892224,-0.21783434772485133,nan
1740793658.4672098,0.14097121162183768,0.07431999019797184,0.8493497231145211,0.10490281828143674,nan
1740793658.4711185,0.17481277978798468,-0.10395473584816105,0.17738281735514466,0.35360663706012446,nan
1740793658.4750245,0.09499969168650178,-0.010097296417802815,-0.7649057737268163,0.20830892884329266,nan
1740793658.4789302,-0.09945314452938248,0.24694936023371505,-1.1996167900748236,-0.2196833693950217,nan
1740793658.4828362,-0.22307004342990316,0.28657024352987853,-0.7728493684837736,-0.47002718872401117,nan
1740793658.4867423,-0.10792730003120396,-0.084054236349087,0.04805815924121477,-0.24511116881352032,nan
1740793658.4906483,0.154161771250543,-0.5804926449572883,0.47339209158371315,0.24079022718104465,nan
1740793658.4945543,0.27043619337329605,-0.6992399358028589,0.23873935990043854,0.4912921131770643,nan
1740793658.4984603,0.08294249546670425,-0.2574601889904721,-0.16280656199481108,0.2738538120619798,nan
1740793658.5023663,-0.2209904952980296,0.3972069481485932,-0.10927032946894784,-0.1457688959985998,nan
1740793658.506272,-0.30846493907271105,0.7400461386089459,0.4157186123837561,-0.32904479183683766,nan
1740793658.510178,-0.09198843765157522,0.574542396404396,0.8274168471901195,-0.14683012564606954,nan
1740793658.514084,0.16613841875361526,0.1406398371831245,0.6289507452430321,0.13130148033074548,nan
1740793658.5179925,0.17453643186885912,-0.21917666465390762,-0.05091103897065905,0.19210589493674454,nan
1740793658.5218985,-0.033783112482963985,-0.3839220921310959,-0.6555789002918759,0.020682778768277586,nan
1740793658.5258045,-0.15553532375593707,-0.42009415115560844,-0.811617241687642,-0.15083140943100196,nan
1740793658.5297105,-0.008799779801018088,-0.35069088739624593,-0.6063151936595355,-0.15779249650585167,nan
1740793658.5336165,0.2344612118254516,-0.111691876033564,-0.30223800477851304,-0.06409837294058852,nan
1740793658.5375226,0.26715342791724345,0.2502985493483786,0.021935315946309885,-0.00895736808145291,nan
1740793658.5414283,0.032500831809627845,0.4803341481625575,0.4184286372792125,0.0032995588908178272,nan
1740793658.5453343,-0.21561437624818833,0.3477300810336744,0.76631311023291,0.07674097236838467,nan
1740793658.5492404,-0.24111058916440767,-0.04345599065152939,0.7491280503974107,0.22111168530479897,nan
1740793658.5531464,-0.10394212996002948,-0.3018851189384856,0.23594336162711568,0.2808158465693677,nan
1740793658.5570524,-0.030348094834656877,-0.17229548993188162,-0.43203969140533677,0.11828066773624801,nan
1740793658.5609584,-0.07181118187758104,0.1548954551156588,-0.703819858297841,-0.18191956600277284,nan
1740793658.5648668,-0.03569264480482019,0.25167393543789884,-0.39094957242887923,-0.3671013631333553,nan
1740793658.5687728,0.20311313380470175,-0.03981037585928657,0.1290348207431987,-0.28127019272224957,nan
1740793658.5726786,0.44115026596487344,-0.406125025777551,0.33916220364588234,-0.024805500685712183,nan
1740793658.5765846,0.33721640450031437,-0.4194511222681689,0.1339323977189735,0.17222971708255302,nan
1740793658.5804906,-0.13949186131248,-0.02903174443376078,-0.1492709623574266,0.1920982226696138,nan
1740793658.5843966,-0.5825780092150054,0.39280217462093003,-0.19848932022419266,0.10108720206154723,nan
1740793658.5883026,-0.5572540215895632,0.47859367948513837,-0.06956599999020321,0.011896825085065009,nan
1740793658.5922086,-0.08195251430915179,0.23596301835287675,0.0008077749710294244,-0.04424564917076236,nan
1740793658.5961146,0.39685240430425844,-0.051116536090285984,-0.012942867939924734,-0.08185949685723393,nan
1740793658.6000204,0.5008464443378033,-0.1930103171164903,0.09348921696415041,-0.07056851821425665,nan
1740793658.6039264,0.2810021610840676,-0.2421602978525551,0.3734748136807818,0.03134841687378273,nan
1740793658.6078324,0.04023300530523567,-0.28637115983444944,0.519452037909492,0.15938099486824245,nan
1740793658.6117415,-0.08555513306902095,-0.24976766911525955,0.19900436927109605,0.15491578723907176,nan
1740793658.6156476,-0.21581927780377635,-0.014139765190211968,-0.44787502399652185,-0.03978590679922936,nan
1740793658.6195536,-0.4105038045495522,0.3238146439795681,-0.8364052478628151,-0.24803768957637354,nan
1740793658.6234596,-0.460314481191027,0.4719056504359772,-0.5552292546021657,-0.22111167919375946,nan
1740793658.6273656,-0.1439247047769631,0.271916578341989,0.14044674311963778,0.045326085981190985,nan
1740793658.6312714,0.376298644397482,-0.08995411862453286,0.5866315077037119,0.2476670642527394,nan
1740793658.6351774,0.6206638690806734,-0.2969157769778524,0.44160178921692245,0.11341113491431672,nan
1740793658.6390834,0.33869365477358193,-0.2704720902497251,0.02105042856971394,-0.23051956699292672,nan
1740793658.6429894,-0.14252059789259,-0.19570266761681868,-0.14635105672822205,-0.3475055413772877,nan
1740793658.6468954,-0.27813966819482494,-0.17770081318681946,0.03589506770270861,-0.004155775415289258,nan
1740793658.6508014,0.019599910208195535,-0.048406136428984815,0.1866374794279606,0.4898251932454131,nan
1740793658.6547074,0.25717398076533937,0.33872355839366464,0.009829696114531229,0.5767413465261803,nan
1740793658.6586173,-0.000591845477884928,0.7161323624030086,-0.3009442917115623,0.09496745751181235,nan
1740793658.6625233,-0.5184266600916263,0.5607580100077305,-0.3413389761957409,-0.4868318161899711,nan
1740793658.6664293,-0.631177055616349,-0.23516524615678436,-0.05941365525885245,-0.5705982630852521,nan
1740793658.6703353,-0.09258314783168536,-1.0203250894127829,0.17310284056037728,-0.11205796479176178,nan
1740793658.6742413,0.5468367656981061,-0.9677102700517234,0.08291421461205381,0.32654388463007816,nan
1740793658.678147,0.5770855172170063,-0.0348896517514359,-0.11203133306622122,0.24188242739524687,nan
1740793658.682053,0.023357392530000916,0.8747994434052688,-0.009464460992046212,-0.2096603960721212,nan
1740793658.685959,-0.3589553805691398,0.8773919951731523,0.36083151928236173,-0.40637411099828535,nan
1740793658.689865,-0.044659124638471735,0.11831879248973338,0.4829144780492435,-0.030083459069380824,nan
1740793658.6937711,0.5455513689473478,-0.4267992779878498,0.027596928664773285,0.5218347136508467,nan
1740793658.6976771,0.5377400338853151,-0.17654719341184733,-0.6014913663227814,0.5973361382736574,nan
1740793658.701583,-0.2535355881221647,0.3233386810619492,-0.6507870284200958,0.07737587327456173,nan
1740793658.705492,-0.9896041417535625,0.1425561791110666,0.03857722914379008,-0.46929775443269406,nan
1740793658.709398,-0.7839689817382858,-0.7053792695911135,0.7122624070991558,-0.46151037511734955,nan
1740793658.7133038,0.17882755405561396,-1.1065228259907123,0.5272172267647258,0.010357447347050451,nan
1740793658.7172098,0.8131918115030539,-0.2300977145908068,-0.39649528445830434,0.3284606609604406,nan
1740793658.7211158,0.4451793528115966,1.2180209457292421,-1.008050896203006,0.13113584363509131,nan
1740793658.7250218,-0.35433434369392247,1.5967281887476463,-0.509273089916775,-0.25285224777379617,nan
1740793658.7289279,-0.4963319997117044,0.28208840863071755,0.6720554489111576,-0.2703410063025817,nan
1740793658.7328339,0.22097966326920102,-1.3793454296225325,1.3067315532846036,0.09157580085677931,nan
1740793658.7367396,0.8222923433231432,-1.4789036266151598,0.7328016836279598,0.25849585235210176,nan
1740793658.7406456,0.4065698185458896,0.1771559453239907,-0.4254252449754551,-0.13968031220784044,nan
1740793658.7445517,-0.6230040643379814,1.6753326668020392,-1.013315490923309,-0.6403634051712856,nan
1740793658.7484577,-0.9736849786359099,1.1523577807527356,-0.6439330377834325,-0.3884622852948243,nan
1740793658.7523665,-0.09710377472238574,-0.9366030529763414,0.001368541404718591,0.7526820463417775,nan
1740793658.7562726,1.0023840132027337,-2.201743306708055,0.14251584609126286,1.7663463423896077,nan
1740793658.7601783,0.9030088321954283,-1.0600864517692132,-0.13670934886765554,1.415608867596545,nan
1740793658.7640843,-0.4607131645324794,1.3420834012856546,-0.12675930345697997,-0.3661629224257059,nan
1740793658.7679904,-1.589610947472747,2.3672004677336624,0.4453257426404525,-2.2033055456985853,nan
1740793658.7718964,-1.1339023534766108,0.9181992002753617,0.9557930025021785,-2.5436262189732446,nan
1740793658.7758024,0.4940060533665421,-1.2913508182657298,0.6565693405526849,-1.158079433264161,nan
1740793658.7797084,1.5764700300552836,-1.7571785284279182,-0.30423808334515334,0.7263299204396365,nan
1740793658.7836144,1.090652717468143,-0.12216929751569315,-0.9576370744079494,1.746887160909821,nan
1740793658.7875202,-0.1607931623920289,1.4527885608689428,-0.6523941631112073,1.6668099184714007,nan
1740793658.7914262,-0.6316708294599178,0.9226734418876863,0.14985640029450004,1.2265160308757364,nan
1740793658.7953322,0.04846090684069308,-1.149386721173065,0.44041153380267223,0.940474265507823,nan
1740793658.7992408,0.6943955186854129,-2.2192016649311452,-0.08687540727225163,0.4204581697418726,nan
1740793658.8031468,0.15177727823853374,-0.7708756901769298,-0.6537566176671137,-0.9058010837350932,nan
1740793658.8070529,-1.176531835222314,1.8451991734454607,-0.3729340060706084,-2.6040712196849,nan
1740793658.8109589,-1.7828513104556163,2.8887492451370673,0.6167675386342482,-3.197207303495772,nan
1740793658.8148649,-0.8976472333805728,1.2698351237355203,1.2591822752999637,-1.6095027831692823,nan
1740793658.818771,0.5978787417659952,-1.338892998782431,0.806404799415756,1.4157699179354672,nan
1740793658.8226767,1.297910562324839,-2.4504878444464957,-0.3251050214015355,3.630020208008544,nan
1740793658.8265827,0.9556683501853876,-1.3873732572264998,-1.06725805444064,3.244474433005474,nan
1740793658.8304887,0.5791239861254363,0.34551321522032297,-0.8955666173073569,0.6343226193377054,nan
1740793658.8343947,0.8839465804096234,1.0352694202674941,-0.25506557279115033,-1.9676589438417953,nan
1740793658.8383007,1.1955622868856843,0.5505199458281584,0.17591774876281474,-2.5161832284445427,nan
1740793658.8422067,0.31830527569906736,0.005184271446978151,0.31076704776229813,-0.9356836095348497,nan
1740793658.846115,-1.6921446493862131,0.10978218317133805,0.5024538873976266,1.017269563905753,nan
1740793658.8500211,-3.187224787533109,0.42234261035102805,0.7535201287414112,1.515610162491759,nan
1740793658.8539271,-2.6220190180407834,0.24291363198761648,0.5247072674870308,0.2663556145268373,nan
1740793658.8578331,-0.31411649062935626,-0.2914980910197022,-0.45827480982866536,-1.443945485597854,nan
1740793658.8617392,1.8674943641362178,-0.4365867486154585,-1.4783498003805557,-2.04729914754955,nan
1740793658.8656452,2.5048799891586175,0.010734652443331124,-1.3546009215706982,-0.9969638688123031,nan
1740793658.8695512,1.9100643822950716,0.3186838053311263,0.16951794131963124,0.9642513751880263,nan
1740793658.873457,1.256399384689279,-0.19725468037001254,1.8454722090946774,2.511586155674514,nan
1740793658.877363,0.8710027942413354,-1.1057072440726172,2.049740446137939,2.6639405729535293,nan
1740793658.881269,-0.020392275673006093,-1.1967312384989204,0.4984180215248287,1.308575493822301,nan
1740793658.885175,-1.8097083943548518,0.07206892516084801,-1.4007486514704368,-0.8109437505976916,nan
1740793658.889081,-3.3774967342954643,1.7767270769314851,-2.006980174831189,-2.516149649295171,nan
1740793658.8929904,-3.04404491689739,2.382858641235999,-1.0756064606206799,-2.8486057593596468,nan
1740793658.8968964,-0.6119256680921878,1.2789086175323758,0.2404555142868278,-1.6695185625015962,nan
1740793658.9008024,2.0708119902625097,-0.717079266767801,0.8487646125085088,0.21351995419608275,nan
1740793658.9047081,2.921181537538825,-2.253175699160537,0.7880679451653338,1.6072155755747597,nan
1740793658.9086142,1.7723501026317703,-2.543460737522261,0.7158979287928029,1.8247655904489033,nan
1740793658.9125202,0.33207482180910536,-1.5843201725410854,0.7165316287212098,1.1538380098683756,nan
1740793658.9164262,0.04195775066631511,0.2345402259308564,0.17311693656596477,0.4551405501598464,nan
1740793658.9203322,0.46036508945001076,2.240838277967328,-1.0678048929219333,0.27246881048521043,nan
1740793658.9242382,0.08859610496098963,3.3229961423967564,-1.915795266715683,0.33706132429592406,nan
1740793658.9281442,-1.4881367582488882,2.376481088600132,-1.0299679067467633,-0.04299456241467909,nan
1740793658.93205,-2.8674862438508284,-0.5002834920151692,1.3361247999228036,-1.123356700029301,nan
1740793658.935956,-2.42087330770033,-3.3961281415494446,3.003555272162187,-2.28513292483936,nan
1740793658.9398644,-0.23110056381371896,-3.858903922194187,1.923655727672252,-2.4769211363007635,nan
1740793658.9437704,1.9699321752407923,-1.2622921684344515,-1.4097255473070163,-1.1355042172406182,nan
1740793658.9476764,2.6850984541563907,2.2457139412570277,-4.024429584912665,1.238471848112243,nan
1740793658.9515824,2.010659087450998,3.613561284133461,-3.295527579615151,3.3212452983336664,nan
1740793658.9554882,0.9870024205493952,1.8723237617768287,0.33731867448761566,3.8079124198341483,nan
1740793658.9593942,0.09367366643598136,-0.9663424691819746,3.709447986773799,2.2494057338704416,nan
1740793658.9633002,-1.0178884512596234,-2.149412400469117,4.026637942061646,-0.6244663561652061,nan
1740793658.9672062,-2.3519241460597784,-1.078553647953642,1.4478983488396273,-3.26208507552001,nan
1740793658.9711123,-2.854895242359211,0.377404651776863,-1.4553461199622577,-4.156225785838371,nan
1740793658.9750183,-1.4831480192497746,0.3728582477811004,-2.4984527481296017,-2.7757697123924947,nan
1740793658.9789243,1.170770187357125,-0.6823795976693214,-1.7694346481276473,0.022637147907565068,nan
1740793658.98283,2.988400277661924,-0.824013369866697,-0.798115383052018,2.491979429084889,nan
1740793658.9867394,2.4363162580474533,0.7652754925080365,-0.4334607079904056,3.181821882947311,nan
1740793658.9906452,0.2828538927056586,2.455816824157612,-0.10129560511938453,1.9661286396618882,nan
1740793658.9945512,-1.246681024301429,1.987243347242222,0.8990312914356398,0.05444434575778405,nan
1740793658.9984572,-0.9854134577469332,-0.7099520419746785,2.014882801315534,-1.070823254146348,nan
1740793659.0023632,-0.0015489217959955286,-3.121467513836503,1.919543259176491,-0.883958712053966,nan
1740793659.0062692,-0.01898862418880348,-2.797618491195281,0.28553681826971067,-0.12148358916585864,nan
1740793659.0101752,-1.0952330294006942,-0.04888027338867378,-1.486474137960584,0.07732624746955102,nan
1740793659.0140812,-1.5297760769926683,2.3956205364928045,-1.695087495765308,-0.6586632941865186,nan
1740793659.017987,-0.16133388769898635,2.340320315148122,-0.3109328403882987,-1.571994730730927,nan
1740793659.021893,1.8883134480985475,0.32151640453232516,0.926499198284288,-1.5365366953567476,nan
1740793659.025799,2.373928158317934,-1.2931626769620777,0.5203462107006059,-0.17591509634569,nan
1740793659.029705,0.6756732127138271,-1.033702024145756,-1.0023890433836353,1.7148904755502996,nan
1740793659.0336142,-1.3185715879584756,0.2934700237204827,-1.6808148692912308,2.7970037760447766,nan
1740793659.03752,-1.4438480456067027,0.9053868799903589,-0.4304916275610656,2.2605166731832287,nan
1740793659.041426,0.079031629007572,0.1924541926554961,1.633467608278442,0.4213168870470788,nan
1740793659.045332,0.9228798015972778,-0.8204227074835869,2.415979537817144,-1.5728851703376685,nan
1740793659.049238,-0.33598178892919084,-0.9499305108653265,1.1697762520187398,-2.5821525457538335,nan
1740793659.053144,-2.1977708155255256,-0.23935832161722664,-0.7668971352784673,-2.174757005919521,nan
1740793659.05705,-1.8969781448194962,0.3607890105067985,-1.5884253402313808,-0.7550277983724033,nan
1740793659.060956,1.079779612578123,0.3427422517181203,-0.9932776436855298,0.8196439170529775,nan
1740793659.0648618,3.92275423113053,0.17762139717374337,-0.21018939481516666,1.7670894974693843,nan
1740793659.0687678,3.4399509294488917,0.4552199147450325,-0.22905531188602982,1.728326185486492,nan
1740793659.0726738,-0.25349759506020775,0.9183020170002821,-0.5471915876356442,0.8387950985806254,nan
1740793659.0765798,-3.6432328976442863,0.7379931741789186,0.0007054281981826555,-0.3953806841960817,nan
1740793659.0804887,-3.563894992339896,-0.332752426328662,1.4380570935608428,-1.3169846281386823,nan
1740793659.0843947,-0.5478719304140344,-1.466487279238036,2.2577926529958314,-1.398410009267843,nan
1740793659.0883007,2.001053967816183,-1.6134122429499953,1.117211848510552,-0.5414998719141608,nan
1740793659.0922067,1.72482509390045,-0.6610339802330654,-1.3552366563910003,0.7613824205979998,nan
1740793659.0961127,-0.2613148379284075,0.5040185949317552,-2.916836798124555,1.6237011870086309,nan
1740793659.1000185,-1.0834339096943093,1.0383499236074063,-2.019473301537957,1.3426826471375461,nan
1740793659.1039245,0.30567292070273683,0.9608728868448071,0.4907516637962124,-0.004008799856175652,nan
1740793659.1078305,1.9835599194585112,0.8140057514630316,2.2372991958823807,-1.4937690129106225,nan
1740793659.1117365,1.5615750427294448,0.7573234712454444,1.7982941371202823,-2.025753197490456,nan
1740793659.1156425,-0.8289730483549789,0.3529838262424304,0.05542644159355837,-1.2242334724590014,nan
1740793659.1195486,-2.6532979581132996,-0.6865391011424765,-0.9993815663124022,0.25379026633542384,nan
1740793659.1234546,-1.949165832294227,-1.8225310870792748,-0.5122330291646385,1.3410780758970349,nan
1740793659.1273634,0.4364896935235198,-2.0524678990690375,0.4902844428341224,1.5121965914706192,nan
1740793659.1312692,1.9143191127245456,-0.9570926148146452,0.5395877651965535,1.0937151244070993,nan
1740793659.1351752,1.12188295656458,0.7931481885562988,-0.5010369252144793,0.654505921746216,nan
1740793659.1390812,-0.6974569787139607,2.0467591455447574,-1.3921014502671365,0.2518212953502362,nan
1740793659.1429873,-1.325798432082569,2.1648547040104402,-1.0867121600474374,-0.5104862001578296,nan
1740793659.1468933,-0.11136941076040456,1.3341534706608689,0.07717548977104449,-1.6577192110659296,nan
1740793659.1507993,1.4866489633971718,0.07837181744406203,0.9320810080124806,-2.3525468493178305,nan
1740793659.154705,1.7021339487451599,-1.2232263061982047,0.9436974777450882,-1.5848546884564798,nan
1740793659.158611,0.339233248597458,-2.2424113176219223,0.6964734542686218,0.5420067541566274,nan
1740793659.162517,-1.280269451690433,-2.432018634933073,0.8598602525779971,2.4745784724999313,nan
1740793659.166423,-1.865006719367928,-1.292383409660413,1.075966876354009,2.52686131323333,nan
1740793659.170329,-1.2654222895975047,0.907980426037769,0.33043829480058606,0.6492596550988072,nan
1740793659.1742377,-0.1711798607967186,2.8803507992544417,-1.542696716090587,-1.3343534379159636,nan
1740793659.1781437,0.7836026902917749,3.145209136842433,-3.1431247980244184,-1.5194752796339388,nan
1740793659.1820498,1.3344287786156912,1.3371674796838644,-2.712818140979536,0.04749224654537395,nan
1740793659.1859558,1.3123267731463706,-1.3148516133849262,-0.1064009514645803,1.365103432220892,nan
1740793659.1898618,0.5920685988867784,-2.917333144141148,2.7291074982965946,0.6652017129975042,nan
1740793659.1937675,-0.526112950228963,-2.4449461874106646,3.4952952777290185,-1.5230167780004273,nan
1740793659.1976736,-1.2304308376847186,-0.48974469560782874,1.7586331922048202,-2.778130642930743,nan
1740793659.2015796,-0.8900425910158025,1.3673929786666041,-0.7039392574826041,-1.370584995548491,nan
1740793659.2054856,0.1637150838540148,1.886730503990277,-1.77433931307171,1.725596983446587,nan
1740793659.2093916,0.8465310003959452,1.0285987230344706,-1.046239459033209,3.6434264147364743,nan
1740793659.2132976,0.47018367378203113,-0.24478781231013597,0.07868611485291827,2.4927832505198926,nan
1740793659.2172034,-0.4808458195910995,-0.8752808641802209,0.17127366084260506,-0.714573825834549,nan
1740793659.221112,-0.9207972620719903,-0.5240446397144979,-0.6625383993901905,-3.0865378520053275,nan
1740793659.225018,-0.42129102075640945,0.2764058817374888,-1.1244170432944698,-2.6890160212709318,nan
1740793659.228924,0.373241876596652,0.6568820861899973,-0.40600759286612687,-0.24475972320808917,nan
1740793659.23283,0.6415012361243598,0.18431674586427985,0.8322391761540711,1.884400497319354,nan
1740793659.236736,0.39434208013318933,-0.7384988078862856,1.2955920917107204,2.0972484203044384,nan
1740793659.2406418,0.2894272393766032,-1.201577951637888,0.6366735083918187,0.7801525248551916,nan
1740793659.2445478,0.5577055814577535,-0.6160150503285267,-0.14492017169054355,-0.598519251580571,nan
1740793659.2484539,0.5689932784107606,0.6780616341325251,0.019416660089657273,-1.1304845369727232,nan
1740793659.2523599,-0.27052118342192255,1.6299925970822564,0.8502336731171078,-0.9927378472282018,nan
1740793659.2562659,-1.4530003234310196,1.388338222966604,0.9373741293332348,-0.6594446928395881,nan
1740793659.260172,-1.6975701763278856,0.07302881524175192,-0.5267973566991181,-0.15636569626387986,nan
1740793659.264078,-0.49056145299908716,-1.3203666324942573,-2.483588699065819,0.6579330969545576,nan
1740793659.2679863,1.0666785063769286,-1.774413669669714,-2.837912161099657,1.3874142735455723,nan
1740793659.2718923,1.3679400829008177,-1.04168938866496,-0.699184213783935,1.211780186358342,nan
1740793659.2757983,0.21914773389200026,0.29262882810671065,2.3682507420270666,-0.08516244765922096,nan
1740793659.279704,-0.7962411880690894,1.37013721213377,3.6175310692112754,-1.4801666647914653,nan
1740793659.28361,-0.1593280243190285,1.627897414404568,1.797510044525214,-1.529997862472572,nan
1740793659.287516,1.6029806773987931,0.9882511543236274,-1.485840504755577,0.03756259120760021,nan
1740793659.2914221,2.2628351363377806,-0.21669788754904543,-3.212790337672557,1.7758303208348838,nan
1740793659.2953281,0.40420983026126855,-1.364874415101897,-1.8320542133972053,1.8431708077946674,nan
1740793659.2992342,-2.7019934644059442,-1.760860499390107,1.276193376103275,-0.07133016059367371,nan
1740793659.30314,-4.133841756997074,-1.0658761270456603,3.1781911728657266,-2.2899783624296397,nan
1740793659.307046,-2.2986520589545747,0.3156190739323903,2.1740016913680873,-2.728271600226294,nan
1740793659.310952,1.3550618692665246,1.4027551685723418,-0.7498506401364028,-0.9134178103898298,nan
1740793659.3148613,3.751494718296516,1.4296759237702208,-3.0576294182667736,1.6144960137952116,nan
1740793659.3187673,3.17474549679091,0.5576878073057618,-3.040631209261352,2.8380843184867324,nan
1740793659.3226733,0.676910535963084,-0.3015819372465738,-1.0743402453874011,2.0781990267644046,nan
1740793659.3265793,-1.3490756718082735,-0.4563513025749097,1.1695628774826046,0.3197302480653245,nan
1740793659.330485,-1.6140379972369583,-0.14721181414937562,2.3704732416502163,-1.0161895864163975,nan
1740793659.334391,-0.7817189984119405,-0.1593598710039439,2.339533800057559,-1.374137800494233,nan
1740793659.3382971,-0.2013261674978386,-0.7605014873950364,1.529120797721802,-1.1735491551993855,nan
1740793659.3422031,-0.3179217983037953,-1.2491785261526245,0.2949454781364569,-0.9451123981251207,nan
1740793659.3461092,-0.5187280342089439,-0.7362018924610039,-1.1339984078188816,-0.6861181311197084,nan
1740793659.3500152,-0.21062475354154497,0.7048456437567129,-2.234872407808147,-0.11032111708356515,nan
1740793659.353921,0.415652456357081,1.9120159435517392,-2.2513417654609715,0.7185117454604738,nan
1740793659.357827,0.7669723523391733,1.7843890851629334,-0.9483260824175587,1.2766131875200892,nan
1740793659.3617363,0.6518277826363366,0.44409295327001885,0.8416595765800023,1.1450739289238787,nan
1740793659.365642,0.40789939163947,-0.9135272474707992,1.7645456221038003,0.5197099714962276,nan
1740793659.369548,0.32169523746965856,-1.2994340161573574,1.2108599635420243,0.007542606918988026,nan
1740793659.373454,0.24039512289189532,-0.8614080262633171,-0.05251406400419016,-0.06430169015531483,nan
1740793659.37736,-0.11691007245560205,-0.44850587484437177,-0.6665055016493652,-0.003201304556398033,nan
1740793659.381266,-0.6695269300300735,-0.44484887419902974,-0.09799394728300566,-0.3382230403872771,nan
1740793659.3851721,-1.0263177351518553,-0.347439389717301,0.840730003459311,-1.108328408594912,nan
1740793659.389078,-0.9628461473449375,0.4143218318511662,0.9314272043960166,-1.6761990202804022,nan
1740793659.392984,-0.599080691501198,1.4968230614655116,-0.10203155710177625,-1.315674417667262,nan
1740793659.39689,-0.05516800448641409,1.8109798481336574,-1.3093025793303938,0.022578145810004658,nan
1740793659.400796,0.7762175611902942,0.7475973419609206,-1.5492477466598498,1.5535540542473385,nan
1740793659.404702,1.8227976788232514,-0.9735121719818832,-0.6619525790299482,2.270199116345784,nan
1740793659.4086108,2.3325216143449934,-1.9000196912270326,0.46802085505867463,1.7419181324962356,nan
1740793659.4125168,1.2924954293170678,-1.3019106305712784,0.9119842229436074,0.39417605606967693,nan
1740793659.4164228,-1.2826979556998108,0.1057549317155673,0.5953030524320876,-0.8974711347237168,nan
1740793659.4203289,-3.6707934305393,0.951784657434395,0.177382060095323,-1.4674757597219228,nan
1740793659.4242349,-3.6276391175349603,0.6226289850141065,0.1941998045117926,-1.2302066061172041,nan
1740793659.4281409,-0.6500458528448518,-0.21488874054630977,0.48181294165673766,-0.5728216635316794,nan
1740793659.432047,3.0727560779650465,-0.4567921064977989,0.4531456620290573,0.015627093371597817,nan
1740793659.4359527,4.4001936347922905,0.21817222657202037,-0.17699234002386482,0.25912657228512315,nan
1740793659.4398587,2.2036161202608984,1.0383726881114927,-1.024914734442971,0.19105928020373328,nan
1740793659.4437647,-1.4716240227141844,0.9769849016979435,-1.3618364976078212,0.05489212654188593,nan
1740793659.4476707,-3.367396686454099,-0.17992724366594126,-0.765856819194283,0.10688591365895848,nan
1740793659.4515767,-2.145693792894526,-1.5667583031806125,0.4799214145879938,0.42259905646131196,nan
1740793659.4554856,0.5145970655455494,-1.9587182303996626,1.5318155306077053,0.8118367667438158,nan
1740793659.4593916,1.8740761229157803,-0.8089877098007509,1.5595595245792453,0.9223757548093557,nan
1740793659.4632976,0.9357103238048873,1.2332265407891316,0.38942849302244503,0.5032170609257227,nan
1740793659.4672036,-0.8366188522446193,2.703767437673498,-1.2283309345678022,-0.3505532439131311,nan
1740793659.4711096,-1.3791887059816403,2.358936156932782,-2.0411199734193213,-1.188155855791499,nan
1740793659.4750154,-0.21983730302134757,0.17309260736563623,-1.2576893444076154,-1.4868384738901317,nan
1740793659.4789214,1.3068698076329415,-2.4601293454530633,0.6692151293202654,-1.0358092717518326,nan
1740793659.4828274,1.713776300123612,-3.6231876361084097,2.2422067928151077,-0.11094467496912251,nan
1740793659.4867334,0.8229833536627181,-2.3243312313006723,2.1291123547699424,0.7206137247241113,nan
1740793659.4906394,-0.43156375697003185,0.6388550556988051,0.3718350866560824,1.0222414413097878,nan
1740793659.4945455,-1.224608920893159,3.212306257162677,-1.5951916488968734,0.7935231267527445,nan
1740793659.4984515,-1.4675533212546847,3.658139508252903,-2.227242640627151,0.4059257184677344,nan
1740793659.50236,-1.3350384270163838,1.8465618162910167,-1.2373482576232404,0.22712290623151518,nan
1740793659.506266,-0.7007450829811782,-0.8106000850738169,0.2884918890901577,0.26924149592156715,nan
1740793659.5101721,0.5678532348417935,-2.598908866232827,1.072097562499265,0.19267003890280981,nan
1740793659.5140781,1.9219437802127572,-2.7203837302534226,0.8309595454009739,-0.30959780478859766,nan
1740793659.5179842,2.261691440516097,-1.5344834026586187,0.2806507720582016,-1.0914852890918896,nan
1740793659.5218902,1.06554885618475,0.0558183630226884,0.13398665303679622,-1.5381940046102842,nan
1740793659.5257962,-0.7914279456268357,1.2685445237229347,0.33351236576737514,-1.0722050754299886,nan
1740793659.529702,-1.736103595242892,1.6784482258858717,0.3235794326733945,0.2207546757285644,nan
1740793659.533608,-1.1355742071380655,1.2207320103034955,-0.12948141004508634,1.4772795206393403,nan
1740793659.537514,0.004677278176802937,0.25060625091351435,-0.636155638259244,1.7075125148469943,nan
1740793659.54142,0.22429254337320562,-0.5130620879515151,-0.7077581029122595,0.7194685291488719,nan
1740793659.545326,-0.6166345236583878,-0.46996383084018345,-0.3588190802512023,-0.5840761326027575,nan
1740793659.5492346,-1.1057957870927606,0.21846004940764752,-0.01910716649154324,-0.9722539864512872,nan
1740793659.5531406,-0.007321948603361257,0.6111092393488282,0.05967999991480612,-0.10764714466450727,nan
1740793659.5570467,2.013833814079678,-0.08799145444542888,0.0759252403913936,0.9960302377807856,nan
1740793659.5609527,2.821596072055648,-1.4968717710974297,0.2892807795492669,0.9018131840277409,nan
1740793659.5648584,1.1346368989571631,-2.169281775701535,0.5548271563060352,-0.7103165028694648,nan
1740793659.5687644,-1.812215685960623,-1.0155323605124107,0.470839264880589,-2.4654285633219497,nan
1740793659.5726705,-3.2868849296583673,1.3621450341907801,-0.025121538974456112,-2.463206814204689,nan
1740793659.5765765,-1.8417764143262965,2.9747832369152514,-0.44128551483843537,-0.20611362890587057,nan
1740793659.5804825,1.114137568668314,2.2993787910981167,-0.2764269264061514,2.6583258101785026,nan
1740793659.5843885,2.7149282554129517,-0.15612546053787757,0.31142926874332916,3.702061252852564,nan
1740793659.5882943,1.5607850824958558,-2.2486822739630177,0.5908129355564476,1.983611905636971,nan
1740793659.5922003,-0.9423206391421385,-2.223700607101283,0.07634719814331774,-1.023269860580687,nan
1740793659.596109,-2.19470667952775,-0.33419333153103586,-0.8675823250662567,-2.820743168820028,nan
1740793659.600015,-1.1390807069878113,1.527075192076502,-1.3629763288962804,-2.227218506603044,nan
1740793659.603921,0.8282466088499806,1.6989559597921666,-0.907427124544727,-0.31799694924386623,nan
1740793659.607827,1.6003927519684382,0.21042527677611056,0.1855079885714186,0.9053820090683199,nan
1740793659.611733,0.6714917577747382,-1.4712088450280945,1.1917968470054146,0.6116491081127354,nan
1740793659.615639,-0.541133432523038,-1.9011623221578062,1.6287368990496929,-0.22404755870470716,nan
1740793659.6195447,-0.5479856855970179,-0.8204187868953835,1.42323973536325,-0.18604251173128186,nan
1740793659.6234508,0.4464511425126237,0.8713177487146497,0.6507632632004683,0.8651244419271725,nan
1740793659.6273568,0.8933975156242993,1.9766726563560484,-0.5556660258484691,1.6572634617131872,nan
1740793659.6312628,-0.1273703851942713,1.819459005082231,-1.7600805765855274,1.019354240891884,nan
1740793659.6351688,-1.675552711230731,0.5532417146645627,-2.193427719480818,-0.7342104545525752,nan
1740793659.6390748,-1.9310290917546935,-0.9921064589659048,-1.3468564788129953,-2.0898939354834054,nan
1740793659.6429832,-0.2873562736574348,-1.7883054811212509,0.34024440311184667,-1.8959311844828544,nan
1740793659.6468892,1.8328675859206986,-1.2909583583587667,1.6467554746255444,-0.43847211125111746,nan
1740793659.6507952,2.399648641617111,0.055031589444810215,1.663601822666477,1.0309524373024384,nan
1740793659.6547012,0.8946669346447292,1.0523000310139385,0.6816526229145955,1.5884116302548905,nan
1740793659.6586072,-1.1680059769477849,0.790119144395734,-0.18822645057616855,1.2692218956052712,nan
1740793659.662513,-1.839226302773799,-0.3923032853631932,-0.27521881512444646,0.5763792958460241,nan
1740793659.666419,-0.6933052771911741,-1.1224617187359438,-0.005353363766834147,-0.22330376430954824,nan
1740793659.670325,0.8950583475319166,-0.40107219624408424,-0.1770023670638968,-1.0763404631863887,nan
1740793659.674231,1.3009930371201777,1.199147247817693,-0.8002890168009004,-1.6431506880433648,nan
1740793659.678137,0.27202426426961235,1.9618955780399532,-1.022030484539112,-1.3016415326784003,nan
1740793659.682043,-1.0181318633141145,0.8279128046152154,-0.2796068131748223,0.09662322283034583,nan
1740793659.6859488,-1.3194878340740497,-1.3157680578719733,0.8077859021639958,1.6710555090874637,nan
1740793659.6898575,-0.49486482313425995,-2.377733175981025,1.0576755257738097,2.101531263425629,nan
1740793659.6937633,0.5895199780846552,-1.2009913260247222,0.1795820700796296,0.9386063475470643,nan
1740793659.6976693,1.0805840038249461,1.1475685464447358,-0.7783500746531142,-0.8298811429529671,nan
1740793659.7015753,0.8459797158062334,2.3759281190421815,-0.6607939190369922,-1.7151832533491091,nan
1740793659.7054813,0.2870754020593299,1.2623658184993873,0.3591226959727228,-1.200843502970287,nan
1740793659.7093873,-0.22948972351787142,-1.1372468518693144,0.9784229159643867,-0.11952549852607827,nan
1740793659.7132933,-0.5757612081445339,-2.5795352491704984,0.42142208719114166,0.4358766601121581,nan
1740793659.717199,-0.6638719496571251,-1.8107312406283325,-0.5362309999990255,0.32596527121727986,nan
1740793659.721105,-0.3703669652419928,0.3959672920330592,-0.5664018224772274,0.2782991680050647,nan
1740793659.725011,0.2052793115149207,2.1999026788452065,0.3866642669792335,0.7189335688238646,nan
1740793659.7289171,0.5906288521566707,2.419590347850338,0.863160620468294,1.0813051087346972,nan
1740793659.7328231,0.32701625724276523,1.2711677690468464,-0.24626599337898908,0.5223494205133232,nan
1740793659.7367322,-0.4296560959595469,-0.28025976094752414,-1.9786002196900405,-0.844901548940482,nan
1740793659.7406383,-0.8884226409574318,-1.4867855155943632,-2.0905875604178124,-1.8191819305917374,nan
1740793659.7445443,-0.40855357753892974,-2.0646751490973623,0.24884115502976417,-1.3769549321288441,nan
1740793659.74845,0.707974260581762,-1.862200387790289,3.0416490901628332,0.12750984212326175,nan
1740793659.752356,1.393925944873965,-0.7719355059412887,3.3178235344084075,1.2948963402809135,nan
1740793659.756262,0.9040944419185046,0.8798880358227207,0.44966598978237227,1.1994653600483844,nan
1740793659.760168,-0.35074221798233096,2.148673500821849,-2.864777939877347,0.3159285967928974,nan
1740793659.764074,-1.1978446862630867,2.0813772822114975,-3.3103861967511743,-0.2060867332385477,nan
1740793659.76798,-0.9366448413573066,0.664767334815767,-0.5084109523179131,0.02107637456338823,nan
1740793659.771886,-0.04399557654359803,-0.9798561476461847,2.538069713322699,0.25166070737238494,nan
1740793659.775792,0.4369533049800283,-1.5517258564889613,2.6587225338487457,-0.27768101494727515,nan
1740793659.779698,0.10469857044244056,-0.7775570546337879,-0.1345836634313446,-1.1939605977545247,nan
1740793659.783607,-0.3949518361165058,0.38767405081357664,-2.7951517597999533,-1.3119968501993489,nan
1740793659.787513,-0.2131402027825226,0.7744006855070097,-2.584136263551022,-0.11316258578866964,nan
1740793659.791419,0.6274393571138666,0.1447470631745449,0.14090484072760595,1.4331753132320058,nan
1740793659.7953248,1.2055650873123855,-0.698464143650158,2.5890390118247786,1.7998652549913403,nan
1740793659.7992308,0.7567486421706511,-0.8456409474482407,2.6054442028119817,0.5850712714275461,nan
1740793659.8031368,-0.42294571882232745,-0.18813457795164895,0.6572244853741146,-0.9984644984413118,nan
1740793659.8070428,-1.267192168919702,0.6079682430083878,-1.153108884318018,-1.4204106401277128,nan
1740793659.8109488,-1.0723266177487158,0.8785703199515903,-1.4951478867965888,-0.45121933082531707,nan
1740793659.8148549,-0.1792771534010569,0.5677067535869862,-0.8379985197763339,0.7024970604001319,nan
1740793659.8187609,0.5085953157043199,0.09504595600410032,-0.32539654454947886,0.8153745074489516,nan
1740793659.8226666,0.528698173474629,-0.194032244961086,-0.2666574468755315,-0.05263579305077542,nan
1740793659.8265727,0.21937429177668671,-0.30757521244339303,-0.08232367118400764,-0.7831654180374722,nan
1740793659.8304818,0.12966251789226357,-0.393041848930369,0.5560294717301028,-0.5516615474255984,nan
1740793659.8343878,0.3016475102015448,-0.4297279506410513,1.0980572276269824,0.3083457233508351,nan
1740793659.8382936,0.3029950665556807,-0.2583528861864131,0.8232242041155464,0.8198053962312961,nan
1740793659.8421996,-0.11206616549692744,0.1260700937432723,-0.13041671354735107,0.5051216968818166,nan
1740793659.8461056,-0.6065223573272247,0.44797559196873105,-0.8184724068268714,-0.1896321732722364,nan
1740793659.8500116,-0.6416190272310867,0.4015696646161345,-0.579834005054432,-0.5370458613634708,nan
1740793659.8539176,-0.1463349076506921,0.0016721035821064348,0.20411837584454096,-0.33967172671501256,nan
1740793659.8578236,0.3712228479315151,-0.3851351057583544,0.5948113482620824,0.015469905112466415,nan
1740793659.8617294,0.41265891158542733,-0.3893919393584478,0.1852059164647281,0.14752741710800193,nan
1740793659.8656354,0.05627466795616373,-0.0008993907004265193,-0.5166567716099721,0.08630716095415211,nan
1740793659.8695414,-0.1789002229192696,0.43129862845815414,-0.7617597579878831,0.0617316385571186,nan
1740793659.8734474,0.014583453266364923,0.5425070182407958,-0.3788926723208286,0.10189125750703608,nan
1740793659.8773563,0.36447226222239343,0.2760946102189525,0.19548381316217753,0.031197168090006392,nan
1740793659.8812623,0.3653512485490325,-0.11789623013448385,0.5280364822750921,-0.17997566271274523,nan
1740793659.8851683,-0.09788198228671546,-0.358851895008822,0.5808473086479337,-0.27408269490892295,nan
1740793659.8890743,-0.5959575589276812,-0.3783815567866475,0.4994781344949113,-0.028246154059921112,nan
1740793659.89298,-0.632210568738359,-0.3044311379898995,0.27626782195196314,0.38070878344957343,nan
1740793659.896886,-0.1764891349478197,-0.2541268639209845,-0.167152292146441,0.49790383679535916,nan
