timestamps,TP9,AF7,AF8,TP10,Right AUX
1740792695.0622575,0.2565369381581294,-0.07624954597933427,-0.2523380277748926,-0.1111295836832514,nan
1740792695.0661633,0.19311364954170246,-0.12126300779660867,0.3642335856285089,0.3477316126272094,nan
1740792695.0700693,0.059487845857799385,-0.012414921110946001,0.738185550308511,0.5634867261290919,nan
1740792695.073975,-0.08584416230271803,0.18369120603598782,0.6251434332332148,0.35760452753700683,nan
1740792695.0778809,-0.18422635769294754,0.24807900614866826,0.16212830945377824,-0.05954774496036567,nan
1740792695.0817866,-0.2085055728556589,0.06607322616644652,-0.2818280889330436,-0.31089579610299756,nan
1740792695.0856924,-0.17087119609548976,-0.19989770633530674,-0.4349162657831601,-0.24238113999935793,nan
1740792695.0895984,-0.09530681390197854,-0.2640954125554553,-0.3063631151142797,-0.04168537439290848,nan
1740792695.0935042,0.007414234075965618,-0.04753014744429156,-0.08831023614171371,0.02682760737275819,nan
1740792695.09741,0.12255741727894161,0.20931379155442498,0.05723562540585622,-0.0685697407304602,nan
1740792695.1013157,0.1993813026468271,0.20993188726662337,0.0912725245605012,-0.1375980333635865,nan
1740792695.1052215,0.1735876953292949,-0.051807233625528575,0.039893445157556676,-0.04474526873963403,nan
1740792695.109131,0.0475728619242861,-0.27295182726424105,-0.0629826852275419,0.12264132615829978,nan
1740792695.1130369,-0.07225197134583708,-0.18408492011500643,-0.1477018149086201,0.19482247614573953,nan
1740792695.1169426,-0.06602010604133406,0.13965394064366166,-0.0946550658770387,0.14917218222456713,nan
1740792695.1208487,0.05347876819052833,0.3567752392269198,0.15825017604090535,0.10707660602947698,nan
1740792695.1247544,0.12103455147845985,0.2325569115581989,0.47704700746649037,0.1180563428559226,nan
1740792695.1286602,-0.007044335532789595,-0.11644396469244735,0.5728628695972829,0.06059792301539745,nan
1740792695.132566,-0.25953856842215295,-0.36210110061699186,0.26017014891189716,-0.16918564675333891,nan
1740792695.1364717,-0.3811061039245829,-0.3045146178062118,-0.31696425502453796,-0.432686866841466,nan
1740792695.1403778,-0.19653377794022123,-0.03648235585263371,-0.763509258649343,-0.43805179313469345,nan
1740792695.1442835,0.17303539785928174,0.20137660241714395,-0.772597427010149,-0.09218462467403665,nan
1740792695.1481893,0.4071404024170161,0.2640476348160836,-0.3815523958710533,0.3256248056957244,nan
1740792695.152095,0.31561511708529777,0.18233501339582872,0.11184129294263626,0.4386424166707335,nan
1740792695.1560044,0.0363593480948469,0.05785448793989878,0.44894706300331433,0.20164252366296284,nan
1740792695.1599102,-0.1299614306129175,-0.05137395211311622,0.5825330160164884,-0.048593962091549286,nan
1740792695.163816,-0.06154012721913238,-0.13489152844255284,0.5750983347274756,-0.01335112096418837,nan
1740792695.167722,0.06445342884344069,-0.17767634234254556,0.42616793546753673,0.1852256099566717,nan
1740792695.1716278,0.01126038198167813,-0.15429886077268987,0.0890600928986494,0.15460001273970292,nan
1740792695.1755335,-0.21038019328016716,-0.06872794505799637,-0.355863756781701,-0.24259396365862199,nan
1740792695.1794393,-0.34163391819153105,0.035545651052274765,-0.6506311266065016,-0.642573887365903,nan
1740792695.183345,-0.18572335107769514,0.11525794124789432,-0.5717880644881316,-0.5602639365267261,nan
1740792695.187251,0.14426900223942446,0.15666388421260694,-0.18756962036894312,0.027378813339664996,nan
1740792695.1911569,0.3401042021308939,0.15697263129236289,0.1666771790513478,0.599953253281138,nan
1740792695.1950626,0.24105924768526812,0.10296950514122483,0.21385166986818166,0.6415532655846172,nan
1740792695.1989684,0.0005571948490074062,-0.004537644756556169,0.015723721325450617,0.19217733112479093,nan
1740792695.2028775,-0.11011055097891426,-0.11731606312865996,-0.10803520920608514,-0.233620585999702,nan
1740792695.2067833,-0.01546898580117626,-0.1684586670961061,0.06314749882713454,-0.2468196833287688,nan
1740792695.2106893,0.10318853550439827,-0.14522558859492637,0.4096817482901146,0.012569852563861273,nan
1740792695.214595,0.05127835560049221,-0.1015549385480591,0.5980106999933652,0.11789625119055559,nan
1740792695.2185009,-0.13984747627240687,-0.07248945492888613,0.4171151268024621,-0.09322229223124226,nan
1740792695.2224066,-0.2585632944446738,-0.0046947958494239555,-0.034734227669489054,-0.3392524734672954,nan
1740792695.2263124,-0.1675145198674543,0.17033332557252714,-0.4713284316582054,-0.27452169469270316,nan
1740792695.2302184,0.0461485739494487,0.38292679503147503,-0.6729267224640906,0.07132456433229004,nan
1740792695.2341242,0.1854403324548455,0.4099999447875007,-0.6108567909234718,0.33436140787357926,nan
1740792695.23803,0.16016990947753904,0.09218795407759595,-0.378580543779581,0.2605070149668832,nan
1740792695.2419357,0.04964954807573077,-0.42406723698214144,-0.07115901951907799,-0.008603398816678227,nan
1740792695.2458415,-0.025749246046046993,-0.729382789879408,0.25239774451345004,-0.13927333351458335,nan
1740792695.2497506,-0.03557000666188687,-0.5097772634584629,0.533873642173819,-0.015265090644730412,nan
1740792695.2536564,-0.02443176590956359,0.12205592344818902,0.6927443914942107,0.1537017726014424,nan
1740792695.2575622,-0.016328750215769013,0.6845923853721498,0.650007759183712,0.12252774215071649,nan
1740792695.261468,0.009160612478002537,0.7442798195659494,0.37176552176801175,-0.09039349581132211,nan
1740792695.2653737,0.049904378185514596,0.28582185443130903,-0.09121113069005125,-0.2527375948375214,nan
1740792695.2692797,0.0485001290280652,-0.3105440482711598,-0.5789489575210042,-0.21067345675226185,nan
1740792695.2731855,-0.03503225466343159,-0.6207100790555954,-0.8541756595850984,-0.04143971837331522,nan
1740792695.2770913,-0.14218725164488114,-0.4968359195584835,-0.7344598955986315,0.08844926063317526,nan
1740792695.280997,-0.15738842227630143,-0.10166852402903986,-0.26354900827653466,0.1273011685199121,nan
1740792695.2849028,-0.041692543473300064,0.27946939093056145,0.2561437496006878,0.1373075192641649,nan
1740792695.2888086,0.10914003381222992,0.4318325953933988,0.47939356884453155,0.1397433360497788,nan
1740792695.2927146,0.16631407396628323,0.2980049079862392,0.32984586103321883,0.06625196216152822,nan
1740792695.2966232,0.1085881078693565,-0.01433165577894993,0.08399199500889111,-0.10364782387162136,nan
1740792695.300529,0.02755388380120897,-0.28168520066913405,0.08782677627976937,-0.2350582112935969,nan
1740792695.304435,-0.0013846285506534212,-0.29875161461038696,0.36879294729414247,-0.15918265501357606,nan
1740792695.3083408,-0.007257805242278665,-0.052173877407049256,0.5705491261730371,0.09841378741069041,nan
1740792695.3122466,-0.0563511942166866,0.23288577097788613,0.32129081517564845,0.2895085151983585,nan
1740792695.3161523,-0.13049929655230325,0.2814102412472591,-0.33799595081905265,0.19622780981269008,nan
1740792695.320058,-0.13053160248757584,0.04423705935155303,-0.9357267988841839,-0.11506849038976313,nan
1740792695.3239639,-0.013702017416121298,-0.23818759628519198,-1.0013886923447075,-0.34680866619428435,nan
1740792695.32787,0.12040579504082662,-0.28370265607006234,-0.49913197422429273,-0.28031124847591915,nan
1740792695.3317757,0.12950857858908194,-0.06729815161327089,0.17610912368428192,0.008312906077580912,nan
1740792695.3356814,0.004027513976545931,0.16890565836596658,0.5955005362858743,0.25499741388915725,nan
1740792695.3395872,-0.10765480691748304,0.20174147967836145,0.6430277784653761,0.28553278773732654,nan
1740792695.3434958,-0.0715939858054599,0.06364915559626165,0.48862357823536395,0.14561335686423532,nan
1740792695.3474016,0.0685661020221437,-0.044753237951654444,0.3127182908570554,-0.015749830949345393,nan
1740792695.3513076,0.14366711830007173,-0.02889600488971417,0.13952907764662506,-0.11488595835029933,nan
1740792695.3552134,0.06560394507731217,0.003651299823898137,-0.07642652569384682,-0.1555225218525593,nan
1740792695.3591192,-0.06864991125753542,-0.06162536221883079,-0.30016469299751425,-0.14284444729881607,nan
1740792695.363025,-0.10428694274353324,-0.14611837585990226,-0.4249176131100835,-0.05840390242676117,nan
1740792695.3669307,-0.02300882538446189,-0.07091470248619769,-0.40390682865379784,0.0696493707776982,nan
1740792695.3708367,0.043119824071529894,0.16483731545664643,-0.29935177779741085,0.13945814766962747,nan
1740792695.3747425,-0.007519870106054858,0.3102569120981955,-0.18038878242815676,0.07612834054604817,nan
1740792695.3786483,-0.10699166339668022,0.14262527429011476,-0.02926668609243045,-0.05866983696958835,nan
1740792695.382554,-0.10246655852377837,-0.22687875129053905,0.19734010272917282,-0.11492441954394117,nan
1740792695.3864598,0.042038015950765194,-0.42966377042243614,0.43859134096685143,-0.02726542612657422,nan
1740792695.3903682,0.18548279348294536,-0.24708572122515107,0.5352551239159402,0.1016296282294743,nan
1740792695.394274,0.1711000523725358,0.13384848278701414,0.3959696346105989,0.12264174106100618,nan
1740792695.39818,0.010174813352453994,0.335590874344084,0.11314938148864577,0.018734751678344146,nan
1740792695.4020858,-0.13512679234932046,0.2192422297426329,-0.13711180446233823,-0.08485586907676185,nan
1740792695.4059916,-0.13938162956529573,0.006857044017341756,-0.2894211351472828,-0.08458240541993643,nan
1740792695.4098973,-0.03796112746713612,-0.034694486734457367,-0.41452573144729715,-0.016851823440890517,nan
1740792695.413803,0.04796371910560226,0.07023699416044413,-0.5339367493477378,0.017751618544603876,nan
1740792695.417709,0.06380887934314451,0.07626028176177801,-0.49074052553277037,0.003207672838461657,nan
1740792695.421615,0.051553528764791474,-0.11975725999438579,-0.10936612746962952,0.01338863604996964,nan
1740792695.4255207,0.045006830007177555,-0.31657208616626087,0.5034578385615994,0.07070379728484501,nan
1740792695.4294264,0.004525095006074555,-0.2675246897271662,0.9141580946929325,0.0782066183368747,nan
1740792695.4333322,-0.10342098734334082,-0.013838800040154796,0.7261927533951534,-0.04704399038553566,nan
1740792695.437242,-0.20034446601093925,0.16090636615770657,0.009846976767897099,-0.210256905386134,nan
1740792695.4411478,-0.14395960435853408,0.1049623269166989,-0.6891489308551382,-0.2009289971104762,nan
1740792695.4450536,0.09117316725145826,0.0007518417270670348,-0.8255734561251803,0.047068980470897644,nan
1740792695.4489594,0.3263679197894779,0.10707217245640216,-0.34726904240949147,0.3207921332569692,nan
1740792695.4528651,0.3302673455421726,0.3680710731506789,0.29211749083445926,0.3311279196452884,nan
1740792695.4567711,0.06547104883215955,0.423439769402854,0.5863580607159306,0.04525300724555358,nan
1740792695.460677,-0.25148720515132694,0.05321665502294478,0.41153022631413405,-0.2559067478611865,nan
1740792695.4645827,-0.35874930049456916,-0.4904938538363033,0.03499317458120674,-0.28779633804609306,nan
1740792695.4684885,-0.2015058189196253,-0.7104231281516608,-0.2222187777737898,-0.07800460685804746,nan
1740792695.4723942,0.042305878794626335,-0.40929530314743656,-0.2657917525902557,0.09328678066287939,nan
1740792695.4763002,0.1684460833958045,0.09640164903665034,-0.2032605208226786,0.048797766485635524,nan
1740792695.480206,0.13821362961501624,0.34860763709398374,-0.14222747799201857,-0.08097916863547869,nan
1740792695.4841154,0.05962598179632608,0.24918788340255565,-0.08243043744503048,-0.05482613256959252,nan
1740792695.4880214,0.025715545119202494,0.09560854766309908,0.018521620984698315,0.1431080520787281,nan
1740792695.4919271,0.022580050804262022,0.1503573764687193,0.14852275119693129,0.2675660210833226,nan
1740792695.495833,-0.006555492155833254,0.3094955221578993,0.24424000751959352,0.12698542724144868,nan
1740792695.4997387,-0.06008101101182529,0.2708097956881458,0.2592002824727182,-0.15618330749204834,nan
1740792695.5036445,-0.08019578204441975,-0.0498954342000846,0.19262422648736383,-0.2787111320070235,nan
1740792695.5075502,-0.039330536202022696,-0.3985851962438019,0.06503636830126906,-0.11952006552499665,nan
1740792695.5114563,0.018948050156318612,-0.4891672556501243,-0.09375504818551413,0.12326704882512655,nan
1740792695.515362,0.03756044306706383,-0.31831396649172133,-0.22858059026523936,0.18427647705902642,nan
1740792695.5192678,0.015380034884068404,-0.10052338026097048,-0.2750854695749245,0.041947040599315734,nan
1740792695.5231736,-0.005406748840383282,0.03745219730999438,-0.22510828146311107,-0.09785443940976851,nan
1740792695.5270793,-0.005223453548715852,0.16603739781648907,-0.15157794577121894,-0.09254280865316701,nan
1740792695.530989,-0.006051849913336599,0.3450863838854228,-0.12046632350691994,-0.02596521870000879,nan
1740792695.5348947,-0.02093154324799281,0.4433430898851647,-0.07922282872502753,-0.03944617519501111,nan
1740792695.5388005,-0.019430386646627693,0.2865432062184912,0.10527137284897126,-0.09205847781598943,nan
1740792695.5427063,0.027978083436557163,-0.056809476326771954,0.4483944352358772,-0.009420971541422216,nan
1740792695.546612,0.08673675416233824,-0.2842919503831293,0.719493282155454,0.22909163045894257,nan
1740792695.550518,0.07944756569041585,-0.213644582274492,0.6004345231740933,0.376123893372971,nan
1740792695.5544238,-0.01611637508949843,-0.027966660756203437,0.026919380526806203,0.18728005546419763,nan
1740792695.5583296,-0.1181057612025711,-0.04792625636172166,-0.6575298577868494,-0.23567678069903517,nan
1740792695.5622354,-0.12051155556021112,-0.28865243536871166,-0.9567432738832734,-0.4925960099074923,nan
1740792695.5661411,-0.016813713094498,-0.3932874866962567,-0.6653014524183212,-0.32109699018115156,nan
1740792695.5700471,0.0858214877197513,-0.08433565969896546,-0.047149207319713456,0.09130361145330175,nan
1740792695.573953,0.08671154393883355,0.42204937113538954,0.4329088523557623,0.3150257331256115,nan
1740792695.577862,0.0038123800999569925,0.6084743741147282,0.5294954145096432,0.17147938361878698,nan
1740792695.5817678,-0.056072642336005236,0.2728786714569288,0.35588971564169164,-0.08323929661649479,nan
1740792695.5856738,-0.027714718111355504,-0.1944975490868407,0.1562535690727153,-0.10162065353265505,nan
1740792695.5895796,0.042262401913166554,-0.2622390152595584,0.029712486776639582,0.11903587248586019,nan
1740792695.5934854,0.06266152640572786,0.08708281032354209,-0.08253324155677748,0.2499686275018354,nan
1740792695.5973911,0.008560590003575862,0.32010156838930426,-0.2045014652366002,0.06586471121635842,nan
1740792695.601297,-0.05912277043598256,0.016816606550078276,-0.23244053844410062,-0.2545426386020491,nan
1740792695.6052027,-0.07307734847050802,-0.5675933851985332,-0.07776333211488137,-0.34049425754920376,nan
1740792695.6091087,-0.028334877212423816,-0.7575997979177184,0.1579623997798693,-0.0835900762593216,nan
1740792695.6130145,0.032482816459766826,-0.2528977349511735,0.23921542682169583,0.231985243932768,nan
1740792695.6169202,0.07202293661311544,0.4891859293536382,0.050395137397511496,0.2726370415560276,nan
1740792695.620826,0.0738630974311292,0.754338668879549,-0.25315452041387837,0.03552233906973784,nan
1740792695.6247349,0.027264429828977487,0.36345557446884375,-0.3898084897719698,-0.18857115581496575,nan
1740792695.628641,-0.061332273714068186,-0.17396334045863418,-0.23514808106852159,-0.18265943482456734,nan
1740792695.6325467,-0.13548703499979717,-0.2902674062187262,0.07149473230055896,-0.024167204432697063,nan
1740792695.6364524,-0.11111307778900316,0.009291035042177175,0.2956750712485661,0.08101918970584532,nan
1740792695.6403582,0.02752042227472757,0.24377840084099933,0.33563602307861523,0.07806348141151363,nan
1740792695.644264,0.16879130541159743,0.0908710287256781,0.2598577915756162,0.07681695747765087,nan
1740792695.6481698,0.16343549277991062,-0.2525433704521255,0.16200007049760345,0.1258328367226106,nan
1740792695.6520758,-0.0030528435221113498,-0.38193076624794403,0.048388531868343576,0.1095641721529243,nan
1740792695.6559815,-0.16252995508689416,-0.20608306639054244,-0.11179977207140027,-0.06379577876394997,nan
1740792695.6598873,-0.1347699901428546,-0.003829621682987758,-0.27758229779748045,-0.2601744777709781,nan
1740792695.663793,0.05811889950461901,0.0038489961689742542,-0.34146193636601285,-0.2358821899177781,nan
1740792695.6676989,0.19549425818589983,-0.042499465568158264,-0.2520497106067687,0.0333503352362368,nan
1740792695.6716077,0.10229360987217133,0.13001602664476702,-0.0884766074720353,0.2565461116735944,nan
1740792695.6755135,-0.14161205737410948,0.4857543153424644,0.02200194231876049,0.1525353026452248,nan
1740792695.6794193,-0.2803079723960627,0.6383805483012166,0.04831091700715106,-0.17743365542153391,nan
1740792695.683325,-0.16496624525878456,0.2986286984734409,0.08255220893048683,-0.32306206449566544,nan
1740792695.687231,0.0890176343837942,-0.3385057680174238,0.21182304128576693,-0.047439347104970844,nan
1740792695.6911368,0.24692495951324833,-0.756206236003766,0.38571309531482156,0.3940882686205019,nan
1740792695.6950426,0.21242818238438899,-0.6439993183241345,0.4379912543912208,0.5124390437672577,nan
1740792695.6989484,0.08929717243309143,-0.1797381548986903,0.24651573583508912,0.14112091784726305,nan
1740792695.7028542,0.005439659226579433,0.21978612407897258,-0.13349085170007863,-0.36500510450443313,nan
1740792695.70676,-0.043848962715781294,0.33422391898290715,-0.4935179001115026,-0.5244687798240643,nan
1740792695.710666,-0.13237005521089898,0.2636951342816625,-0.6251529864681101,-0.24794954043812395,nan
1740792695.7145717,-0.23749943154712055,0.1902758944116399,-0.4652910305289325,0.11654751230106243,nan
1740792695.7184803,-0.23199865948840645,0.1478890126684549,-0.12374142923827036,0.22143644118658526,nan
1740792695.7223861,-0.06115735932774203,0.0644106106070203,0.20852101818437446,0.08754014021508968,nan
1740792695.726292,0.14751496499451738,-0.06677410147411082,0.38824998649103165,-0.009891117195631769,nan
1740792695.7301977,0.2212888987309591,-0.16089294365017967,0.3924048365423851,0.0703609254244781,nan
1740792695.7341034,0.1585752204922328,-0.16987473447452786,0.2920621280210296,0.18259961307368933,nan
1740792695.7380095,0.11874408657337378,-0.14023998239334348,0.16414348561711464,0.13029129869871736,nan
1740792695.7419152,0.17421800534263168,-0.11163584643949817,0.029217454185376288,-0.062187476421545373,nan
1740792695.745821,0.16525571725370652,-0.03673997642589354,-0.12433723057865442,-0.19735494820129681,nan
1740792695.7497268,-0.09714320310179533,0.12093003155548752,-0.2672386788334503,-0.1710544626419647,nan
1740792695.7536325,-0.5050182804695172,0.2508205322627742,-0.31185742440253633,-0.07930274506998222,nan
1740792695.7575386,-0.6595221652490711,0.17255322946804869,-0.19719746440917083,-0.04194247046655382,nan
1740792695.7614443,-0.2924676637320985,-0.11052585159895623,0.012900270855284484,-0.02331548093303707,nan
1740792695.7653527,0.3666814935152179,-0.3253098351720573,0.15423710957356998,0.08287816071906755,nan
1740792695.7692585,0.7583468623377294,-0.20183262761260917,0.11647613770644451,0.23634299426107547,nan
1740792695.7731643,0.5603691663716117,0.18119398927167157,-0.034642881677155554,0.24341377397318184,nan
1740792695.7770703,0.01602900731554835,0.4309422101648465,-0.11924309773958759,0.013811453115052923,nan
1740792695.780976,-0.3592262874831432,0.2733496593079025,-0.03547018732686315,-0.2624867535902709,nan
1740792695.7848818,-0.33797985577396294,-0.11989355836215991,0.13454462669656692,-0.29702867422183604,nan
1740792695.7887876,-0.14626431255857034,-0.32842010395533494,0.22714424573466158,-0.04861422401260154,nan
1740792695.7926934,-0.08289259355672768,-0.18262065274311048,0.18012344180922066,0.21111957420353636,nan
1740792695.7965991,-0.12358042525391112,0.05114950407096808,0.0739836236366247,0.21760486585030547,nan
1740792695.8005052,-0.023655154673169476,0.03481830173118858,-0.002874370348057964,0.021298591880135748,nan
1740792695.804411,0.2532526551954827,-0.19164492000391609,-0.06919557422418647,-0.10869783201265251,nan
1740792695.8083167,0.4013185931052558,-0.25890603196889445,-0.1849326854890308,-0.05051023204439854,nan
1740792695.8122263,0.15893096861928382,0.03632823571250945,-0.3040875503716883,0.02731993273752346,nan
1740792695.8161323,-0.2862929635626725,0.42774637749476935,-0.2791754076651418,-0.0627820028243524,nan
1740792695.820038,-0.4531081132165941,0.47753661581027773,-0.0526567587230362,-0.21993237055381565,nan
1740792695.8239439,-0.14225704944207215,0.11601098124877281,0.21079770754553284,-0.15858896610362552,nan
1740792695.8278496,0.2963555199847634,-0.26186210411124844,0.26711624291330793,0.1816513266485977,nan
1740792695.8317554,0.3794567039420875,-0.27524266278525644,0.07913848477052811,0.4730708663585711,nan
1740792695.8356614,0.0811285859925919,-0.011425769872787811,-0.11030554155989032,0.3530644559548817,nan
1740792695.8395672,-0.16598734167939855,0.11599850913341223,-0.04867080500444754,-0.11714024656150272,nan
1740792695.843473,-0.06962785921808029,-0.08445019005693627,0.21508385264230329,-0.4806998402457561,nan
1740792695.8473787,0.12057569613850795,-0.33466770746746216,0.3671173218155977,-0.39878171708312193,nan
1740792695.8512845,-0.023921478250231464,-0.25696583893729463,0.19336668042378172,-0.024627785630955704,nan
1740792695.8551903,-0.44361325015756853,0.11987243767001189,-0.1619623713700375,0.22018419936107347,nan
1740792695.8590999,-0.55652579578049,0.37732641578776105,-0.364825567624178,0.1651858858567343,nan
1740792695.8630056,-0.007684857788046203,0.23308504472379538,-0.2833193023509722,0.03695262725835324,nan
1740792695.8669116,0.7391511813914634,-0.09539085854730417,-0.11825739649197538,0.07462541020085828,nan
1740792695.8708174,0.8350523596082241,-0.16001520013237022,-0.11536989529202925,0.1717562112149862,nan
1740792695.8747232,0.08951245275670772,0.14850801607360256,-0.23330779056855153,0.05386607599145718,nan
1740792695.878629,-0.6846971887715496,0.44469617215856516,-0.19749924267849317,-0.25741518509529154,nan
1740792695.8825347,-0.5818965319165511,0.3022353093404572,0.1274685662789954,-0.3792500158829607,nan
1740792695.8864408,0.2639698812479351,-0.23736653291935322,0.5276553773698047,-0.0637780774602604,nan
1740792695.8903465,0.7692632815423572,-0.7039877521153569,0.6657910734045628,0.39496992317798546,nan
1740792695.8942523,0.21736285400865105,-0.7055601199724726,0.456882498636181,0.45838194848827696,nan
1740792695.898158,-0.7897776509164296,-0.28775716297473514,0.12196211950192731,0.03031064021421447,nan
1740792695.9020638,-1.0140161241385393,0.21651123593355062,-0.1212650230353604,-0.3834705712570107,nan
1740792695.9059732,-0.1513942183377268,0.5617133860592897,-0.29907173109077867,-0.33262148911281963,nan
1740792695.909879,0.6982880016535883,0.7037807636589849,-0.5368052522561662,-0.052958363846279825,nan
1740792695.913785,0.4111538832567713,0.6164051556045893,-0.758684576841573,-0.1362310220627996,nan
1740792695.9176908,-0.5605198989012024,0.2028119411489713,-0.6938956013547805,-0.5585313558641483,nan
1740792695.9215965,-0.5291348564964657,-0.4852609144466472,-0.23031184409687996,-0.4282564987914135,nan
1740792695.9255023,1.2360774486958506,-1.0352501016391604,0.358255955149856,0.8981915205083983,nan
1740792695.929408,3.0495787693430505,-0.8968098530303891,0.6696564447701762,2.5287165230893156,nan
1740792695.933314,2.2229077305538705,0.0471364402262468,0.630315581045934,2.422424219917743,nan
1740792695.9372199,-1.7658479359421853,1.1686585641422726,0.5475340231344318,-0.42943025635922727,nan
1740792695.9411256,-5.881969419852806,1.4917425450162956,0.6437322111665039,-4.266471005656058,nan
1740792695.9450314,-5.967987101336197,0.5336385499116065,0.6690006546222592,-5.57264465323385,nan
1740792695.9489372,-0.9280478565339229,-1.1661367912706164,0.1624928617729014,-2.3722596913408047,nan
1740792695.9528465,5.653883541493952,-2.341578284534329,-0.8806866531972105,3.408679105121615,nan
1740792695.9567523,8.435731458561351,-1.9268493742043598,-1.7747734537357145,7.2091634482482965,nan
1740792695.960658,5.117423999741359,0.08349884692161395,-1.7368261019509343,5.82993206522643,nan
1740792695.9645638,-1.5441435341230931,2.483974071031092,-0.699235588525043,0.3416097952495996,nan
1740792695.9684696,-6.376340280263366,3.584284718235218,0.5939695425303403,-4.939133640657802,nan
1740792695.9723756,-6.342373416796143,2.3978392641817217,1.3336586979166039,-6.322348068229294,nan
1740792695.9762814,-2.6313826366826305,-0.5177520691430937,1.3756797438433346,-3.6560899356168037,nan
1740792695.9801872,1.2594684645202754,-3.293141620276073,1.1434520386196305,0.2719723925203378,nan
1740792695.984093,2.9722966464890406,-4.059017344639822,0.9184385790738807,2.7064472713136025,nan
1740792695.9879987,2.7581788051781797,-2.382198589504096,0.465032965627244,3.0454766344566195,nan
1740792695.9919045,2.083539376008447,0.42761978564679104,-0.5290441140328465,2.359989249166044,nan
1740792695.9958105,1.5483763296351936,2.4835405823130556,-1.7792883423886785,1.5564763716273597,nan
1740792695.9997194,0.5417885120539523,2.8783495345906154,-2.4063046733411024,0.5331892716614822,nan
1740792696.0036252,-1.338313367821525,2.117858702592923,-1.7151227774213782,-0.9973499858344576,nan
1740792696.007531,-3.1434252897028907,1.1183847956776254,0.07480277333422443,-2.4771226371696713,nan
1740792696.0114367,-3.2478281871356627,0.0711054867505991,1.9157343458540033,-2.7764412828408833,nan
1740792696.0153427,-1.1275932458561564,-1.404696026020286,2.70347013648841,-1.4651931919756978,nan
1740792696.0192485,1.7934150437726206,-3.062232447327853,1.9874036662316374,0.5327657002455697,nan
1740792696.0231543,3.2664423782073246,-3.5254796725871995,0.1459179912459553,1.7585667040367803,nan
1740792696.02706,2.2348905306879594,-1.5651277587877348,-1.8466111538686922,1.5960936367726097,nan
1740792696.0309658,-0.2469481605315628,2.060278699718004,-2.816804018650615,0.6874124202087666,nan
1740792696.0348716,-2.0412091333070537,4.569384124560621,-1.9696341558617319,0.050578197420123074,nan
1740792696.0387776,-1.840923834805101,3.577712944947225,0.4252986509877101,0.01586876215905816,nan
1740792696.0426834,-0.17038170545223263,-0.3120621081566808,2.824717786854044,0.12611522750351314,nan
1740792696.046592,1.3176027635109095,-3.7034581110948657,3.310049288589062,-0.10229707793964694,nan
1740792696.0504978,1.4129714145405006,-3.575072677153961,1.2212281285000692,-0.5872939170589097,nan
1740792696.0544038,0.28953383307868014,-0.2804816400858739,-1.9714464937474365,-0.8815580587632551,nan
1740792696.0583096,-0.9055570834947737,2.829720916587782,-3.7260636122262745,-0.7456921049025554,nan
1740792696.0622153,-1.2186958996280244,2.8418015691380805,-2.6935733090931704,-0.33460140446807357,nan
1740792696.066121,-0.6391072334129388,0.14463636188034967,0.030167545101741338,0.11389927809476952,nan
1740792696.0700269,0.1522444980729225,-2.254924165052889,2.051372152361398,0.5407442526426873,nan
1740792696.073933,0.5746121261229974,-2.055586633318705,2.0782309429755816,0.9163545777763951,nan
1740792696.0778387,0.5959086615769095,0.06788459236078856,0.9968562651501616,0.9983213790542104,nan
1740792696.0817444,0.4872258572281479,1.5619567810348935,0.4992067731182546,0.4923849026972137,nan
1740792696.0856502,0.34813610453038735,0.9556243757205699,0.9376190999405003,-0.4762956450459218,nan
1740792696.089556,0.04113089956494837,-0.7024428432712646,0.9709010524587619,-1.223587419685337,nan
1740792696.0934646,-0.4375169173640377,-1.3177672332343353,-0.5758035973442277,-1.051846847042392,nan
1740792696.0973704,-0.7339267480501346,-0.1839646959395475,-2.9082066704500438,0.005940948819616126,nan
1740792696.1012764,-0.47199452815712367,1.4009639808616403,-3.7997930890821916,1.0808342338355963,nan
1740792696.1051822,0.20617576683030803,1.7650446698166913,-1.9948368078059215,1.212828459437221,nan
1740792696.109088,0.6325163765077899,0.6424690410340389,1.2680778822091106,0.23947850485258584,nan
1740792696.1129937,0.302923790305499,-0.8304406673578537,3.4119265933860334,-1.0473763707551529,nan
1740792696.1168995,-0.47597799070178837,-1.5390334771220449,3.0813763381222072,-1.601672767007553,nan
1740792696.1208053,-0.8144623246099078,-1.3776717928574016,1.2583348348856451,-0.9832302644930528,nan
1740792696.1247113,-0.2057841286346056,-0.8551799212908192,-0.16427196255817225,0.36965225448873507,nan
1740792696.128617,0.8383502527209122,-0.21259122888338897,-0.5116780711947315,1.5588410030473936,nan
1740792696.1325228,1.2704497499248084,0.667729128155017,-0.6800977729529132,1.8639675300584369,nan
1740792696.1364286,0.6247207431521041,1.612608736561723,-1.5274207041555912,1.1240512909058007,nan
1740792696.140337,-0.49070793207535535,1.9138610100005131,-2.475496744117885,-0.253144197811711,nan
1740792696.144243,-1.0874945423689069,1.0360618258067187,-2.108545963111913,-1.5304381691534112,nan
1740792696.1481488,-0.8484257998167593,-0.5799317716666575,-0.017360673756894148,-2.0073018204480295,nan
1740792696.1520545,-0.3076969952139296,-1.743759628923909,2.3980117190367807,-1.4020308175019254,nan
1740792696.1559603,-0.030257056995685986,-1.6446509133323512,3.1941503905222244,-0.0502531186490523,nan
1740792696.159866,0.09489029443352623,-0.6062192115602703,1.8099305917152977,1.2713516738380368,nan
1740792696.163772,0.5200228498169712,0.37227231230640806,-0.4549589409281994,1.829984107214922,nan
1740792696.1676779,1.1459379287249918,0.6789176550004606,-1.7982121861652056,1.3778951457823816,nan
1740792696.1715837,1.1739652279199753,0.5176276830212997,-1.5322408187326149,0.23269067705165647,nan
1740792696.1754894,0.09039609571258057,0.36542434056694756,-0.37430647376683557,-0.9774272549902243,nan
1740792696.1793952,-1.4004131102659931,0.31338279425252596,0.5318819372780881,-1.632256785363895,nan
1740792696.1833012,-1.846886792749365,0.12432661200432904,0.6093660951568742,-1.3435493344733431,nan
1740792696.1872108,-0.6328487657207876,-0.23019763537212884,0.026089671789593222,-0.14752163880052158,nan
1740792696.1911166,1.1404104757063767,-0.4130859331048671,-0.6741950988569596,1.3378164991552102,nan
1740792696.1950223,1.6833565892262443,-0.18859284338347046,-0.9124251539583283,2.0664562200517334,nan
1740792696.198928,0.46132121383490216,0.1774012753086364,-0.32704941033936547,1.2480726915003493,nan
1740792696.2028341,-1.1571087095601698,0.21015505111232757,0.8864092989306278,-0.8131755329170858,nan
1740792696.20674,-1.3843932372882828,-0.13695194248107034,1.83396356617727,-2.6059652236010593,nan
1740792696.2106457,-0.00315233310791467,-0.3799903492052644,1.4987027925117025,-2.4951231896713826,nan
1740792696.2145514,1.4136969990051527,-0.13322878102109134,-0.19337197104019216,-0.25881424510730866,nan
1740792696.2184572,1.3066672193095266,0.3396048973927627,-1.963949344063004,2.4258131594268386,nan
1740792696.2223632,-0.13433054628513452,0.41690445295104805,-2.2109044295831084,3.2902682056340935,nan
1740792696.226269,-1.2865726204181271,-0.07242294593547542,-0.6426309153830901,1.5390037942807475,nan
1740792696.2301748,-1.013554998323964,-0.5680074813448616,1.2856748287452189,-1.3269401102641538,nan
1740792696.2340844,0.11573036305961716,-0.4329470815592893,1.8092854893091348,-2.857470400957015,nan
1740792696.2379901,0.683982411891428,0.25201509232071656,0.687662817381805,-1.9322831492300865,nan
1740792696.241896,0.20218224275914615,0.7618041849006791,-0.6374596018131672,0.2810579802508906,nan
1740792696.2458017,-0.4011894861101491,0.5874760953322488,-0.7625559537120736,1.6269688472600907,nan
1740792696.2497075,-0.11297608978612905,0.004451014588065586,0.09317552156048205,1.1313918029275223,nan
1740792696.2536132,0.7615599157361916,-0.34794036157128616,0.5126569927579173,-0.2099054865435288,nan
1740792696.2575192,0.9427332853837583,-0.2937257946525845,-0.2358058592231039,-0.7416618879435997,nan
1740792696.261425,-0.13592251208240946,-0.2566823388332947,-1.2015455075753154,-0.018080705512774565,nan
1740792696.2653308,-1.4337460100795825,-0.5381151401999297,-0.915919868670474,0.8307023805621975,nan
1740792696.2692366,-1.4114618676686286,-0.7424292153637535,0.6829561167609313,0.5501250241427995,nan
1740792696.2731423,0.1216717366033975,-0.2182947483218465,1.967094203468758,-0.6907448346162596,nan
1740792696.2770483,1.6582740404565566,0.9529352899276398,1.4280277269597315,-1.4402463622280055,nan
1740792696.2809577,1.625859500592102,1.725240893565895,-0.5273235518104086,-0.6387539987907591,nan
1740792696.2848635,0.11949824077264641,1.106201794574043,-1.942397843573026,1.0749501131087134,nan
1740792696.2887692,-1.270291928605034,-0.630580160713486,-1.4449578398159733,1.9309279160359516,nan
1740792696.2926753,-1.279594317150729,-1.9868090015840805,0.3061784780981879,0.8976191756671162,nan
1740792696.296581,-0.2803866813780369,-1.6516495979509684,1.4565249045321056,-1.1621454396914677,nan
1740792696.3004868,0.3832108392112025,0.15512643184127609,0.9971529452038302,-2.303199973221635,nan
1740792696.3043926,0.10061727670465502,1.8359989851925616,-0.33122728497410486,-1.431754064654912,nan
1740792696.3082983,-0.3592612848257671,1.9177418873545051,-1.1008554662466512,0.6420791610807441,nan
1740792696.3122044,0.02995121685408421,0.3799125332294243,-0.762922765345814,2.06031999264258,nan
1740792696.3161101,1.129822783560247,-1.4390115988837642,0.06944045076070729,1.7238173855844003,nan
1740792696.320016,1.6929956012235785,-2.111941500244953,0.624439489885123,0.20860396085016722,nan
1740792696.3239217,0.8250883774793202,-1.2682302129587053,0.7805706931196636,-1.006751196212494,nan
1740792696.3278308,-0.9174674017883248,0.3317635036884457,0.7765207296551959,-1.0544127481894634,nan
1740792696.3317368,-2.080861573414264,1.589467766507965,0.5400620951456094,-0.36082182982221983,nan
1740792696.3356426,-1.8218936661984826,1.8589689828968596,-0.22468752189079197,0.05694376878393012,nan
1740792696.3395483,-0.6246780301551382,1.167840656435263,-1.3014385788924459,-0.2164335021027561,nan
1740792696.3434541,0.45767576869521853,-0.0257611167177445,-1.7755366851773535,-0.6036334426156185,nan
1740792696.34736,0.9636387050749787,-1.147312976472468,-0.9414778224215237,-0.28446564342831304,nan
1740792696.351266,1.2034482115909397,-1.7015078590434147,0.7154612556400316,0.7836229067467099,nan
1740792696.3551717,1.4491867409463581,-1.4146511861600832,1.8058196943267757,1.683086940706273,nan
1740792696.3590775,1.3586557502911367,-0.3828950373451059,1.4422784007694291,1.4065807259119447,nan
1740792696.3629832,0.4366534247508132,0.8761528906201907,0.16425522650997365,-0.08457642621222815,nan
1740792696.366889,-1.0978399083401846,1.6201062533224786,-0.725035123807777,-1.6840616647857287,nan
1740792696.370795,-2.2421692819272794,1.3215720806611848,-0.6152459139104437,-2.0740758927031924,nan
1740792696.374704,-2.140115428703819,0.10434900270041353,-0.10760267428574798,-0.9219881226647716,nan
1740792696.3786097,-0.9396785915330915,-1.1937687222679851,-0.06527027830652318,0.7912399685870044,nan
1740792696.3825154,0.42466884699052637,-1.5361024432502073,-0.4802102870946232,1.6493585772154198,nan
1740792696.3864212,1.2220365225851793,-0.5289263425440017,-0.5857320113473234,1.0787145219388212,nan
1740792696.390327,1.4886403582927794,1.0924762831523347,0.01557439898280229,-0.18515989993018275,nan
1740792696.394233,1.5776029751053595,1.9193493957145666,0.7410045653197262,-0.8836848753186382,nan
1740792696.3981388,1.4174522590833454,1.0735061193736037,0.7503041117349424,-0.48344501751726754,nan
1740792696.4020445,0.5447112360665232,-0.8779857866980243,0.047501443702090786,0.3697851532030077,nan
1740792696.4059503,-1.0742762719805894,-2.2850741886145887,-0.49960045425738464,0.6301996801402096,nan
1740792696.409856,-2.527725943599947,-1.8866222925069476,-0.26777993146143175,0.010138860684908902,nan
1740792696.413762,-2.5892125645379345,-0.022378184970045734,0.32929136839339723,-0.7377130947841158,nan
1740792696.4176679,-0.9651448728658124,1.6719427793060304,0.4137402693775409,-0.708863653694094,nan
1740792696.4215765,1.2179485234654266,1.8420411890477575,-0.15962962736739972,0.10153516971362227,nan
1740792696.4254823,2.3338160171196214,0.6637447979666107,-0.577711816679872,0.7836571423677752,nan
1740792696.429388,1.7155579762406485,-0.5120141509068344,-0.17069598757201446,0.5613595590358783,nan
1740792696.433294,0.18568367542112518,-0.6631033416965452,0.579830587524932,-0.2985723593182206,nan
1740792696.4371998,-0.8360341250847826,-0.07259395600930746,0.5360218571227835,-0.7800769136933174,nan
1740792696.4411056,-0.6861267309432286,0.22684534069347648,-0.5816669586494769,-0.2931188849780107,nan
1740792696.4450114,0.0697314814971179,-0.22943673731765304,-1.5686908448218047,0.6297941017019287,nan
1740792696.4489172,0.3897980411113734,-0.835679245152987,-0.9776259026656753,0.9364080660745019,nan
1740792696.4528232,-0.14529761025744456,-0.7443759757855481,1.0748172169076482,0.2630768323988015,nan
1740792696.456729,-0.9788583555807174,0.0609895347558675,2.7023261831601064,-0.6575396287256364,nan
1740792696.4606347,-1.197585932976891,0.7557345751757629,2.099820931961384,-0.8537311890825059,nan
1740792696.4645405,-0.421410175386689,0.6775948781519611,-0.4744436531198121,-0.21571972574510415,nan
1740792696.468449,0.861358742467226,0.07929998969618866,-2.786161152284586,0.44337102657994104,nan
1740792696.472355,1.716564442271326,-0.25061591677118594,-2.7798328486759236,0.3895698192396101,nan
1740792696.4762607,1.4986125729618274,0.04083717653300324,-0.5732679801986857,-0.1957091170656366,nan
1740792696.4801664,0.30968527743230173,0.508626184170817,1.7403706315590977,-0.5159443413083447,nan
1740792696.4840722,-1.0909685164032001,0.5140347968051794,2.1888119884722324,-0.1567471297465153,nan
1740792696.4879782,-1.8040984339826018,-0.03367045555078683,0.7305664743063561,0.46640283462415405,nan
1740792696.491884,-1.3810435230467317,-0.671586676237987,-0.9419968400106555,0.6952425382156564,nan
1740792696.4957898,-0.11899444069571298,-0.9645977422667885,-1.2029594349349646,0.4208170065656735,nan
1740792696.4996955,1.1366194068654085,-0.8534978903448059,-0.008139692630669135,0.06561923244329565,nan
1740792696.5036013,1.571768405551745,-0.4437901796108314,1.2506085839505017,-0.11769422115903612,nan
1740792696.5075073,0.9691460585948163,0.24644193970665298,1.204178607412569,-0.37608973692658904,nan
1740792696.511413,-0.16254690211159403,1.0984703967788911,-0.20895356117016156,-0.9075002179505294,nan
1740792696.5153213,-0.9990910011658836,1.607074696246788,-1.7522970096376431,-1.2385823077658877,nan
1740792696.5192273,-1.024443279778716,1.1690736997022997,-2.04249761111175,-0.5929351695248987,nan
1740792696.523133,-0.3734642501859668,-0.16195471793469976,-0.7483487372728265,0.9851202935735325,nan
1740792696.5270388,0.3516805737888968,-1.4225017010949559,1.165249634257175,2.2140815815942445,nan
1740792696.5309446,0.5989367507333709,-1.5607833100211916,2.27082856370845,1.7226552024558275,nan
1740792696.5348504,0.28128998183693016,-0.5549778559983966,1.8276020807042617,-0.3241410459905861,nan
1740792696.5387561,-0.21827309140901668,0.5174097157000692,0.2858852134531415,-2.0910562342547006,nan
1740792696.5426621,-0.4095667905909788,0.6644238547977981,-1.2043057291562664,-1.8804386784997174,nan
1740792696.546568,-0.11040881713485233,0.06607641027627306,-1.7540439458873722,0.0008883761641580591,nan
1740792696.5504737,0.4119866376904819,-0.25844089417403143,-1.2901438474723599,1.503092877954239,nan
1740792696.5543795,0.6736727481604059,0.20007467220219982,-0.3279059464527402,1.0810592769842648,nan
1740792696.5582852,0.3904150650666011,0.7790543884464972,0.60521621155127,-0.5729888772557375,nan
1740792696.562195,-0.26343137398805977,0.5381551064872863,1.227430174504579,-1.3460290528952399,nan
1740792696.5661008,-0.7827988404669821,-0.4241383838316807,1.3359112730360059,-0.1933907397934592,nan
1740792696.5700066,-0.7573107741190929,-0.9780276232070263,0.7179467718363005,1.5751857466002575,nan
1740792696.5739124,-0.22880776818362308,-0.38327492395653057,-0.5268171508316223,1.759834629000262,nan
1740792696.5778184,0.3515471889843645,0.6683222860018943,-1.6681291764685529,-0.1554669573381425,nan
1740792696.5817242,0.5409375832372072,0.8190631196755297,-1.7114261193354787,-2.2904668100936436,nan
1740792696.58563,0.30461538554524614,-0.2291762424536948,-0.3659864950170155,-2.3737327748349952,nan
1740792696.5895357,0.005668952389024503,-1.2157358157096054,1.410471591282543,-0.2105025003116611,nan
1740792696.5934415,-0.003879726075034849,-0.8111761925535442,2.12213944391044,2.1367272117496885,nan
1740792696.5973475,0.2331039496472894,0.6646972462902146,1.1669953987832284,2.5637499400040396,nan
1740792696.6012533,0.3283668207853756,1.4917449524065236,-0.5296999985592729,0.9943342721600145,nan
1740792696.605159,-0.00964612696314996,0.606066899259363,-1.4684573641549226,-0.8769292582487613,nan
1740792696.6090686,-0.603748145035723,-1.0055598597905144,-1.1200077517619798,-1.5805127850876206,nan
1740792696.6129744,-0.9146427196046575,-1.3754896398990675,-0.32207519433464005,-1.189328262484729,nan
1740792696.6168802,-0.5505349762604947,0.07681983932041618,-0.09611913518131672,-0.6643477884827075,nan
1740792696.620786,0.3137995807683695,1.7192171385317707,-0.3458560622986738,-0.4063664604165589,nan
1740792696.6246917,1.0283733070926606,1.5171889650055472,-0.07055178306549989,0.055720401992897316,nan
1740792696.6285977,1.0057068080694336,-0.5705517939889734,1.1383239845409592,1.0157085919712905,nan
1740792696.6325035,0.22715286089147987,-2.422336656532095,2.225375107810531,1.78884675382479,nan
1740792696.6364093,-0.7226655347965295,-2.0514111086035647,1.6905261929954427,1.3848540637463385,nan
1740792696.640315,-1.1147370709478717,0.23908766766545111,-0.5489828960678439,-0.14378864251467638,nan
1740792696.6442208,-0.6450224640895663,2.2374438141475084,-2.6995302306445095,-1.480570745050878,nan
1740792696.6481268,0.3323357526600285,2.192921181526337,-2.7858621018060274,-1.40619094240796,nan
1740792696.6520326,1.0746748471435084,0.47417487341372405,-0.7233307913954383,-0.18312918807620715,nan
1740792696.655942,1.0128483168360698,-1.1434772054414455,1.5610475318289163,0.7256177729861889,nan
1740792696.6598477,0.18672919603376306,-1.4512348554281012,2.1274706245808908,0.3276572555487843,nan
1740792696.6637535,-0.7775780166840093,-0.750919186267916,0.9268942419579466,-0.7818200627112553,nan
1740792696.6676593,-1.1503311257794397,-0.02670865296431474,-0.43501344296287464,-1.1456734440914316,nan
1740792696.671565,-0.6795880092329258,0.29138892009206746,-0.6324046378007565,-0.13453668526256612,nan
1740792696.675471,0.20536966004137694,0.4715181411931238,0.043603658068338706,1.3526101625530393,nan
1740792696.6793768,0.7667787012863942,0.6954124103273808,0.3567818270971761,1.9018636543302236,nan
1740792696.6832826,0.6068679761731193,0.646853471747511,-0.21518169976544166,1.065450457205232,nan
1740792696.6871884,0.008924768711965285,0.03538254587486754,-0.8971339717422173,-0.32715273640736714,nan
1740792696.6910942,-0.3627424949052675,-0.7870619895104153,-0.6994140914015649,-1.1820703800045904,nan
1740792696.6950002,-0.13075184371212611,-1.0798361858309113,0.2927282319221555,-1.178723162870857,nan
1740792696.698906,0.41611272854151776,-0.5617608445854756,1.0196612549962798,-0.758778459778706,nan
1740792696.702815,0.6249014609505334,0.26261888251296717,0.7317017133989862,-0.3765407400535719,nan
1740792696.7067208,0.16468710353975194,0.7195514923807264,-0.17104748780860207,-0.06118883239976196,nan
1740792696.7106266,-0.611407679855439,0.6971827356572894,-0.7128788140124958,0.3142475457647959,nan
1740792696.7145326,-1.0118079691834319,0.5615852362098612,-0.5115777381275946,0.6473687948722605,nan
1740792696.7184384,-0.6986834309896643,0.4762283317819114,-0.07577880092248956,0.7046080093179308,nan
1740792696.7223442,0.003770314389112962,0.14546643726620503,0.02600083468979079,0.4895339949621807,nan
1740792696.72625,0.49564673549782856,-0.6357691854213503,-0.05714126449669729,0.264361255664541,nan
1740792696.7301557,0.5331073394951507,-1.427430112658979,0.2357160405995102,0.1620882997481754,nan
1740792696.7340617,0.39959064661107796,-1.4610357230994102,0.9305921926771757,-0.014759196938143622,nan
1740792696.7379675,0.45144759047962835,-0.5266094671636791,1.241540649376937,-0.447568032793528,nan
1740792696.7418733,0.6036216703992229,0.7080804080391406,0.4367974902649744,-0.8774490333563061,nan
1740792696.745779,0.3985733436073891,1.4021646854136711,-1.1504323219404995,-0.7942639135797221,nan
1740792696.7496896,-0.384176027868777,1.391859954622583,-2.2282364319906165,-0.12158198316212869,nan
1740792696.7535954,-1.292094547915679,1.1137373015063317,-1.7599862479901622,0.5089958770050521,nan
1740792696.7575011,-1.5139809970487343,0.7789757480212178,-0.0032489807751699337,0.41132783500986386,nan
1740792696.761407,-0.6887807379554447,0.014420968378269089,1.7116286364121909,-0.26426123342847524,nan
1740792696.765313,0.6457768546163433,-1.4306586637621816,2.18376308481487,-0.5629646248484933,nan
1740792696.7692187,1.4845216668648435,-2.8372348684682014,1.2961621063535824,0.1806127690444888,nan
1740792696.7731245,1.258868035088101,-2.842776272644535,-0.09467995258420961,1.4101549603580779,nan
1740792696.7770302,0.3049261150485512,-0.8556277532796582,-1.0214121538938563,1.774479476315671,nan
1740792696.780936,-0.5395033463400569,2.0186885030980966,-1.1234231168782574,0.5800246441705929,nan
1740792696.784842,-0.7337591604864152,3.7503073279960946,-0.699059636570938,-1.331954421164991,nan
1740792696.7887478,-0.4079305366318188,3.1697526542443164,-0.2667095294192833,-2.3297841127311782,nan
1740792696.7926536,-0.03723189898210656,0.9115923635543469,-0.10381258827234856,-1.6043775849650503,nan
1740792696.7965624,0.09792470907711404,-1.3697799188461002,-0.0813004255960641,0.0738043543481481,nan
1740792696.8004682,0.0659485877769378,-2.4987734954006644,0.1411102039942769,1.2130718178399924,nan
1740792696.804374,0.018381248522949544,-2.405665110551226,0.6986261470309584,1.0760963528974568,nan
1740792696.8082798,-0.037669339305233966,-1.5682247206379973,1.2239616876410073,0.22050223436488953,nan
1740792696.8121855,-0.13677031470471662,-0.32721799396167606,1.047832521388813,-0.2938317502654287,nan
1740792696.8160913,-0.15916577044322358,1.0602581963620683,-0.11035566259234966,-0.01163561937472479,nan
1740792696.8199973,0.0751042448200983,2.0355105051591615,-1.5881762306728624,0.6346961345916257,nan
1740792696.823903,0.48286354747288707,1.930078001971108,-2.107703271016523,0.9249069075239477,nan
1740792696.8278089,0.6447802775734368,0.7163571231853719,-0.9348905282733113,0.5198588104028651,nan
1740792696.8317146,0.22393425560434407,-0.6979382811426674,1.2045091155414556,-0.3975573497118851,nan
1740792696.8356204,-0.5484427400189111,-1.2341219482205694,2.5452923003948573,-1.360341476756122,nan
1740792696.8395264,-0.96800574392363,-0.7061223912368793,1.8525266477462035,-1.8373364447931373,nan
1740792696.843435,-0.5636985018649234,0.0685673531816776,-0.3541360412134769,-1.4036410653681426,nan
1740792696.8473408,0.33639909372707577,0.2511369218665592,-2.2203394455941594,-0.04206069500239762,nan
1740792696.8512466,0.8826628909551582,-0.13096765445481656,-2.2685311899625256,1.5884242622326536,nan
1740792696.8551524,0.5920652119581804,-0.41287001355951425,-0.6923353431831148,2.3993889262314188,nan
1740792696.8590581,-0.1402790133802235,-0.22373464588260875,1.0190673122531884,1.71488012614509,nan
1740792696.8629642,-0.5134994762950625,0.12276165613587688,1.6063370680432827,-0.011828157992501637,nan
1740792696.86687,-0.24427359322793224,0.19975936982479073,1.0748450696078007,-1.4570544283492852,nan
1740792696.8707757,0.14854322616298374,0.10321594758392835,0.30849488654613955,-1.5792505833013029,nan
1740792696.8746815,0.044480951960296077,0.23342359522759853,-0.057099836035987596,-0.5578481373626948,nan
1740792696.8785872,-0.4455061017855107,0.5749972990389082,-0.16767013501466857,0.45941590566851226,nan
1740792696.882493,-0.5659826905151832,0.5954547938509795,-0.4571428158928705,0.535912102105779,nan
1740792696.886399,0.12418983121387239,0.017403097773336932,-0.925253626361289,-0.1875902288632277,nan
1740792696.8903074,1.0766279269344075,-0.6169204748401342,-1.095920879697109,-0.7851300614149249,nan
1740792696.8942132,1.254343479077031,-0.5410704097492312,-0.6091753924211178,-0.5652260691924753,nan
1740792696.898119,0.3083179200777354,0.12392817628211708,0.3379843366159529,0.30361148854804154,nan
1740792696.9020247,-0.9436466672842128,0.3142543703697456,1.1750748285594843,1.0963375446461006,nan
1740792696.9059308,-1.3576693443909456,-0.6148482970584754,1.4428839313965054,1.2551610820933525,nan
1740792696.9098365,-0.6974005901397824,-1.737378315521753,1.0281989236853986,0.7452595229852841,nan
1740792696.9137423,0.16993974285252075,-1.3290551641807042,0.08285745570073869,-0.1191536316235369,nan
1740792696.917648,0.34869793029634505,1.0027451684033792,-1.0471893372554362,-0.9480832597269493,nan
1740792696.9215539,-0.022169018897788013,3.355808042700467,-1.795717248509914,-1.3589940719999576,nan
1740792696.9254596,-0.014501062377046554,3.2365130979463617,-1.5606062280981219,-1.057245215095,nan
1740792696.9293656,0.802946777099073,0.31125989325748726,-0.22476158465943366,-0.10834277100265616,nan
1740792696.9332714,1.6130067044833856,-2.9329874481498734,1.4695642010419945,0.8814913265966163,nan
1740792696.9371827,1.1585892912327627,-3.6081135081307587,2.302282882331763,1.123119448415913,nan
1740792696.9410884,-0.7045399811823816,-1.3904935770801377,1.5745974068764363,0.40058749909494334,nan
1740792696.9449942,-2.519429842087709,1.2541523621909707,-0.21907452785126985,-0.5764875165760416,nan
1740792696.9489,-2.5292108526772883,1.8298158707955507,-1.7892555160795514,-0.7835388823147469,nan
1740792696.952806,-0.4901951785635319,0.4225873554379136,-2.154697443847914,0.04952049338294791,nan
1740792696.9567118,1.9432229635737033,-0.732508689378521,-1.3393196111753831,1.0702498771966917,nan
1740792696.9606175,2.7373986967804744,-0.06952691694206638,-0.05974955018174802,1.1395553730217876,nan
1740792696.9645233,1.3750215263240673,1.472869764197357,1.0566002029964423,0.038704161146339795,nan
1740792696.968429,-0.7678183180193702,1.6921995420810239,1.7874196272280656,-1.2613155612372846,nan
1740792696.972335,-1.8450382038704973,-0.1292849232581389,1.9966538178349609,-1.58021486300114,nan
1740792696.9762409,-1.238799200655931,-2.251096562473581,1.3860947471639498,-0.7023691637166078,nan
1740792696.9801466,0.11262758406617185,-2.399627622274374,-0.14665203270613222,0.49602158351992526,nan
1740792696.9840562,0.8677208503151005,-0.3308996439647224,-1.9743544733686418,1.0201470421140475,nan
1740792696.987962,0.5785452945257875,1.8888839423808346,-2.901380123754527,0.7083686966471437,nan
1740792696.9918678,-0.12054324591849616,2.119954548777487,-2.133063753868187,0.18330524426807443,nan
1740792696.9957736,-0.38533662673100594,0.3441827925157273,-0.10316734642005458,0.017824265533778017,nan
1740792696.9996793,-0.0343798374744622,-1.5080035562118779,1.797673073352865,0.14657178789402825,nan
1740792697.0035853,0.41623807165030563,-1.6834850285488898,2.3989117679796297,0.12047841598698367,nan
1740792697.007491,0.40495367430090456,-0.2704771613983693,1.6561514616415762,-0.23954340127011578,nan
1740792697.011397,-0.10655518112388372,1.1991189408297345,0.43760948497470115,-0.6202962730644505,nan
1740792697.0153027,-0.6578716757728794,1.4484680116084172,-0.4338424193561895,-0.629174042375317,nan
1740792697.0192084,-0.7540128478421588,0.5401510512230416,-0.8119898896323492,-0.2665099278433826,nan
1740792697.0231144,-0.27832261681289144,-0.5334731903357477,-1.0007901536420456,0.11600583475414183,nan
1740792697.0270202,0.45399990223968206,-0.9554065006559407,-1.1497390854262177,0.2595945068478292,nan
1740792697.0309296,0.9524245726708351,-0.6610031174768941,-1.0420435319932029,0.262990439132226,nan
1740792697.0348353,0.885646942113401,-0.0834320998907476,-0.4314183704457511,0.3658090460648891,nan
1740792697.038741,0.2866097352115441,0.3470454869218971,0.5647699405684643,0.5650427114345353,nan
1740792697.042647,-0.47744323152160906,0.4283136118596577,1.4610189056977385,0.5619471080043905,nan
1740792697.046553,-0.9502469276344325,0.1748800255973304,1.728462976872748,0.11267532093686974,nan
1740792697.0504587,-0.8872989261568768,-0.20742630153287706,1.1225676776831064,-0.6243176334180182,nan
1740792697.0543644,-0.3908215988621044,-0.39294181589445637,-0.15767382030355237,-1.1403841744046896,nan
1740792697.0582702,0.21679814586130233,-0.17715337540458984,-1.4819331256062567,-0.9919630384990293,nan
1740792697.062176,0.6428059251786069,0.28106369671268633,-2.03303954932843,-0.19185346963772232,nan
1740792697.0660818,0.7636565680657491,0.5572862685101506,-1.3297098102501894,0.7591848105609634,nan
1740792697.0699878,0.5824019585900868,0.39388754247176677,0.2684646581688067,1.2164390096737498,nan
1740792697.0738935,0.15202264283148414,-0.011430046203275568,1.6453702462456687,0.8549748556032195,nan
1740792697.0778027,-0.3936283250000933,-0.2440003557997351,1.7822094382795606,-0.06910301007020184,nan
1740792697.0817084,-0.7815035868758079,-0.178959254921837,0.6912550429731965,-0.8629804169211202,nan
1740792697.0856144,-0.7105346593795249,-0.11933817844736394,-0.5746686790607808,-0.8994653808814738,nan
1740792697.0895202,-0.1326036299367664,-0.35860978619772976,-0.9790784412405504,-0.14058053685618488,nan
1740792697.093426,0.5851292226506188,-0.704476105165649,-0.541068603275485,0.7643282247001949,nan
1740792697.0973318,0.8811440543640532,-0.6059077590569981,-0.17235535316788758,0.9792484162115096,nan
1740792697.1012375,0.47850261239282693,0.18978796059357464,-0.4647606749259521,0.2213476614508145,nan
1740792697.1051435,-0.3323289774549572,1.201900645973549,-0.8733732013854363,-0.9233441189325562,nan
1740792697.1090493,-0.9145740324959492,1.5586714969390287,-0.36334049453767026,-1.4585414805115036,nan
1740792697.112955,-0.8189348614305213,0.8163615794878184,1.1629979398402193,-0.8455670229470972,nan
1740792697.1168609,-0.1316318567790619,-0.5719515076968577,2.4086714384098693,0.5048094770110202,nan
1740792697.1207666,0.64845159905858,-1.5971976923980624,1.9275732326785264,1.5705570538613198,nan
1740792697.1246755,1.0205139364443192,-1.5082895823386613,-0.2195150159496012,1.5682586620719945,nan
1740792697.1285815,0.792679736428439,-0.38616726936883655,-2.3175364737347737,0.5517474849080541,nan
1740792697.1324873,0.11561600275652187,0.9340652040678452,-2.6470787959885764,-0.7123330309062058,nan
1740792697.136393,-0.6490787900697931,1.4689148607737799,-1.1653858841025064,-1.390100445247501,nan
1740792697.1402988,-1.0836969580213907,0.7939966627258337,0.6078348840929922,-1.1618314103037097,nan
1740792697.1442046,-0.895768535928601,-0.5912993738356777,1.287045606317652,-0.33524356426630536,nan
1740792697.1481106,-0.13374484940714945,-1.5391242304238697,0.9323313054395971,0.47213028469115126,nan
1740792697.1520164,0.7334193454635594,-1.1168835786183,0.5788391405122815,0.7763445338532797,nan
1740792697.1559222,1.081018503888397,0.513061464484052,0.7453515478738026,0.5109801202544475,nan
1740792697.159828,0.6364861910324136,2.0245650123660486,0.8218322614521796,0.015067272868371718,nan
1740792697.1637337,-0.22843255874430082,1.970005310451389,0.03639443556060636,-0.2544120677258462,nan
1740792697.1676395,-0.7856827854603995,0.1521768950520099,-1.3034756843953963,-0.0988771845004796,nan
1740792697.1715484,-0.612389148914074,-2.010567764131847,-1.9401236349915816,0.25384425621486784,nan
1740792697.1754541,0.025377365999987005,-2.6643754719862445,-1.0918278590199837,0.3716614788338897,nan
1740792697.17936,0.47548207022805383,-1.231487227225835,0.5407261669558427,0.05942569148749442,nan
1740792697.1832657,0.3726313992818944,1.0311966902274827,1.449673178169127,-0.4190386427527089,nan
1740792697.1871717,-0.038682415078886485,2.2272779143695063,0.9373607753918916,-0.6012514005957151,nan
1740792697.1910775,-0.25357624786145,1.578466947187844,-0.1889533832464057,-0.31811262069724733,nan
1740792697.1949832,-0.09513500814019098,-0.011064087971223874,-0.6173447569502577,0.12348235386203964,nan
1740792697.198889,0.13518817784659917,-1.0405589033020002,-0.020640009141622558,0.28890745161151177,nan
1740792697.2027948,0.08086832418807616,-0.8867804169460403,0.682440542023041,0.10569194508709805,nan
1740792697.2067008,-0.21194462316682455,-0.15025908318095116,0.5110260215987411,-0.07746517870502924,nan
1740792697.2106066,-0.3543668621068659,0.2630381119682557,-0.40710497662916967,0.06346102855413736,nan
1740792697.2145123,-0.10258134978217544,0.11758734975667022,-1.0285256110771177,0.411084691818497,nan
1740792697.218421,0.32812668685480845,-0.15196832787622505,-0.6419402433368164,0.5287882400957878,nan
1740792697.2223268,0.500279515244002,-0.16177267422413374,0.33029132485192636,0.1830691691799063,nan
1740792697.2262328,0.25117451825358916,-0.0038500074876388797,0.8593115617976115,-0.3630364904928026,nan
1740792697.2301385,-0.13990653239094156,0.05881008307131657,0.46913159822761763,-0.6390316725164821,nan
1740792697.2340443,-0.2921250148795569,0.04712881480708647,-0.3176819509116955,-0.48315533173678543,nan
1740792697.23795,-0.14667092487063377,0.18575856595018073,-0.6586372199917291,-0.16412228339521281,nan
1740792697.2418559,0.02002190014059449,0.44583041864584994,-0.3101358773941358,0.007760401609131852,nan
1740792697.2457616,-0.029313116832667976,0.4436476966989077,0.24315069952896243,0.05807313438807269,nan
1740792697.2496676,-0.2069316324601842,-0.06354179417454246,0.4509240949737525,0.2292037130990537,nan
1740792697.2535734,-0.23496854154793959,-0.7250141964297223,0.27701051009164196,0.5430122358938042,nan
1740792697.2574792,-0.004693880099819466,-0.8699773232073944,0.07282845095613487,0.6594362718116921,nan
1740792697.261385,0.289587082217711,-0.27241793893885324,0.04494442992234983,0.276208134605328,nan
1740792697.2652934,0.38550846533651434,0.5220637309459146,0.036932168556556316,-0.4083571938706242,nan
1740792697.2691994,0.2447311261741997,0.7627721479659039,-0.1593811980630028,-0.7946606695249459,nan
1740792697.2731051,0.04934289042763585,0.31621444837046997,-0.4430078575084886,-0.5085350355644012,nan
1740792697.277011,-0.056635437501372315,-0.2297090896749583,-0.4876582183338672,0.15426907252222025,nan
1740792697.2809167,-0.12669148569999608,-0.28910487802195056,-0.15604084975525398,0.5149827964028096,nan
1740792697.2848225,-0.27209985603098313,0.05844866268466083,0.2916931531552487,0.23869505984555514,nan
1740792697.2887285,-0.4288164825586472,0.24697322709345104,0.46246475618667504,-0.31442808935512334,nan
1740792697.2926342,-0.36910852728879,-0.0263615086729068,0.2530888046944118,-0.5050103821113587,nan
1740792697.29654,0.016128561911839645,-0.43077388159827085,-0.0577058851950151,-0.1151364523075646,nan
1740792697.3004458,0.5038358483255222,-0.44202536577980683,-0.13223025202286126,0.44809169403548804,nan
1740792697.3043516,0.6895415095605211,-0.004272544279161591,0.06969782583149553,0.6303900015411217,nan
1740792697.3082576,0.38085941902226794,0.4135952612487672,0.27915000074439444,0.3103775684007822,nan
1740792697.3121672,-0.1868221079245881,0.3991329365621929,0.22141837464939063,-0.14876366518635972,nan
1740792697.316073,-0.5575419496028623,0.06348832876661155,-0.110905123317989,-0.3527129727586952,nan
1740792697.3199787,-0.476157937198267,-0.1592994770974377,-0.470077244266301,-0.2650170469385759,nan
1740792697.3238847,-0.09377973828792974,-0.06915943118703022,-0.5854883859649332,-0.1280765945604926,nan
1740792697.3277905,0.2275343198539183,0.10547817035040621,-0.37155082828719094,-0.1058738188013022,nan
1740792697.3316963,0.2738495364730315,0.07003245875409359,0.0423259806489111,-0.11695061741200698,nan
1740792697.335602,0.12892918885936033,-0.14150072729150032,0.4261144000213786,-0.014385147104060352,nan
1740792697.3395078,0.006020839062679651,-0.2494374459722421,0.5913350656940302,0.17599815823708834,nan
1740792697.3434136,-0.004724543501659081,-0.128962103534555,0.4806090191176063,0.27519899983634283,nan
1740792697.3473196,0.007947830786776732,0.036983134261488804,0.17990532337479478,0.1798576993348859,nan
1740792697.3512254,-0.060419119272959995,0.042791746011442214,-0.14282830134380384,-0.006890474244401278,nan
1740792697.3551311,-0.17231665845353852,-0.038207010632699545,-0.34032353829947004,-0.09896850412010494,nan
1740792697.3590407,-0.18662462948680456,0.030889898792881766,-0.36456067715861407,-0.03701252318761549,nan
1740792697.3629465,-0.03698892110609506,0.27551058959297453,-0.2660490179346358,0.06654024937789658,nan
1740792697.3668523,0.16903634540136883,0.40974083629157887,-0.12677443245401843,0.07271849895810632,nan
1740792697.370758,0.2510801383474721,0.18664470956823118,0.0014724075645904768,-0.03973621217052876,nan
1740792697.374664,0.14444189037459954,-0.24718599143803455,0.10218432812005208,-0.17917215593435476,nan
1740792697.3785698,-0.035996319217614696,-0.47949440195614823,0.1646379655435958,-0.24508040539883857,nan
1740792697.3824756,-0.12524431807619207,-0.3118866721442755,0.17459825988275096,-0.19724385720183324,nan
1740792697.3863814,-0.08188895520542072,0.011113058492632692,0.1363402209800573,-0.05070645624024816,nan
1740792697.3902872,-0.011606555446596332,0.12019064311689488,0.08384977881894652,0.1435968188001524,nan
1740792697.3941932,-0.022671687929594293,-0.01738085399373498,0.05154695437151956,0.3015470162157269,nan
1740792697.398099,-0.09028709408862969,-0.08477576634761089,0.03439710860960372,0.33302953096258214,nan
1740792697.4020047,-0.09358549109565505,0.1346235110212611,-0.009666096674933863,0.2105142887300953,nan
1740792697.405914,0.019488791338686317,0.4327497100650359,-0.10887164259732257,0.008074225828298589,nan
1740792697.4098198,0.14516268237894858,0.41276967066477865,-0.23032823530054805,-0.15764653719825186,nan
1740792697.4137256,0.13590482518304645,0.0008964451675366945,-0.2883048282895563,-0.2324976801229597,nan
1740792697.4176314,-0.010176730267472182,-0.4174707606725196,-0.20659027534348384,-0.2494387337822901,nan
1740792697.4215374,-0.11841524938581105,-0.4295293964973272,0.013229019986827692,-0.2426271176667824,nan
1740792697.4254432,-0.031100919863466893,-0.07677830789534884,0.26917715572962264,-0.17390049117961717,nan
1740792697.429349,0.18312728402152229,0.2008350260221393,0.4060433901079351,0.011891962991233943,nan
1740792697.4332547,0.2644259522798711,0.09044810558421723,0.3169211848612715,0.2644448607137911,nan
1740792697.4371605,0.040447456823819596,-0.23114316056636036,0.038463846509970846,0.41531445910862475,nan
1740792697.4410665,-0.34644768583062646,-0.3201226663875028,-0.24554015357344594,0.3300172855626439,nan
1740792697.4449723,-0.5364182176030939,0.008348577251484033,-0.3305096504816714,0.060754876061792765,nan
1740792697.448878,-0.3037108416475072,0.46837754233534484,-0.1665309490716576,-0.19091272449928715,nan
1740792697.4527874,0.19901815429803607,0.6209023729314419,0.08129958290836674,-0.27113883406053185,nan
1740792697.4566932,0.5685311395425784,0.3250834224367145,0.17601199132098375,-0.2043382070057038,nan
1740792697.460599,0.5246338638984075,-0.16744626489510117,0.0406039455035288,-0.11464955966701602,nan
1740792697.4645047,0.14790563746526766,-0.5053808426408674,-0.15744288966145664,-0.05694975834700253,nan
1740792697.4684105,-0.2404868619756655,-0.5379118461835717,-0.1774609318642037,0.020958767053990388,nan
1740792697.4723165,-0.3944422505025337,-0.33650974642493703,0.032395377328468,0.15051265005007522,nan
1740792697.4762223,-0.3153981663562031,-0.03434034167027588,0.2663011956769584,0.24258136058778804,nan
1740792697.480128,-0.14871049390844895,0.2641005704821884,0.2736081682959432,0.17343148378968534,nan
1740792697.4840338,0.011311723293709152,0.45034173387248355,0.03004842429993569,-0.04186721001490627,nan
1740792697.4879396,0.16586104570684057,0.4115703190460671,-0.23070477371303372,-0.22265273272369565,nan
1740792697.4918456,0.29937181963058174,0.13864933245529334,-0.26252933444161236,-0.2029361834218068,nan
1740792697.4957514,0.3125596349445871,-0.19832343727027119,-0.060233042836026006,-0.013315440009949015,nan
1740792697.4996603,0.12409355927451038,-0.35933350092189537,0.1519955490178659,0.15432896456853695,nan
1740792697.503566,-0.18354057411050168,-0.2494977774505778,0.17021077955875544,0.1568434495507052,nan
1740792697.5074718,-0.38473262858643775,-0.002483440822766388,0.015336920781980174,0.035939003698928614,nan
1740792697.5113776,-0.3145520700790677,0.16424682878942667,-0.1190983290038797,-0.0640163152380818,nan
1740792697.5152836,-0.03828070591236341,0.15476961536618203,-0.09214574128874603,-0.07119144662266551,nan
1740792697.5191894,0.2093530394019372,0.04129773029620708,0.044205190820924625,-0.03802837914837595,nan
1740792697.5230951,0.2537540803920257,-0.05799795781909717,0.12321325538717795,-0.03600288133077299,nan
1740792697.527001,0.13045232019500602,-0.0940591734680103,0.047571936092316365,-0.057340900518247945,nan
1740792697.5309067,0.007294252122667011,-0.07911546694932585,-0.11889740734214757,-0.046817416146583656,nan
1740792697.5348127,-0.011127492036740164,-0.025111711819445433,-0.21954536017167045,0.008097160907020078,nan
1740792697.5387185,0.025774422764980594,0.05831987894564774,-0.14062010520195822,0.06759782512131195,nan
1740792697.5426242,0.006733183722361041,0.12389601377494432,0.10180279242211855,0.10871351674967801,nan
1740792697.5465329,-0.09751986064639902,0.10674852121162129,0.36269776180812363,0.14640779769250792,nan
1740792697.550439,-0.2029683062266273,0.008499851095246239,0.44292071234461033,0.16391025928125944,nan
1740792697.5543447,-0.2072353728655971,-0.07807204368078413,0.21693207054945143,0.07759965441205079,nan
1740792697.5582504,-0.08940414190531007,-0.07039971091676776,-0.24138548248382938,-0.1573956799651765,nan
1740792697.5621562,0.08263822615971476,-0.0056559156265866325,-0.6465125504761335,-0.4113725702391792,nan
1740792697.566062,0.21708779743388049,0.0021450920440136967,-0.6784929905118302,-0.43365936076579187,nan
