timestamps,TP9,AF7,AF8,TP10,Right AUX
1740794599.9624276,0.159103224870443,-0.017666587284646446,-0.5741963167695632,-0.2151914049470105,nan
1740794599.9663334,0.45919912811228225,0.1488398313857069,-0.9884634484015409,-0.15292732780515741,nan
1740794599.970239,0.43833374684705717,0.3588545027012913,-0.7255442871036119,0.03634221988696918,nan
1740794599.9741447,0.1760303241158317,0.54059759892463,-0.0038486998057826087,0.2664141789598235,nan
1740794599.9780502,-0.1035855077269681,0.5157920720039723,0.5980921811424587,0.3246533895639652,nan
1740794599.9819558,-0.25391556182846153,0.20671526838432636,0.6468334620758696,0.11133064903735285,nan
1740794599.9858615,-0.27986445006036964,-0.2275137017521978,0.22965216360092763,-0.2023466773441972,nan
1740794599.989767,-0.23667403520782562,-0.509184634150684,-0.17969826329006566,-0.3235247730494249,nan
1740794599.9936728,-0.13234883921281815,-0.493600880830314,-0.22420968095246893,-0.145215506786157,nan
1740794599.9975784,0.04086498902200035,-0.2761560342197603,0.0005015493834518579,0.14292640643717255,nan
1740794600.0014842,0.22492110508431068,-0.05532062508657958,0.12383416497778327,0.266262843228383,nan
1740794600.0053897,0.3099766887603108,0.06833672967681467,-0.03905583837354735,0.14697157443314704,nan
1740794600.009301,0.2420661146163658,0.13567918052142483,-0.2800160129096931,-0.05721487371468862,nan
1740794600.0132065,0.08127756128898586,0.21090949734554684,-0.26730305227030543,-0.16057116374954444,nan
1740794600.0171123,-0.06839201477756528,0.2798508292444734,0.04370185464711203,-0.13001793285858346,nan
1740794600.0210178,-0.16148182760162352,0.27867302144248857,0.34388728715604894,-0.050400339183473405,nan
1740794600.0249236,-0.21295492459103219,0.18059835564053942,0.31647407281942824,0.01997330482395265,nan
1740794600.028829,-0.2184375037534554,0.01656798218903736,-0.012256140318997077,0.09036973808361713,nan
1740794600.0327349,-0.1328026287692881,-0.1702883268750858,-0.3100804324457719,0.15108851190163872,nan
1740794600.0366404,0.04267509941900588,-0.34092326441460247,-0.2981242956418216,0.12875674290064817,nan
1740794600.040546,0.1939596022457261,-0.4243911912160976,-0.019805459358774147,-0.020432978842069516,nan
1740794600.0444517,0.1823037540054752,-0.3238314709405502,0.24934581804813097,-0.206278574414456,nan
1740794600.0483572,0.014089272702205212,-0.02053567720793407,0.30118833450218463,-0.2603256702828304,nan
1740794600.052263,-0.12671915481025028,0.3327433187535734,0.16055394084908817,-0.11434093271387326,nan
1740794600.0561736,-0.06548135282488454,0.4884702577861256,-0.016334214129095935,0.11459062216513359,nan
1740794600.060079,0.15263547229721788,0.32788806263119985,-0.13271176888749212,0.24474578450321166,nan
1740794600.0639849,0.28738318583547495,-0.001811794899688743,-0.20488489142184155,0.21188814495736938,nan
1740794600.0678904,0.16061846471679123,-0.21800327276647907,-0.26456848451713666,0.09794572120052883,nan
1740794600.0717962,-0.13978209297321553,-0.18492739602440345,-0.2719525433935651,-0.002583785587566541,nan
1740794600.0757017,-0.34678250853252024,-0.03655227724444342,-0.15007409764431748,-0.08425380746196494,nan
1740794600.0796072,-0.294779763477549,0.004338907524269044,0.11378616058860914,-0.17478254904963705,nan
1740794600.083513,-0.07572238623768693,-0.10028841069747858,0.4179160869530838,-0.23065769808648728,nan
1740794600.0874186,0.0915952634677716,-0.1665412830547234,0.5904891290298304,-0.16219772352363268,nan
1740794600.0913243,0.1050384946842416,-0.0368605044859783,0.48732977670846467,0.02856044041659833,nan
1740794600.0952299,0.05165059509571723,0.19100813741355868,0.09007151322013734,0.19743624901226234,nan
1740794600.0991356,0.056225009866961224,0.25230904299546775,-0.4384597487022359,0.19826984557468594,nan
1740794600.1030457,0.12063009479837403,0.0388594830707047,-0.7986340084556891,0.05506909953510693,nan
1740794600.1069512,0.1478018764871942,-0.22987733467219093,-0.7296213126576307,-0.06020297729703832,nan
1740794600.110857,0.08953517962756276,-0.2248913663417308,-0.226958601282285,-0.03184564593240299,nan
1740794600.1147625,0.007876417149581207,0.10454360668389781,0.39636462440321296,0.06626654350616343,nan
1740794600.1186683,-0.02458350374043359,0.4229901798277466,0.7212721200621922,0.07789453699985358,nan
1740794600.1225739,-0.036238003486924485,0.34263049522092565,0.5609174672398983,-0.028520480811565083,nan
1740794600.1264794,-0.11647639017625297,-0.14113601185082778,0.11132632027959212,-0.12429857141599274,nan
1740794600.1303852,-0.2687098314348444,-0.5968146212918787,-0.24490886930088443,-0.09979443136607959,nan
1740794600.1342907,-0.3536852838434417,-0.5740927933233613,-0.28900180245984514,-0.013315884928210604,nan
1740794600.1381965,-0.21827660624804873,-0.06499511703310237,-0.11728887966548049,-0.0035434256830224956,nan
1740794600.142102,0.12333765066242273,0.47902871572868116,0.03251594103556053,-0.08218896272506879,nan
1740794600.1460078,0.4614234696856826,0.5949393857655472,0.048009583052587484,-0.09858554720394463,nan
1740794600.1499171,0.5555505717134129,0.25105613780114205,-0.001430375641019302,0.053819274357926376,nan
1740794600.153823,0.33193662389967576,-0.16813994520469136,-0.033710041288740895,0.25625487311794853,nan
1740794600.1577284,-0.06413638819693555,-0.2906313027036372,-0.08430828299520063,0.27212706555968796,nan
1740794600.1616342,-0.3845457030939148,-0.12234277130162766,-0.21215242258584557,0.03939105628964215,nan
1740794600.1655397,-0.44912773772328873,0.029634678494788926,-0.3232120885548013,-0.21926797629737582,nan
1740794600.1694455,-0.2507416787699513,-0.04689554243447917,-0.19665940049350927,-0.23410045261062395,nan
1740794600.173351,0.052516853842032356,-0.220539645386063,0.24959370058890637,-0.004751728470834752,nan
1740794600.1772568,0.24395220023569347,-0.19342724452838175,0.7569820182567868,0.19150927603563955,nan
1740794600.1811624,0.1991864143014419,0.11334886997328099,0.8802347613082889,0.12129704479947867,nan
1740794600.185068,-0.01535640180100799,0.4239817455543849,0.40077263599486956,-0.13563023800604265,nan
1740794600.1889737,-0.1908888704945437,0.39480308738867675,-0.4187091032963067,-0.288641309261385,nan
1740794600.1928792,-0.15910406147886302,0.009188635297721038,-1.0222000961043047,-0.17657929563871627,nan
1740794600.1967885,0.04837066101540668,-0.3711081337687874,-1.0198091329405066,0.0668834091983941,nan
1740794600.200694,0.2315393591985352,-0.3754436202373933,-0.4772872121269739,0.20253761969131837,nan
1740794600.2045996,0.226253853132502,-0.020171341070741554,0.20674172628384357,0.16911329896780225,nan
1740794600.2085054,0.0664037598252774,0.3042005676943373,0.6568449147599746,0.1076850374607037,nan
1740794600.212411,-0.0747148648257627,0.24817112392355642,0.7512752093478856,0.12692469204279416,nan
1740794600.2163167,-0.09036547874395921,-0.12446664322015455,0.5762287705938972,0.14116204121105871,nan
1740794600.2202222,-0.04619889743181409,-0.4060889261672272,0.2581720571393822,0.0010676246549349588,nan
1740794600.224128,-0.0646205395643723,-0.2777729948981921,-0.11159045664698919,-0.2610155659732146,nan
1740794600.2280335,-0.145469022015494,0.15831506017321686,-0.43485016687927114,-0.4100438444193849,nan
1740794600.2319393,-0.16081965097393572,0.49014893630440115,-0.5822565494715044,-0.2658149232885464,nan
1740794600.2358449,-0.03349725678338676,0.41638416293444874,-0.4683405571950059,0.06996581767682417,nan
1740794600.2397504,0.13773038544685615,0.02983475045785898,-0.1464637363874063,0.30273475685239487,nan
1740794600.243659,0.18245688561680584,-0.3101160885864381,0.2015261133662979,0.2545381836583644,nan
1740794600.2475648,0.06885266818584286,-0.34850999245962827,0.3888021409759315,0.035680514413563104,nan
1740794600.2514703,-0.052550062726800045,-0.15259845760520507,0.3453994582768151,-0.10597117690613497,nan
1740794600.255376,-0.03596689568522527,0.01977275557143533,0.1382107544414195,-0.06090444480182967,nan
1740794600.2592816,0.07941618857192674,0.019321937430943306,-0.09866686677113755,0.060213914725621084,nan
1740794600.2631874,0.13036061520840034,-0.057318162041267016,-0.24291708570759307,0.09815968558870303,nan
1740794600.267093,0.049658494248805814,-0.014944394607145863,-0.22563850153630133,0.03228175286075722,nan
1740794600.2709985,-0.051502292037917154,0.1929383471974622,-0.0496362583605458,-0.034276993599898706,nan
1740794600.2749043,-0.05338425502950223,0.3881405552647323,0.19840155993906955,-0.03469185329574897,nan
1740794600.2788098,-0.014698292246208567,0.33955323915584873,0.3646849626238592,-0.021023974085862193,nan
1740794600.2827156,-0.09872283659599114,0.005118042903131537,0.30423283977030546,-0.0742052603403399,nan
1740794600.286621,-0.30951460861063596,-0.39739807908283054,-0.00782281297287487,-0.1746513830014473,nan
1740794600.2905333,-0.40030028769651765,-0.5638013488090706,-0.41370381058045164,-0.20466123553017956,nan
1740794600.294439,-0.13515302671166665,-0.36460544872675044,-0.637838774872381,-0.07927506763172398,nan
1740794600.2983446,0.3779249012772778,0.04374597855434058,-0.4712448418525826,0.14936445970354478,nan
1740794600.3022504,0.7149242856303704,0.3592618986655861,0.04286619932457035,0.32611877647626586,nan
1740794600.306156,0.5554049036481096,0.3962937132787958,0.5834718182942371,0.32204444349935113,nan
1740794600.3100617,0.03463263693442402,0.22298711454595146,0.7574599060432607,0.13527323163490326,nan
1740794600.3139672,-0.3898841442122219,0.04799303046958104,0.41569051435111254,-0.10939427598434373,nan
1740794600.3178728,-0.4185018640814497,-0.015842958539040407,-0.18546012489184224,-0.24827601943266814,nan
1740794600.3217785,-0.18865451730695057,-0.05049118655195588,-0.5650967748295174,-0.19568588973461165,nan
1740794600.325684,-0.04891398759406268,-0.18269608674723228,-0.432284635100303,-0.01786625669944996,nan
1740794600.3295898,-0.12614169735548755,-0.3647872501186174,0.037317455822309685,0.10452929076179286,nan
1740794600.3334954,-0.21049440734438998,-0.37148130926996475,0.3587282443791098,0.030820984001114042,nan
1740794600.337407,-0.06795019239058384,-0.060625717408289086,0.21350386279112607,-0.1850201293780904,nan
1740794600.3413126,0.23724537025760778,0.3907536462507521,-0.2246716032528772,-0.3098008585470006,nan
1740794600.3452184,0.41437376733830794,0.5909396984873658,-0.46888006147918626,-0.15005038170208593,nan
1740794600.349124,0.30272883816191026,0.3254716182323031,-0.23558923919773592,0.22492161747440004,nan
1740794600.3530297,0.05285436252190917,-0.18235975622601208,0.25007153096996215,0.5103745331414841,nan
1740794600.3569353,-0.08186117940663018,-0.46729130094408466,0.5013041837964956,0.45336017901806824,nan
1740794600.360841,-0.05415069740408483,-0.29790787867814567,0.3023708909591455,0.10756463553656397,nan
1740794600.3647466,-0.034956569467214864,0.08744219928874301,-0.07027946256203886,-0.2280425307004589,nan
1740794600.3686523,-0.13967127428759152,0.2586767180084235,-0.1898036053283876,-0.3227808253486401,nan
1740794600.3725579,-0.25421963764637595,0.07476685681871685,0.014201886695899998,-0.22476306840911234,nan
1740794600.3764634,-0.19720990322925275,-0.18468012843102438,0.1819115787498524,-0.1386341704179897,nan
1740794600.3803692,0.009150022897098806,-0.1801154201018156,-0.02135669560519282,-0.14432588476469965,nan
1740794600.3842804,0.1403921404072411,0.07671319753342476,-0.4562568566744108,-0.11677947498454798,nan
1740794600.388186,0.05954696465846588,0.25652057658727145,-0.6165521688602423,0.061521154402941244,nan
1740794600.3920918,-0.08728749736260207,0.13627213900358592,-0.20142699882415535,0.2887928291329654,nan
1740794600.3959973,-0.04648825171635771,-0.12283914357230659,0.49402932952078366,0.3318242346537717,nan
1740794600.3999028,0.20491843998351342,-0.19024788709056412,0.8343269397686385,0.12005435391031594,nan
1740794600.4038086,0.3971625274930482,0.0059076554963549835,0.4883006881139136,-0.1343663246735033,nan
1740794600.4077141,0.2809844785057129,0.18995480395709333,-0.2291969408365922,-0.16804819294908788,nan
1740794600.41162,-0.06606152044024435,0.10532497609827815,-0.6745213073417283,0.021850528623898958,nan
1740794600.4155254,-0.32355710318478526,-0.14183712703072607,-0.49810416476486863,0.17523986030594588,nan
1740794600.4194312,-0.2979055954716842,-0.22099304432811273,0.06854871498670258,0.08671412889782243,nan
1740794600.4233367,-0.1191926035808454,-0.02681397463508421,0.49748296042881746,-0.1491985179474418,nan
1740794600.4272425,-0.036603670639462405,0.16067659920433403,0.4633099252340672,-0.2670825135005075,nan
1740794600.431153,-0.0951374447582386,0.049813305772511696,0.062499872931553485,-0.16184297712271467,nan
1740794600.4350586,-0.11004724791024817,-0.22744539673654374,-0.36524687345508516,0.0015214924063579795,nan
1740794600.4389644,0.04911946610741989,-0.22837732663430874,-0.5399871337023333,0.028644151504483246,nan
1740794600.44287,0.2577274078319594,0.21220689881113758,-0.38812658215672724,-0.04159329503877802,nan
1740794600.4467757,0.28925534324099794,0.6579501296704645,-0.01124694849843803,-0.004806480920824911,nan
1740794600.4506812,0.11550076831432318,0.5062798413309534,0.39253414681408383,0.20155884569756363,nan
1740794600.454587,-0.050581300132587236,-0.2590497058872757,0.6017849526661293,0.3701414339710982,nan
1740794600.4584925,-0.030931768990045544,-0.9208812919507584,0.47915615114954685,0.2674087441091559,nan
1740794600.4623983,0.08732663231387788,-0.7624610600639997,0.08579125278260116,-0.05300391304694572,nan
1740794600.4663038,0.0743550748418539,0.10794311351999053,-0.3263329151949814,-0.2830210239800983,nan
1740794600.4702094,-0.12751579775169608,0.8181640046626434,-0.49811991486830814,-0.22118711966836382,nan
1740794600.4741151,-0.31452475379687095,0.6668838772253161,-0.37197292255674536,-0.01423962859026496,nan
1740794600.4780252,-0.27919835203673643,-0.11090863112040324,-0.11175067736763318,0.03254139198435004,nan
1740794600.481931,-0.07531971593188036,-0.6254792513394892,0.0819244140510228,-0.15474060826251196,nan
1740794600.4858365,0.06204284717936321,-0.33929185480182267,0.14863646742169648,-0.31858611163438827,nan
1740794600.489742,0.03493844205185635,0.35428937521239084,0.15461637049229576,-0.18937209923855988,nan
1740794600.4936478,0.009281249177543234,0.6225505668477382,0.15295023011744874,0.17326724004286503,nan
1740794600.4975533,0.16877882893572627,0.1556169323173055,0.12234607736827953,0.43955238431965876,nan
1740794600.5014591,0.41808011139217066,-0.5117827331395991,0.04741186867469922,0.38878944516728636,nan
1740794600.5053647,0.44750724766537503,-0.6456177645675907,-0.01130292359575246,0.1385342128066529,nan
1740794600.5092704,0.11158808774403259,-0.13651566150760072,0.009585214448675071,-0.03850526600033418,nan
1740794600.513176,-0.3487377526214981,0.4313299746719861,0.05532483298444342,-0.050206779803445394,nan
1740794600.5170817,-0.5382769935191687,0.4761374176918253,-0.014258152514845282,-0.047719632201792074,nan
1740794600.5209873,-0.3309499230530084,0.036160086238303836,-0.23154518150665462,-0.16882833912378012,nan
1740794600.5248973,0.017065220089440256,-0.3544490230968492,-0.4108368749181279,-0.3268028737209205,nan
1740794600.5288029,0.17986778681997592,-0.2966713802738815,-0.309968191128958,-0.3231765830000752,nan
1740794600.5327084,0.10193546062177129,0.08740697242585506,0.08191629477982151,-0.11839798346576264,nan
1740794600.5366142,-0.026034300071826208,0.37548537288047734,0.4729705815303925,0.10888185292355136,nan
1740794600.5405197,-0.05830036064800328,0.31795667288432206,0.5342786332419772,0.18735149443187513,nan
1740794600.5444255,-0.038051415840682515,0.02244667077432475,0.22707246734325853,0.15377959882680534,nan
1740794600.548331,-0.035300494408159855,-0.2485142124588102,-0.16867555904569395,0.16382207621549733,nan
1740794600.5522368,0.02876298610545923,-0.3374588879878868,-0.34499964687408885,0.24873413126609778,nan
1740794600.5561423,0.2648115410480646,-0.24527658734891888,-0.24365468289318123,0.2613049980520597,nan
1740794600.560048,0.5491066813019391,-0.04638397393656895,-0.04019122809762295,0.08804684940965352,nan
1740794600.5639536,0.5320439952312158,0.15695900777905736,0.08381635839430204,-0.1682255749840739,nan
1740794600.5678592,0.02325602452613103,0.24294208644643817,0.08894157198107143,-0.297032386766443,nan
1740794600.5717688,-0.6849129342428346,0.14790822376051987,0.025330320402629124,-0.24165431501212586,nan
1740794600.5756743,-1.0145751305621444,-0.0319973557252724,-0.06748275867279019,-0.15610291361768222,nan
1740794600.57958,-0.6768749179401099,-0.09625044148503568,-0.15059952697434414,-0.17302723257933952,nan
1740794600.5834856,0.017392328636495247,0.0340111063536381,-0.134876394126894,-0.2012572172940862,nan
1740794600.5873914,0.48848431056773806,0.18572104554093158,0.05145728833732137,-0.04868810207800175,nan
1740794600.591297,0.4899178522439401,0.11871019758039814,0.31704869840601224,0.27546873590370813,nan
1740794600.5952027,0.2913255747745408,-0.15511348839813577,0.4142690726061169,0.4968972120923732,nan
1740794600.5991082,0.26236777595528893,-0.33518298361436577,0.18215441209767946,0.38018338909809557,nan
1740794600.6030138,0.3972470064272845,-0.1839919562055013,-0.22905948258431713,0.034671249054017174,nan
1740794600.6069195,0.36157092337163577,0.14594844397311074,-0.4621162685598492,-0.1862962432895173,nan
1740794600.610825,-0.02890111191610304,0.2560869962637809,-0.32220139615623855,-0.09951630185838634,nan
1740794600.6147308,-0.5231374690058959,-0.008509560713841305,0.009790914030290511,0.08894780068948313,nan
1740794600.6186395,-0.7046859311964624,-0.3270399160378274,0.19136942626367118,0.04576905778983434,nan
1740794600.622545,-0.46954385364895107,-0.2612574065998701,0.11223504254905058,-0.2613296376201835,nan
1740794600.6264505,-0.11575733981339947,0.1998205908787386,-0.015291942219779593,-0.5031365362425473,nan
1740794600.6303563,0.04373403112266714,0.5866166902508207,0.026167228515436444,-0.37855261746972485,nan
1740794600.6342618,0.0362665868083827,0.48253695716748046,0.15741307218095377,0.023514656829623504,nan
1740794600.6381676,0.11587339071123012,0.0035052122694822535,0.1255436160207154,0.3307058331300663,nan
1740794600.6420732,0.3661988535813996,-0.36476022525493185,-0.10694325887112689,0.32022528604305395,nan
1740794600.645979,0.5591971169458796,-0.35779408003770774,-0.24820746240509645,0.14456456962659828,nan
1740794600.6498845,0.44949638492119237,-0.1999166849389447,-0.042500757569726114,0.09555819057577389,nan
1740794600.6537902,0.10281420580649739,-0.22326885499266308,0.3355052528641748,0.22857766908643212,nan
1740794600.6576958,-0.18002554401264564,-0.3649215963999852,0.41188668251674443,0.31373249395265357,nan
1740794600.6616013,-0.2378114698790374,-0.23439943347350023,-0.019547619235180284,0.14349997880218693,nan
1740794600.6655135,-0.22052665021122184,0.3125766979186841,-0.5821611579820524,-0.20944295135215357,nan
1740794600.6694193,-0.33278386268537635,0.8591095129587839,-0.6910220683555531,-0.48567943752040343,nan
1740794600.6733248,-0.5033812658183223,0.8413413501156058,-0.21219219829401081,-0.5238982594496011,nan
1740794600.6772306,-0.4430674629927127,0.21836090873719866,0.38254195634266375,-0.3745071358565996,nan
1740794600.6811361,-0.037333784925681075,-0.44650923817354016,0.5605539307533081,-0.15765038191247704,nan
1740794600.685042,0.4403673559595172,-0.6200343607838036,0.31089330598506276,0.08230203324548449,nan
1740794600.6889474,0.5996446641624998,-0.3694623103163856,0.06366462424098839,0.33121951178625897,nan
1740794600.692853,0.3714423337102128,-0.17039554541073976,0.08751146908311837,0.49626954902157855,nan
1740794600.6967587,0.06975251436151875,-0.23589437359459722,0.16142468792430334,0.45779803406663694,nan
1740794600.7006643,0.002376588569934701,-0.26303345014478974,-0.05952304179664882,0.2386887909853295,nan
1740794600.70457,0.12063294598947158,0.07503572971195237,-0.4910516201730523,0.02497087794751157,nan
1740794600.7084756,0.13317349906254217,0.5763227656053674,-0.6500439374198147,-0.04699827330441672,nan
1740794600.7123873,-0.09115950613583479,0.6891310451860637,-0.27268480991175426,-0.06753563213926422,nan
1740794600.716293,-0.36001254830346385,0.23797681784290653,0.2853471989313693,-0.22296406991035866,nan
1740794600.7201986,-0.42314253237386096,-0.2731440527192716,0.4388374730774339,-0.49508917912805145,nan
1740794600.7241044,-0.2894695950063687,-0.25512993743611373,0.10174129103715933,-0.6053177836161195,nan
1740794600.72801,-0.1732407893589256,0.1899073999423214,-0.18824594356032218,-0.33613326441625946,nan
1740794600.7319157,-0.16607014987608884,0.34742943833593215,0.039939911885856924,0.15362668865435794,nan
1740794600.7358212,-0.10412079540088967,-0.19222904885535205,0.5398880391075304,0.4552058331543404,nan
1740794600.7397268,0.17782707261543376,-0.9202485877591857,0.6035305829856972,0.3706249058691946,nan
1740794600.7436326,0.558678032122328,-0.9442558718448881,-0.03567120041180052,0.14114767064755346,nan
1740794600.747538,0.7238184707717391,-0.08166509636697393,-0.7785066930556853,0.1329367130648328,nan
1740794600.7514439,0.5343458266397073,0.8480296293306772,-0.8071488256273016,0.35807976312863643,nan
1740794600.7553494,0.178645431772341,0.9504222863375721,-0.06779289266516535,0.4455125070039146,nan
1740794600.7592607,-0.09771191652895536,0.2925867458386141,0.614952988983717,0.11919195678321082,nan
1740794600.7631664,-0.2989939293740686,-0.23629686870264172,0.47439418703327874,-0.4177622493709652,nan
1740794600.767072,-0.5764766693984923,-0.06668356611785699,-0.3091457207442711,-0.6941670339982922,nan
1740794600.7709777,-0.860136199343323,0.355089457846133,-0.820901954442919,-0.5229735742696294,nan
1740794600.7748833,-0.8042008737343698,0.20869567532837924,-0.45816132922206854,-0.1976121278564769,nan
1740794600.778789,-0.23509491757707607,-0.5492375861022899,0.43181575009590667,-0.08925741161023265,nan
1740794600.7826946,0.4688974480014566,-1.0437496105838655,1.01654878588341,-0.172888795214359,nan
1740794600.7866,0.6911326717362153,-0.58927807756821,0.8976102151643017,-0.09487359693155649,nan
1740794600.790506,0.33112704993948183,0.36547861274336296,0.3787056942214734,0.3186061533383781,nan
1740794600.7944114,0.02873220371620573,0.7357254414438619,-0.09746457560555574,0.7872421753220615,nan
1740794600.7983172,0.4021783437145069,0.1828618401122711,-0.4780378195567584,0.892741209434858,nan
1740794600.8022227,1.1304903745723323,-0.40011410353591703,-0.9074400969132492,0.5619835655046942,nan
1740794600.8061333,1.1282991128095112,-0.02935749868084259,-1.2114884970544395,0.0952080076009178,nan
1740794600.810039,-0.15225477779281915,0.9809264008531262,-0.9317140087176149,-0.24827910821546417,nan
1740794600.8139446,-1.7842164219946925,1.2318096179441105,0.019730937300856854,-0.5074832107529613,nan
1740794600.8178504,-2.133613013121896,-0.01873061818327031,0.9966339362850828,-0.7900064426130186,nan
1740794600.821756,-0.7184901445538776,-1.6878816479586616,1.2075800253712217,-0.958693857441125,nan
1740794600.8256614,0.9917343926675589,-1.8907389987304533,0.6501333699317742,-0.7688895391865785,nan
1740794600.8295672,1.0490297003102802,-0.1572217084352208,0.16981577653169203,-0.28900280944429646,nan
1740794600.8334727,-0.6537775012133088,1.7788171510621265,0.41408071976526617,0.08693036388007673,nan
1740794600.8373785,-1.935318350915849,1.7574113372549252,0.9078904167154636,0.20581120339992576,nan
1740794600.841284,-0.6103560893916687,-0.33485086887503623,0.5016611883730481,0.5213388605287964,nan
1740794600.8451898,2.8066334490074554,-2.2548763777638436,-1.1714060732839051,1.5165442879987474,nan
1740794600.8490953,5.11668219707524,-1.7691642375871561,-2.9342396706140055,2.6976178641333144,nan
1740794600.8530061,3.528440307386034,0.854398084567572,-3.04807259364733,2.5818398833988514,nan
1740794600.8569117,-1.2979560439730229,3.0166081500871367,-0.9874245060855532,0.18948466288850055,nan
1740794600.8608172,-5.590932627595917,2.485468161669794,1.9221694709896966,-3.4078134858395313,nan
1740794600.864723,-6.001633656285386,-0.29318942796767256,3.6950077711217206,-5.48985845428453,nan
1740794600.8686285,-2.6842394039554223,-2.7173489407340026,3.3893053451146833,-4.109306422066164,nan
1740794600.8725343,1.2355100821588934,-2.70991542310477,1.5841335067139777,-0.14154023309820699,nan
1740794600.8764398,3.0206263532641957,-0.6538843998109378,-0.5599576249915041,3.3881348600223995,nan
1740794600.8803456,2.744500840195567,1.3063295574400131,-2.2979693946043773,4.187737274010076,nan
1740794600.884251,2.3038829737593054,1.572471564306301,-3.291373892230341,2.7308687111415826,nan
1740794600.888157,2.561391384227483,0.4720426995385331,-3.0942684105014604,1.232036065201916,nan
1740794600.8920624,2.2163015895711737,-0.49755385011651565,-1.310716591050102,0.8397927225565465,nan
1740794600.895968,-0.23382055860049278,-0.3910472137873825,1.524630039424687,0.4137207717127814,nan
1740794600.899878,-3.9238438330342107,0.41509923287999695,3.660301613709137,-1.6246192168958218,nan
1740794600.9037836,-5.801441413878455,0.9356920795597079,3.3663112283268966,-4.633199995029016,nan
1740794600.9076893,-3.7168148367074014,0.6651350649465332,0.7196316951969846,-5.714479030799751,nan
1740794600.9115949,0.9767187615071322,-0.1422864378224374,-2.1040151349693135,-2.751295823836696,nan
1740794600.9155004,4.410668178620069,-0.9739327658628288,-2.716921978367021,2.792861596202121,nan
1740794600.9194062,3.9381355926272357,-1.4905458871250028,-0.8299124632225202,6.6795011530361625,nan
1740794600.9233117,0.6619488339787565,-1.4652757612627396,1.4556807792002056,5.787153970500644,nan
1740794600.9272175,-1.9238502857896624,-0.6610082784837557,1.7822441161759528,1.090942116709355,nan
1740794600.931123,-1.611869951071408,0.8787140196995379,-0.08778546880946446,-3.367568691453771,nan
1740794600.9350288,0.5164513329279994,2.421786555960337,-2.108240025419634,-4.348381192272069,nan
1740794600.9389343,1.7198029375408945,2.768319540491724,-2.1013748620587456,-2.091075967697981,nan
1740794600.94284,0.7498475987137478,1.2381844435259592,0.05492454962271607,0.6411366134474507,nan
1740794600.9467492,-1.0461454243373625,-1.4479587153152975,2.381465997464166,1.618648146225918,nan
1740794600.950655,-1.6387039186987173,-3.4274695085462175,2.7675870578339454,0.9086739764085725,nan
1740794600.9545605,-0.7335569087509051,-3.106571541947683,0.8930351810420812,-0.06435182337663212,nan
1740794600.9584663,0.15416152751122106,-0.5510304907103339,-1.6457020140307892,-0.44554954818671116,nan
1740794600.9623718,-0.16724064598137753,2.4212031249842654,-2.8447211364989666,-0.5063970251482598,nan
1740794600.9662776,-0.9883291516130561,3.609961441640135,-1.89318691443173,-0.6215841076447343,nan
1740794600.9701831,-0.6336965727607826,2.1527403996610226,0.39555447833008855,-0.43472670091138454,nan
1740794600.9740887,1.268862798195107,-0.809188840118767,2.355880283318004,0.5660958903425082,nan
1740794600.9779944,3.013831389430801,-3.0343123116177795,2.652243710679087,1.9294638358384553,nan
1740794600.9819,2.586341830878622,-2.911175412351841,1.1031162428006758,2.2738357929178044,nan
1740794600.9858057,-0.019736858185954345,-0.6572077545008034,-1.2303757103409494,0.7167318560632399,nan
1740794600.9897113,-2.6172675860056764,1.9198897440253717,-2.7268224747614735,-1.8989750529728588,nan
1740794600.99362,-3.0231087374777235,2.8756284042262386,-2.327360319527555,-3.505077953285676,nan
1740794600.9975255,-1.2082154137564483,1.6339066923489962,-0.36081716472576203,-2.65956356947747,nan
1740794601.001431,0.8845204556822762,-0.6482896742838531,1.6636535323767365,0.10489298151314654,nan
1740794601.0053368,1.4731099618223054,-2.118385202840141,2.271547700577742,2.7304375020846434,nan
1740794601.0092423,0.5915389662511236,-1.7689578285855077,1.2389869360253603,3.3533240732489573,nan
1740794601.013148,-0.3673542631881567,-0.17319931336445088,-0.3232020414069029,1.6915914289662617,nan
1740794601.0170536,-0.3812641136847354,1.165961497463584,-1.0927283644168693,-0.9320063952513139,nan
1740794601.0209594,0.2607481031011024,1.1989982218512492,-0.7305668636017724,-2.6774139090136435,nan
1740794601.024865,0.6398430373802728,0.17497278691274948,0.01991125204518737,-2.4397248584779225,nan
1740794601.0287707,0.3975092186295795,-0.7562899053431145,0.2891902633167281,-0.5037072088917007,nan
1740794601.0326762,-0.02421677086888271,-0.7074750783366555,-0.03574442047031549,1.6833736453865382,nan
1740794601.036582,-0.14775001191750767,0.15590902559166708,-0.4006790433775667,2.5000234953145397,nan
1740794601.040494,-0.07028816522506402,0.88737053713946,-0.35609971096225096,1.3538127279528926,nan
1740794601.0443997,-0.17248131929266727,0.7327011098170835,-0.020256468132548888,-0.7865675638072928,nan
1740794601.0483053,-0.47035657636914013,-0.1675042441117176,0.22101348328136355,-2.130458661820895,nan
1740794601.052211,-0.5655402322713736,-0.9666865946357603,0.2452836579385465,-1.613119394015664,nan
1740794601.0561166,-0.23486723597781023,-0.9328545964577268,0.24149572411792325,0.13789547075556746,nan
1740794601.0600224,0.20727858144872416,-0.10072473447227072,0.3136836567345393,1.4298919266349002,nan
1740794601.063928,0.30729924829014443,0.8038934544021449,0.2880310072607069,1.170902020603343,nan
1740794601.0678337,0.08702824004846176,1.026576034983987,0.022975817283978496,-0.1181189831660286,nan
1740794601.0717392,0.0088583688296791,0.40852476809054467,-0.2603624008254973,-0.9818385405085204,nan
1740794601.0756447,0.31369882778962216,-0.5386031531429566,-0.1999135455642804,-0.6105220086470655,nan
1740794601.0795505,0.6411727250661403,-1.0938136295878342,0.14571073679635088,0.41724082584807526,nan
1740794601.083456,0.4902014466783367,-0.8789135698776332,0.20436830246043575,0.9473492214926584,nan
1740794601.087368,-0.07656712006669021,-0.06556060743917906,-0.42580705439832534,0.5565859175935048,nan
1740794601.0912735,-0.4696801434010627,0.8326556192812515,-1.275000790880016,-0.15825214006750746,nan
1740794601.095179,-0.36369673356228827,1.3153016121777514,-1.2743491114925596,-0.48211527217201733,nan
1740794601.0990849,-0.17661447982044742,1.1191280870083118,0.07796575416411147,-0.4251213412938591,nan
1740794601.1029904,-0.492704992936653,0.27436207552703745,1.9163542992959703,-0.47602070270403046,nan
1740794601.1068962,-1.1030681992021056,-0.8869273366953179,2.621794462576823,-0.7213417790315254,nan
1740794601.1108017,-1.0084998970378194,-1.76372027953845,1.3796575481675561,-0.6025273682601003,nan
1740794601.1147075,0.3765679768333981,-1.7211093416268854,-0.9230836754340785,0.2992623750849514,nan
1740794601.118613,2.198593488243034,-0.5623584131609936,-2.457729828357159,1.4746258140727395,nan
1740794601.1225188,2.731274674022034,1.113013779242619,-2.1298287687336805,1.8148385947997354,nan
1740794601.1264243,1.1470100069283766,2.1592635729821574,-0.48209700672786154,0.8002366727119653,nan
1740794601.1303298,-1.438057063856563,1.7588379917951964,0.9980998694795661,-0.8334207727271639,nan
1740794601.1342413,-2.918229253211291,0.20234083676695203,1.3203122944406867,-1.773354310421105,nan
1740794601.138147,-2.2106244867565956,-1.2682248062000963,0.6983575185309308,-1.4089076926694006,nan
1740794601.1420527,-0.18631950643205555,-1.552450137404011,0.002416140684488776,-0.3036008518911187,nan
1740794601.1459584,1.3866830437224196,-0.6915098602353174,-0.2232346996422206,0.5498308036651244,nan
1740794601.149864,1.5945253266386432,0.27364017779033156,-0.10934113452654584,0.7222762727252487,nan
1740794601.1537697,0.9254817363285532,0.4569656582426018,-0.02755848273739383,0.5091323842776354,nan
1740794601.1576753,0.2930763620576533,0.028872952869285793,-0.0850508980447665,0.31837838834170945,nan
1740794601.1615808,-0.04967237419123583,-0.14568152246717392,-0.12636320902295498,0.2058371911172408,nan
1740794601.1654866,-0.4397767186100651,0.3195495498901894,-0.06238669491055403,0.0549594243839875,nan
1740794601.169392,-0.9540350788326507,0.7917436118905598,0.004977200176348218,-0.07169888271551862,nan
1740794601.173298,-1.0992279060126044,0.4285670529064861,-0.012290216882189762,-0.031667562251091894,nan
1740794601.1772034,-0.48069887985693255,-0.6199937732012891,-0.02883242753152955,0.026682179579376318,nan
1740794601.181114,0.5247235817495163,-1.1751704388441297,0.05680061273416091,-0.27538189348333836,nan
1740794601.1850197,1.0878464769456218,-0.38380816869852835,0.1321308145591393,-0.9433625098165003,nan
1740794601.1889253,0.869064475279383,1.0829587901685547,-0.027740086579433474,-1.2768818132932411,nan
1740794601.192831,0.3378988731289316,1.5532827292209743,-0.3853496035150067,-0.49727697007437205,nan
1740794601.1967366,0.052161836060580884,0.21906317374511447,-0.5168031707510488,1.1964491094542613,nan
1740794601.2006423,-0.09345078857975687,-1.7457866875695898,-0.040144264285247915,2.457949205890385,nan
1740794601.204548,-0.5757076704647422,-2.2472653461806287,0.8206907907267532,1.9861443534507432,nan
1740794601.2084534,-1.2932197820998703,-0.5127049750006212,1.2631308158783756,-0.0726391953301494,nan
1740794601.2123592,-1.3691995771377796,1.9409722182211637,0.6629280646125248,-2.101440406356801,nan
1740794601.2162647,-0.2093184497118656,2.768155332659309,-0.6792975916884375,-2.5178671927174263,nan
1740794601.2201705,1.455467820659538,1.174508837018218,-1.6637198102267237,-1.2389822955445782,nan
1740794601.224076,2.060895291466512,-1.3191392224182985,-1.3799778481594707,0.43063427853187003,nan
1740794601.2279863,0.9233765607491395,-2.4830701124138503,-0.0028291381600240684,1.247592126836119,nan
1740794601.2318919,-0.8343623326911448,-1.5556766879123056,1.3252521077523103,1.1351227334470118,nan
1740794601.2357976,-1.4271330871311276,0.27706726210530375,1.5299439329842186,0.8215309101281101,nan
1740794601.2397032,-0.42214164630906487,1.3592886966947113,0.5466664454862252,0.6904239867743663,nan
1740794601.243609,0.7719153857899717,1.1816138585718259,-0.7105609564870514,0.36410935839275516,nan
1740794601.2475145,0.6116452544720653,0.46720953227234985,-1.2350418150469558,-0.530483682314455,nan
1740794601.25142,-0.6883999558574267,0.004804442611506612,-0.7630310968794143,-1.5319334520253014,nan
1740794601.2553258,-1.4055039649532908,-0.17919975831545354,0.1655071594702649,-1.6517606811157928,nan
1740794601.2592313,-0.45772848584178955,-0.45263833215115884,0.8102347059666026,-0.5377410385073096,nan
1740794601.263137,1.17064731291022,-0.7817628649240209,0.8233395041658393,0.9490429731936709,nan
1740794601.2670426,1.5502393101626377,-0.6964951577531566,0.35573338328751974,1.5432344259471749,nan
1740794601.2709484,0.18433722498578742,-0.03151405313006013,-0.22016122327661888,0.8940518802902083,nan
1740794601.274858,-1.2787092454298081,0.65486432848007,-0.5884393792957174,-0.130567409070876,nan
1740794601.2787635,-0.9780023969848662,0.6621309819472083,-0.5902709829367707,-0.4919848679254593,nan
1740794601.2826693,0.8445453450808219,0.04080275264031722,-0.24973272736958957,-0.12890493311944753,nan
1740794601.2865748,1.9856325048164722,-0.38533943157535716,0.19575340853365253,0.12679500854098516,nan
1740794601.2904806,0.8319580850499417,0.005776316728084896,0.37936569064558767,-0.3022362475179785,nan
1740794601.2943861,-1.649000395296945,0.8163989781900712,0.09757192222504989,-0.9553574952540751,nan
1740794601.2982917,-2.8663696498082065,0.9969401573848984,-0.40213070718390503,-0.8682235500303739,nan
1740794601.3021975,-1.4589081378174507,0.028554495588657615,-0.5241308282102721,0.21948763356467904,nan
1740794601.306103,1.2196451130035149,-1.421064308575351,0.11550021932950202,1.42750002736459,nan
1740794601.3100088,2.624600738260981,-2.0988996351950457,1.1629787170336676,1.6011469254546813,nan
1740794601.3139143,1.720889468719588,-1.3444336432651858,1.655897339352784,0.5095606164918417,nan
1740794601.31782,-0.18690833914314864,0.3771171350893283,0.8485651516049967,-0.9337279909279882,nan
1740794601.3217292,-1.1970954173291406,1.9712490183178157,-0.9844622487631383,-1.5977022422546114,nan
1740794601.325635,-0.8690974029048363,2.5502349494363763,-2.5869573057106736,-1.1494042536328297,nan
1740794601.3295405,-0.2594854405331909,1.8364648995841313,-2.671208167187999,-0.14947659334386829,nan
1740794601.3334463,-0.24714598058022938,0.10682996869707286,-0.9726870145809615,0.6630405864367774,nan
1740794601.3373518,-0.44850107530822036,-1.9104409474759054,1.5063523035052664,0.9859277545715118,nan
1740794601.3412576,-0.010740586449797298,-3.1376749448879497,3.227084831325149,0.9085303098845144,nan
1740794601.345163,0.9558713145737914,-2.6118511739106975,3.1547652334875,0.5377269662480831,nan
1740794601.3490686,1.3201446700294905,-0.3106631765641766,1.3280953725420046,-0.09015184093261448,nan
1740794601.3529744,0.3834498362081024,2.4239523073577276,-1.276707203709992,-0.7650078590825541,nan
1740794601.35688,-1.055095217910739,3.629067089632084,-3.2955355527462307,-1.036630857214231,nan
1740794601.3607857,-1.4869642481933487,2.291013824242618,-3.6023201385425745,-0.6071656868834939,nan
1740794601.3646913,-0.45324666303644756,-0.6580545111881976,-1.8696284694665026,0.23635065470513536,nan
1740794601.3686,0.8828644239448143,-2.9914545831326826,1.0948896021211971,0.7685667794509655,nan
1740794601.3725057,1.085714136630592,-3.007063650997968,3.5747950069133716,0.5279794693712621,nan
1740794601.3764112,0.1025075955891889,-0.8712121196930089,3.9118005255413797,-0.1738926084896709,nan
1740794601.380317,-0.7586544128623509,1.6741244837263176,1.7316354577358857,-0.5572795387387391,nan
1740794601.3842225,-0.4573423686237772,2.8192156147703726,-1.5781347261281213,-0.2091990346649991,nan
1740794601.3881283,0.5449011499013757,1.981298027696268,-3.755251444120571,0.4697516711707754,nan
1740794601.3920338,0.9105377761170602,-0.0675904428638039,-3.3522623511062064,0.7151199383782122,nan
1740794601.3959396,0.0931231145429756,-1.9856110664948634,-0.8256985366858788,0.24316740521855684,nan
1740794601.3998451,-0.9963407131038253,-2.703056301628282,1.9196763875247012,-0.45582359664220445,nan
1740794601.4037507,-1.0931187482015048,-1.8415208276612005,3.0819334256796083,-0.6842147086713186,nan
1740794601.4076564,-0.0787668999488393,0.19477110400290074,2.219107034132109,-0.2962137176878931,nan
1740794601.411562,0.9116944002605495,2.321681313378338,0.2549030630191611,0.2044531075725337,nan
1740794601.4154744,0.8405455547572058,3.2134684990467903,-1.4753473578242946,0.2884304881200974,nan
1740794601.41938,-0.06878479273361669,2.1188115353149217,-2.125833213205667,-0.01612382679174672,nan
1740794601.4232855,-0.6834279130166657,-0.439984813708297,-1.5815326087833417,-0.23991361990580032,nan
1740794601.4271913,-0.31761658540469007,-2.817692914057846,-0.25172616362708,-0.0838555862790471,nan
1740794601.4310968,0.5279166878871585,-3.3760412308009005,1.1475792517248635,0.24495218439926914,nan
1740794601.4350026,0.8238218976566286,-1.7548139480511287,1.8047740513914827,0.35039109984604333,nan
1740794601.438908,0.19748686921830547,0.831357676204383,1.241700973949605,0.16542194192906484,nan
1740794601.4428139,-0.7179116615247918,2.5703000968195107,-0.20556293213720486,-0.006858750182113615,nan
1740794601.4467194,-1.0448910783207253,2.4580182859631745,-1.4480962103215906,0.039687792077072785,nan
1740794601.4506252,-0.5622227484620209,0.9377775017695047,-1.4874972228683772,0.0907281092796176,nan
1740794601.4545307,0.21516027117824058,-0.6728817676606933,-0.35501899503788076,-0.18978950598205674,nan
1740794601.4584363,0.6830538789671401,-1.3380814379622659,0.8780767607574873,-0.695298086522244,nan
1740794601.462348,0.6867478300445521,-1.0109613644809576,1.1580107068816272,-0.8294723777027975,nan
1740794601.4662538,0.4470996814245467,-0.39324830097373287,0.489452229622095,-0.1686701240630711,nan
1740794601.4701593,0.1680164516296226,-0.12314709253943912,-0.19715129304340334,0.9045744996121905,nan
1740794601.474065,-0.1271367590958224,-0.19815491524080808,-0.19938791646648665,1.426586641994255,nan
1740794601.4779706,-0.4333271590536806,-0.12579363157918913,0.14605981912317184,0.8091118727549796,nan
1740794601.4818761,-0.6209792636246957,0.4181711659216443,-0.021596660495564513,-0.5009175286506538,nan
1740794601.485782,-0.5445314434438789,1.1188920654676242,-0.8656095287854473,-1.4180505600831943,nan
1740794601.4896874,-0.22973223217102984,1.2508892791236215,-1.4571288647874425,-1.255794383507736,nan
1740794601.4935932,0.13815566874921922,0.42484002731679626,-0.7969108168862838,-0.2859458688644333,nan
1740794601.4974988,0.4071900979931271,-0.8926888512749195,0.8934702716463855,0.6993342029592663,nan
1740794601.5014045,0.5670631081179306,-1.677565107175697,2.1850799091775284,1.187039427292077,nan
1740794601.50531,0.6428857067709652,-1.256524505435517,1.8637397522668206,1.1707870302407635,nan
1740794601.509221,0.5517480805836852,0.045606014206323514,0.2019277862863767,0.7418069700550155,nan
1740794601.5131269,0.15487695930433426,1.1835466940383115,-1.3446212096746717,-0.16782291765944599,nan
1740794601.5170324,-0.5218169272805894,1.331531011107885,-1.6452896731688202,-1.4135913253231205,nan
1740794601.5209382,-1.1598723207257533,0.5518176235478943,-0.9012721538052519,-2.223840312941911,nan
1740794601.5248437,-1.3016550533479103,-0.4165366108539142,-0.12218874399365216,-1.6337633727634817,nan
1740794601.5287495,-0.6958716764329161,-0.9065682927552244,0.13543159666046034,0.39029186141782723,nan
1740794601.532655,0.4397365518803285,-0.7815317823045405,0.2173085019777492,2.4493226531225853,nan
1740794601.5365608,1.46525068346063,-0.2655490487270048,0.6019639337392915,2.7642207991717,nan
1740794601.5404663,1.696826110169735,0.4049777915599249,1.0542615854032529,0.9533414046496667,nan
1740794601.5443718,0.9050272050375434,0.9928533411713187,0.8655489015403223,-1.3946430150693705,nan
1740794601.5482776,-0.4289524238954238,1.0889474116104787,-0.1267819926686346,-2.1928605500875515,nan
1740794601.5521832,-1.3846452058790553,0.3149916659543017,-1.107505700797803,-0.950242865899401,nan
1740794601.556094,-1.3036735789860905,-1.0815045737130387,-1.0998249677430845,0.774219131253679,nan
1740794601.5599995,-0.36772137636291496,-2.0255186393583413,-0.10379524562956356,1.1009123375615113,nan
1740794601.563905,0.5338965128731274,-1.4267151727760132,0.8346139212789984,-0.14540978355210718,nan
1740794601.5678108,0.6269576304002817,0.5864528717135769,0.7590178918569325,-1.3522069814255961,nan
1740794601.5717163,0.001999054628938398,2.4255658022899707,-0.1625444882658936,-1.0189898745401815,nan
1740794601.575622,-0.5063703501191625,2.384159738204885,-0.8801925168647958,0.5532586817405216,nan
1740794601.5795276,-0.23757706882696686,0.3648355539366023,-0.6484718009318257,1.675354975347126,nan
1740794601.5834334,0.553903265298701,-1.8788322423461172,0.2258559301023456,1.2227139218823826,nan
1740794601.587339,0.9769924419094579,-2.4032095649769407,0.8403806704364388,-0.16073222020747108,nan
1740794601.5912447,0.5179763709573248,-0.9616433924731018,0.6958414250434701,-0.9230670178505173,nan
1740794601.5951502,-0.36260257483592734,0.8806208552794262,0.07873937549526375,-0.4114336373360475,nan
1740794601.5990558,-0.7550132870201167,1.474186158466323,-0.4335459434484804,0.49652860194912013,nan
1740794601.6029663,-0.34697083319643374,0.7097067189579288,-0.5744611043534665,0.5529119906079767,nan
1740794601.606872,0.23916112109974186,-0.19129996565401403,-0.41688239065006183,-0.39387369290050206,nan
1740794601.6107776,0.21741240805748482,-0.2808464506523666,-0.0509747716022959,-1.3204719383111903,nan
1740794601.6146834,-0.4102298510435474,0.10060466945509525,0.46572930708540977,-1.265797424231184,nan
1740794601.618589,-0.8643630430122645,0.02088911556528085,0.8507615835928145,-0.32144274335472833,nan
1740794601.6224945,-0.5295228048078913,-0.6563114818867707,0.6214882878656441,0.6815752237367265,nan
1740794601.6264002,0.3333080732475346,-1.0067966584855632,-0.3474095172769172,1.175645690228081,nan
1740794601.6303058,0.9494950789828128,-0.2453505397090358,-1.3794080889019857,1.2476888446031154,nan
1740794601.6342115,0.9560225977389595,1.1328731777705385,-1.440816662195349,1.1247046313332476,nan
1740794601.638117,0.6922991726483805,1.7401948445263202,-0.22297471894876603,0.6809883435664777,nan
1740794601.6420228,0.5305252133581602,0.815011118915559,1.3446990760732975,-0.2788065692548154,nan
1740794601.6459284,0.22819354601654745,-0.8973952026910552,1.8959756354776727,-1.420609771552019,nan
1740794601.6498382,-0.7022695731854209,-1.9001665143101347,0.988562367852132,-1.9473119786375288,nan
1740794601.653744,-1.9989924762701565,-1.4314290832580931,-0.4730868567407912,-1.4072394653704388,nan
1740794601.6576495,-2.4414414586129753,-0.04935526052319465,-1.2344993677259126,-0.23744636087988433,nan
1740794601.661555,-1.0369039467453363,1.127252785599104,-0.959539347418618,0.7048626958249685,nan
1740794601.6654608,1.5894232289868326,1.4603219930852545,-0.3454091763343577,1.0563890356147976,nan
1740794601.6693664,3.3581467838665455,1.0252595862313396,-0.08411979126484888,1.1378182631217766,nan
1740794601.6732721,2.6208346163052285,0.16337505224411916,-0.045361468855842316,1.2230231756559369,nan
1740794601.6771777,-0.10752812932036086,-0.7917818087689349,0.3168844306431002,0.9726393849115305,nan
1740794601.6810834,-2.4999023420703472,-1.372881228976233,0.9616070355269372,-0.06377407065129041,nan
1740794601.684989,-2.613903991378899,-1.041068761914182,1.0910645740433647,-1.482788980880073,nan
1740794601.6888947,-0.6801699087679093,0.2061281747161282,0.1632637132621448,-2.0396924601891087,nan
1740794601.6928003,1.33408592539837,1.4061874514544326,-1.1773134150981819,-0.9608076714246333,nan
1740794601.6967094,1.7892275186957023,1.3003523617337918,-1.5695963164420201,0.9162058557996278,nan
1740794601.700615,0.8012062133819331,-0.2704786692383257,-0.442081255534432,1.749073142302376,nan
1740794601.7045207,-0.33141574935787493,-1.8437298480649706,1.1900358751310836,0.6374598370979979,nan
1740794601.7084262,-0.753591660272505,-1.6375468136003684,1.6894623086889653,-1.256523014214129,nan
1740794601.712332,-0.7590839144542276,0.4739160582475032,0.5397106405644811,-1.842028003414506,nan
1740794601.7162375,-0.9329953272314137,2.538211568740266,-1.0832294302944931,-0.3578479403929538,nan
1740794601.720143,-1.0537145861296457,2.3827917416746014,-1.5683158859501873,1.7601382900579594,nan
1740794601.7240489,-0.2931344870287096,-0.08689133237799726,-0.554327565121956,2.40403256283269,nan
1740794601.7279544,1.4747880703859564,-2.649970559029348,0.7967490412407572,1.006319330334117,nan
1740794601.7318602,2.967185809905865,-2.937866413942088,1.1369716857570422,-1.0011931653962869,nan
1740794601.7357657,2.5178874776998206,-0.747053480612624,0.3176251376293955,-1.8552232614009427,nan
1740794601.7396715,-0.08655536354785956,1.880558133339069,-0.6392814945998386,-1.2417646927258321,nan
1740794601.74358,-3.0057681389463684,2.73849135876714,-0.7583364922343374,-0.24782143181132296,nan
1740794601.7474856,-3.844306857184291,1.4248850980425418,-0.06394346817640233,0.1686671913304293,nan
1740794601.7513912,-1.8744898799015044,-0.6648075490603069,0.6550157577929422,0.18680962265016327,nan
1740794601.755297,1.239979230092171,-1.9078720472287156,0.7626611876102326,0.4950995620984268,nan
1740794601.7592025,2.964260006829725,-1.7425261326999857,0.2828326229673363,1.0698422582300742,nan
1740794601.7631083,2.164420375254456,-0.6266135033775886,-0.3576110467140993,1.0756685682344351,nan
1740794601.7670138,-0.04100606982209196,0.7140378949812751,-0.7848916596187603,0.03863724216151776,nan
1740794601.7709196,-1.5353017210783009,1.6834437539383151,-0.800202302118245,-1.2816980191632776,nan
1740794601.774825,-1.205060675009572,1.7678910476249585,-0.3152672314900811,-1.5628644158227034,nan
1740794601.7787309,0.23444117703005904,0.7006591541431856,0.5224319875058971,-0.42083873712791725,nan
1740794601.7826364,1.1961736956737812,-1.0460760885678806,1.155913291582303,1.0669128168507047,nan
1740794601.786542,0.8278985182293366,-2.2294678855632273,0.9053342239674969,1.4871768326519585,nan
1740794601.7904544,-0.3221080090203254,-1.7854850807795208,-0.2923432851941493,0.5746390706035674,nan
1740794601.79436,-1.0664196690686771,0.02762396467671305,-1.506968331760075,-0.6259365446513727,nan
1740794601.7982657,-0.8276136891884792,1.6711730762082633,-1.500873676703933,-1.0003817719686934,nan
1740794601.8021712,-0.09052699864523862,1.767552904821247,0.00209302182175105,-0.49810128362828393,nan
1740794601.806077,0.2820588288125931,0.4758321019089992,1.8234259909655526,0.06847930267850688,nan
1740794601.8099825,0.031210586068184103,-0.7486829803315572,2.3239441756448027,0.11689769514924235,nan
1740794601.813888,-0.2819184992786061,-0.7733131569872718,0.9779029423540969,-0.11499237750425213,nan
1740794601.8177938,-0.00382431644063814,0.04780674925309848,-1.1137145218224176,-0.07128859007068658,nan
1740794601.8216994,0.7847012506006227,0.46148348742327233,-2.3154586279011586,0.3298303096018148,nan
1740794601.8256052,1.2782129941832616,-0.11047764967979364,-1.9667145301506244,0.6422004061723932,nan
1740794601.8295107,0.8068504922614644,-0.9034324634157989,-0.7357440891832883,0.5302006558953439,nan
1740794601.8334165,-0.381234953110251,-0.800343771638045,0.37092448945626777,0.17601524770326304,nan
1740794601.8373282,-1.2892644005421088,0.26493987035713373,1.0415234598089869,-0.05484173298854406,nan
1740794601.8412337,-1.1551684055231222,1.1863323663469592,1.5693347348868336,-0.15389856244594483,nan
1740794601.8451395,-0.2215861543189665,0.9621968505472607,1.9783172067192905,-0.42897810491527416,nan
1740794601.849045,0.5296785864944259,-0.16401744018435116,1.6750694851448016,-0.9337254733551428,nan
1740794601.8529508,0.4033358527036201,-1.0049243572220328,0.19526351993748456,-1.1841149954339705,nan
1740794601.8568563,-0.30860364077328467,-0.7494817911797952,-1.8809020809078012,-0.6371859464595768,nan
1740794601.860762,-0.6800456704670644,0.2334681830929099,-3.116022474861187,0.5949924595396399,nan
1740794601.8646677,-0.15769663095078276,0.914624527234322,-2.5006365075006594,1.680671519949059,nan
1740794601.8685732,0.8534368530593134,0.7088332477993405,-0.47020349443188436,1.791474130256747,nan
1740794601.872479,1.4132875668650795,-0.07721912142309846,1.4886150209885574,0.8432466774771625,nan
1740794601.8763845,0.9878143998954758,-0.7495765136864402,2.21637573032937,-0.49082583014085046,nan
1740794601.8802903,-0.07515176165440955,-0.909467624927258,1.7572526759578089,-1.3971690086177486,nan
1740794601.8842013,-0.9533621239581063,-0.5908606546493743,0.9153110161820842,-1.4796751309948244,nan
1740794601.888107,-1.1293505072455527,0.01586495064053317,0.2136242711572074,-0.8406434164941854,nan
1740794601.8920126,-0.7421762673489949,0.7017941108921348,-0.458730164685692,0.12571706631387153,nan
1740794601.8959181,-0.27286692837500875,1.1381068551401161,-1.2391075052245732,0.9081360506970559,nan
1740794601.899824,-0.019427107845338066,0.9422918281445718,-1.7066525595846929,1.0428344289159737,nan
1740794601.9037294,0.08878206304642468,0.07490733769636278,-1.2305992465138413,0.41598402384938943,nan
1740794601.9076352,0.26161513482560594,-0.9042549766427671,0.1199629035350547,-0.4957847143074049,nan
1740794601.9115407,0.5513120217606621,-1.2188059822988542,1.3234092427793807,-0.8785985173901445,nan
1740794601.9154465,0.7934126630859897,-0.6316214290334925,1.3234937327136471,-0.317536187807984,nan
1740794601.919352,0.7683540874052314,0.2738567598930122,0.18172216703047503,0.6914226957107504,nan
1740794601.9232578,0.3841205237148241,0.6831565184508323,-0.8899606939988896,1.1320627988432885,nan
1740794601.9271634,-0.24578893479536124,0.38775821984192915,-0.769045954438881,0.49426668029887616,nan
1740794601.9310741,-0.8349524799463082,-0.0781192570538843,0.38056867144533446,-0.6467558107040243,nan
1740794601.9349797,-1.0564606894170463,-0.13029216001826158,1.2831231713729336,-1.1959524164999797,nan
1740794601.9388855,-0.753496660430632,0.1914814322600698,0.9233330732613662,-0.6809049084018238,nan
1740794601.942791,-0.10125939307935114,0.35571514255098047,-0.3813522496642987,0.2825023464424312,nan
1740794601.9466968,0.46934912473017354,0.05709965118827214,-1.357029359801346,0.706907707498136,nan
1740794601.9506023,0.6046419164237419,-0.395168145481544,-1.1372182106065507,0.29976980479774196,nan
1740794601.9545078,0.3384462437571478,-0.47796761598993676,-0.10550743811695568,-0.3149322787888651,nan
1740794601.9584136,0.045328796955186,-0.10800270953229014,0.6406390021755695,-0.3939837727232904,nan
1740794601.9623191,0.04574228394185172,0.27058013458741587,0.5126554314167928,0.09549746883562181,nan
1740794601.966225,0.27016273861189144,0.24373985778771293,-0.04010810998393511,0.5445904481290431,nan
1740794601.9701304,0.3559963062289718,-0.08585749190492667,-0.19658242260490952,0.47684259825733305,nan
1740794601.9740362,0.07511453317609795,-0.26696308625894766,0.23750630950887927,0.04966096489171146,nan
1740794601.9779503,-0.39103378437911046,-0.06904127531915606,0.6573122405732791,-0.2506866036400091,nan
1740794601.981856,-0.6389044572856944,0.26556094844599687,0.4425998703752118,-0.23187330946619306,nan
1740794601.9857616,-0.47055810167238743,0.35608344561211575,-0.27519064554658673,-0.13837797330527574,nan
1740794601.9896674,-0.0764666340269542,0.13902979413053415,-0.757968274930459,-0.21870536422712789,nan
1740794601.993573,0.20405864792950187,-0.11367865491357948,-0.5161163564962975,-0.35783788288209206,nan
1740794601.9974787,0.23381435643329512,-0.1730436982550934,0.1375809803204793,-0.25841944569827024,nan
1740794602.0013843,0.1450720511607343,-0.10713750288340448,0.46085403277534004,0.11384020261169076,nan
1740794602.0052898,0.1095755204041581,-0.11456215399070621,0.12676933497477566,0.441628138545205,nan
1740794602.0091956,0.13876613281398603,-0.21166607078382058,-0.4290671269305142,0.4400937283780824,nan
1740794602.013101,0.1373701846697723,-0.20640398855808215,-0.5253330539366058,0.19438216484889953,nan
1740794602.0170069,0.07380373981313132,0.023280065938068625,-0.0007610724745956909,0.011877949165250033,nan
1740794602.0209124,0.008917497901656251,0.3309324450029638,0.6262779996053476,0.009870149788540984,nan
1740794602.0248225,-0.029173887164827186,0.44240746081524757,0.7394006403419455,0.0008071501853864154,nan
1740794602.028728,-0.10053031139861963,0.25172262098620735,0.2670184656399546,-0.18511008681618446,nan
1740794602.0326338,-0.23162819897519563,-0.08291856208498037,-0.30019972451447935,-0.40274362831206745,nan
1740794602.0365393,-0.30306779095174774,-0.31731429610513945,-0.46769836265849324,-0.3507783823582392,nan
1740794602.0404449,-0.1615522002320994,-0.3300528619044052,-0.2189775704699432,0.006651426567907337,nan
1740794602.0443506,0.14484041420035998,-0.1573807559351073,0.06334680159720886,0.3265874146420952,nan
1740794602.0482562,0.3381252600862107,0.08742612316186445,0.06289414300125651,0.2708513732534847,nan
1740794602.052162,0.19944919940065173,0.2637016835125656,-0.1646363273838941,-0.07663008970462581,nan
1740794602.0560675,-0.1424954041027008,0.23286881776127918,-0.3224402930994669,-0.29065811722362855,nan
1740794602.0599732,-0.30792477361882953,-0.03594825498034861,-0.21124431441656158,-0.10112188067648636,nan
1740794602.0638788,-0.08733719212007776,-0.35179812591902626,0.10735020505101278,0.2942033107918592,nan
1740794602.0677845,0.29821703563392205,-0.39213074890892136,0.42173010879823314,0.46787205654220393,nan
1740794602.071694,0.4305668826880221,-0.02169302846200111,0.5535279857664199,0.24613050359344024,nan
1740794602.0755994,0.16760425010130622,0.48498176371505053,0.43163934878185856,-0.1363715659295106,nan
1740794602.0795052,-0.2018517125426652,0.6466902677109768,0.08618134574493384,-0.34538630885814753,nan
1740794602.0834107,-0.3058783665452131,0.266836174909338,-0.34215463995173157,-0.2997116559260627,nan
1740794602.0873165,-0.11761541899445174,-0.3256701465264337,-0.6146708744720625,-0.16349363324791719,nan
1740794602.091222,0.04982153211793737,-0.600742949966255,-0.5319130869001473,-0.07383964468244533,nan
1740794602.0951278,-0.0431392989989386,-0.37883503184001344,-0.1353880744625107,-0.001082186965656565,nan
1740794602.0990334,-0.2630225236503454,0.018953800915549726,0.2625869491480649,0.11325709683292773,nan
1740794602.1029391,-0.28197620481562313,0.18343254966274988,0.3399568335619874,0.20143392029166,nan
1740794602.1068447,0.004425950542579264,0.07853163369128019,0.09195757369465363,0.15170585766432249,nan
1740794602.1107502,0.34552818572994703,-0.0015095075658776863,-0.14703919785935124,0.004286919687094824,nan
1740794602.114656,0.43856860310907314,0.12043484001306312,-0.058964991133203755,-0.05382445470311843,nan
1740794602.1185646,0.27028073325288265,0.2618038646525445,0.2942329113159955,0.06852447288825309,nan
1740794602.1224701,0.0782443840098427,0.16044421332337716,0.5163742189175607,0.21057137875325446,nan
1740794602.126376,0.017183467022726048,-0.11695959508251216,0.3037855882565156,0.13542916374159003,nan
1740794602.1302814,-0.017443191506864762,-0.22049479279921597,-0.21593061455034726,-0.15784301332363412,nan
1740794602.1341872,-0.1898870711665873,0.006991075145930162,-0.6111664812430844,-0.3929281958084399,nan
1740794602.1380928,-0.4385399528319417,0.25851592553328184,-0.5894860826835562,-0.3260406015202103,nan
1740794602.1419985,-0.504965264047507,0.11250304173503868,-0.2586775561473207,-0.032137956256696056,nan
1740794602.145904,-0.25330435319992517,-0.3924480498888926,0.057720366305545945,0.19013459029027185,nan
1740794602.1498098,0.137047925453102,-0.7076547688455888,0.1919457477435069,0.17245591132578417,nan
1740794602.1537154,0.363886683257863,-0.38518317869745766,0.24816776419046332,0.04430620451737597,nan
1740794602.157621,0.33770467586411707,0.36060509496816795,0.36928324371714516,0.02104730217401721,nan
1740794602.1615267,0.23514831870690697,0.8432349674596156,0.48908314216526566,0.11273499230500698,nan
1740794602.1654391,0.21946534767404222,0.6507096531387383,0.39269783931786345,0.13938383240331517,nan
1740794602.1693447,0.21388660450145772,0.06829822063021002,0.0018441098285485796,0.012578311848685322,nan
1740794602.1732502,0.03581513610682507,-0.3091543161650352,-0.4769189945695222,-0.1187744731085737,nan
1740794602.177156,-0.29203471526804226,-0.2717742100486411,-0.7231644423112165,-0.07183992293004315,nan
1740794602.1810615,-0.49099614822134446,-0.14292965374245362,-0.5906302753377869,0.091453595490415,nan
1740794602.1849673,-0.34239573947929763,-0.24848909126423913,-0.20024647819130212,0.10933322524744198,nan
1740794602.1888728,0.017925690176816233,-0.43854099376566563,0.2125113126207944,-0.13492946986469528,nan
1740794602.1927786,0.22076785413933064,-0.2993341187394519,0.4792530974002639,-0.41156669590315614,nan
1740794602.1966841,0.08304525569359986,0.22840029459958439,0.5376891630363609,-0.37818353270464683,nan
1740794602.20059,-0.1775856682525977,0.6625955648935359,0.3880111132874903,0.010335929659571875,nan
1740794602.2044954,-0.19905792150302684,0.521778819783142,0.09746486464720801,0.41956066614367415,nan
1740794602.2084012,0.10266271182893494,-0.0602178532732681,-0.17457693157444612,0.4946922757059769,nan
1740794602.2123132,0.4442042727958234,-0.44108135194642734,-0.26092778251453785,0.2351399739358557,nan
1740794602.2162187,0.5029014702463293,-0.21263167444924055,-0.1579138621061659,-0.05204526982353793,nan
1740794602.2201245,0.2520125362626753,0.3103927030095768,-0.06467368997433591,-0.13215892018374006,nan
1740794602.22403,-0.07490715363384363,0.4573575318446501,-0.16683977166498434,-0.07692292764881012,nan
1740794602.2279358,-0.28539285962624283,-0.007188672303364663,-0.37708479423923885,-0.09381388754178137,nan
1740794602.2318413,-0.38880340864347035,-0.6073134627793352,-0.37767106730712136,-0.21499314479063217,nan
1740794602.2357469,-0.45141777050219595,-0.7036145313777332,0.012974280802641087,-0.2606802385162984,nan
1740794602.2396526,-0.40934060144122003,-0.1993350397267671,0.5585498921763759,-0.1031582715852751,nan
1740794602.2435582,-0.1400190755607108,0.40168105154737865,0.7869371517797209,0.13879906524903365,nan
1740794602.247464,0.2955279710793508,0.5831168441810036,0.4838646951042198,0.2362707253289896,nan
1740794602.2513695,0.6018802485969087,0.3212873346366822,-0.0637661709214628,0.13159055826304064,nan
1740794602.2552752,0.5241927262291012,-0.02106705083379215,-0.38209203635400313,-0.005497983438641928,nan
1740794602.2591753,0.1413664778783102,-0.16136005792264285,-0.32843885699257186,-0.008576758618997314,nan
1740794602.2630808,-0.19673618311355712,-0.12179380856192851,-0.1964667007618358,0.08192562576040828,nan
1740794602.2669864,-0.23993424916364997,-0.042052260907573684,-0.2841270058070488,0.1020561203843762,nan
1740794602.2708921,-0.08355296774063119,0.041564232890597075,-0.4696761532648871,0.0005347957973261023,nan
1740794602.2747977,-0.004281762372102046,0.13438426218906302,-0.34859496339558543,-0.1006897487928014,nan
1740794602.2787035,-0.10318689186003846,0.12241577664119416,0.21298162892067102,-0.09254734263767303,nan
1740794602.282609,-0.20084442772133332,-0.13352413113122114,0.8037307433261752,-0.037386269381187644,nan
1740794602.2865148,-0.10078034925599363,-0.5119312453972312,0.862408633745045,-0.06906502731390612,nan
1740794602.2904203,0.12818010016701545,-0.6052775089595015,0.31295265433218655,-0.1738484843433182,nan
1740794602.294326,0.21736170468491375,-0.14158002368920614,-0.3208901302103785,-0.17364870299518953,nan
1740794602.2982316,0.034135430536995456,0.5983997642800551,-0.48584029848688665,0.03572883593610636,nan
1740794602.3021374,-0.23125982238719833,0.9519297334824735,-0.19815344546555586,0.30236996587851245,nan
1740794602.306048,-0.2649401386479688,0.5556832553012592,0.029770241160828922,0.35877031355160305,nan
1740794602.3099535,0.017977418372413154,-0.21914046693462166,-0.16219035375859267,0.1353200409542583,nan
1740794602.3138592,0.3762955947692267,-0.6320516035028582,-0.5375395371386613,-0.146059192812688,nan
1740794602.3177648,0.4967346013976623,-0.36992845727621576,-0.5468054173219858,-0.22592357011220543,nan
1740794602.3216703,0.2947089688088446,0.13383392819906462,0.009777098384609696,-0.09639958138123007,nan
1740794602.325576,-0.05500637921623254,0.2306906670030208,0.7235541954507129,0.02943444339326721,nan
1740794602.3294816,-0.331283154019633,-0.18568392176568219,1.0023441950644096,0.008909782068431973,nan
1740794602.3333874,-0.4445168759397087,-0.5797292779234292,0.6603201648746558,-0.06606426169019335,nan
1740794602.337293,-0.41572465632151295,-0.4237527546499012,0.020461992241099916,-0.03492463725833699,nan
1740794602.3411987,-0.2692138924090802,0.1911235211705873,-0.49186638261178844,0.08078358086325399,nan
1740794602.3451042,-0.01873727667065575,0.6856704158515301,-0.7158252350885335,0.09805362610659109,nan
1740794602.34901,0.25994599277088964,0.6578186131433762,-0.7019025982532808,-0.05606906050163099,nan
1740794602.35292,0.42453349571469706,0.2697106176114835,-0.46310930510630666,-0.20090455547461067,nan
1740794602.3568258,0.3843604887445977,-0.05132622824699195,0.031030689092160255,-0.1119344955938725,nan
1740794602.3607314,0.2020361819502302,-0.14852827280200107,0.611676312666166,0.1687681102895288,nan
1740794602.3646371,0.03386941777284435,-0.225453553900479,0.8580372757360913,0.3402119808593683,nan
1740794602.3685427,-0.03471551560214743,-0.4391118007715274,0.4744255872404552,0.19495397451864752,nan
1740794602.3724482,-0.06341861573426584,-0.593988971084745,-0.28628707330466674,-0.11492513207835214,nan
1740794602.376354,-0.1553830446779479,-0.3733771374938146,-0.7388260502234734,-0.2479916981125563,nan
1740794602.3802595,-0.31018782878979606,0.18879578605917607,-0.430600840460992,-0.08648530528707983,nan
1740794602.3841653,-0.4083587535829342,0.6355654077913097,0.33851382257193524,0.11997699993761565,nan
1740794602.3880708,-0.3342786290525069,0.5616346994864083,0.770687729872383,0.06789262973611256,nan
1740794602.3919766,-0.08674054709985896,0.08184526311535488,0.388359064251411,-0.21260743419564906,nan
1740794602.3958821,0.23026918168806557,-0.28094974321819344,-0.4551276705702413,-0.37811581866757243,nan
1740794602.399792,0.4878102674607193,-0.1732235557019767,-0.9352899166421195,-0.1800447103187804,nan
1740794602.4036975,0.5825198612752085,0.2132676983780134,-0.6007554893515173,0.23523441412332588,nan
1740794602.4076033,0.4498447878656128,0.38453486776667345,0.19922858807927346,0.4900158920125955,nan
1740794602.4115088,0.10074585520843501,0.09985272754421685,0.7221885160239269,0.3904393497775481,nan
1740794602.4154146,-0.32728900270017947,-0.39292860741427504,0.5881606164329873,0.09652940651794713,nan
1740794602.41932,-0.6046929069295766,-0.657314591487446,0.08186648615896008,-0.11804068746663458,nan
1740794602.4232259,-0.5669176621635665,-0.508906328417704,-0.2412505871267569,-0.17880000424048714,nan
1740794602.4271314,-0.26189416492223394,-0.11753818419290712,-0.1456317394209657,-0.21402634672952936,nan
1740794602.431037,0.08562843887621818,0.24880723338917862,0.11703200478432228,-0.29867607416938685,nan
1740794602.4349427,0.27970933557814687,0.4690042805140801,0.15340300626805328,-0.31497361516680744,nan
1740794602.4388483,0.3104130810661606,0.5516344914547737,-0.1446347836966126,-0.11924018461616272,nan
1740794602.442754,0.29093586938165705,0.48894319639562417,-0.5130546620630272,0.22059681577627377,nan
1740794602.4466634,0.2680220887588617,0.24055912511935434,-0.5828525378072671,0.44821901866200237,nan
1740794602.4505692,0.15644345372955698,-0.14172678022169158,-0.20614844325551648,0.3882264119026,nan
1740794602.4544747,-0.11173114981594345,-0.46878393622540127,0.4199966566755622,0.12680466741887872,nan
1740794602.4583805,-0.4186838321941497,-0.5610976921256893,0.881180374335294,-0.10977624372121879,nan
1740794602.462286,-0.5151083278122252,-0.41950606677635427,0.8220521859674959,-0.20513169543646095,nan
1740794602.4661918,-0.27101377686413375,-0.1988953384284486,0.21264288260349723,-0.21709217494251035,nan
