timestamps,TP9,AF7,AF8,TP10,Right AUX
1740794338.3214808,0.15212090669047496,-0.21104770400627698,0.8166720068443396,0.15329473706178667,nan
1740794338.325386,0.24807279871358892,-0.2943535894406541,1.0331600225419353,0.16141755337157865,nan
1740794338.3292913,0.022317199613370774,-0.17672038622833433,0.5300063425819936,-0.01526224658008226,nan
1740794338.3331966,-0.28490571377537144,0.02782132111438423,-0.5934929096531121,-0.1617913689681229,nan
1740794338.337102,-0.37005723190486794,0.11284697061105547,-1.5167602869657657,-0.11493968001860219,nan
1740794338.341007,-0.19330048881527964,-0.015242380467795486,-1.4379179984869181,0.10420949856246027,nan
1740794338.3449123,0.04973288492802514,-0.21037911768900894,-0.3835966459533124,0.3345089329064379,nan
1740794338.3488176,0.21208695029464675,-0.19382897922804054,0.795217129888136,0.40086730019015293,nan
1740794338.352723,0.32679958480626087,0.15900846037816851,1.2322688956694947,0.21234029582351724,nan
1740794338.356628,0.4320493117950187,0.6191908444464767,0.7953330879015433,-0.18138469051511047,nan
1740794338.3605332,0.3899361640902967,0.7391428143452858,0.047189513107634945,-0.5707039153715131,nan
1740794338.3644385,0.022705031023051398,0.2656476277165647,-0.41086560440634856,-0.666904802497912,nan
1740794338.3683598,-0.563195957040535,-0.5460278067409167,-0.443979547985186,-0.315913082464554,nan
1740794338.372265,-0.9196343084502997,-1.0715511793679942,-0.28495314533941374,0.30341172789090853,nan
1740794338.3761704,-0.6483156093256685,-0.8488376301184959,-0.12298987823840184,0.7435616310972669,nan
1740794338.3800755,0.1438029544527631,-0.019425983769690208,0.06162953615732128,0.6524359310982286,nan
1740794338.3839808,0.8596910348388593,0.765009647064624,0.29266643266044867,0.11726951095419541,nan
1740794338.387886,0.9389810180101762,0.9098082624982896,0.40412009340606303,-0.394882779484151,nan
1740794338.3917913,0.3652169359188916,0.3851256808107324,0.18364694455808667,-0.48716939783017377,nan
1740794338.3956966,-0.358111408724752,-0.2983115618047774,-0.3101754613175167,-0.210619220820597,nan
1740794338.3996017,-0.6977016331077053,-0.585817118337978,-0.6883845383608518,0.04639599702765173,nan
1740794338.403507,-0.5214062798552467,-0.3449199303485254,-0.5701483923739415,0.02776570479785396,nan
1740794338.4074123,-0.08990190138008013,0.11123986511748027,0.023078251406977137,-0.11226550371391547,nan
1740794338.4113176,0.26395944316417275,0.37875427941409545,0.6486102341588114,-0.04851694033588728,nan
1740794338.4152374,0.38222083356126396,0.30073329300239454,0.8299478515316265,0.25990433304864585,nan
1740794338.4191427,0.2802099513702231,0.010003342432366011,0.462283058924173,0.47372028374483205,nan
1740794338.423048,0.04229159713579268,-0.256093140079905,-0.1403494774604155,0.27778684738759285,nan
1740794338.4269533,-0.2119426717226465,-0.3362162544799392,-0.5502197472205907,-0.20130214698833637,nan
1740794338.4308586,-0.32734902200024507,-0.20619892413632315,-0.5609812462993579,-0.4945688313824937,nan
1740794338.4347637,-0.1997817418970624,0.03556681701855239,-0.2739976546642441,-0.31807883791346175,nan
1740794338.438669,0.09456821848655692,0.21689057677658477,0.06122130163358652,0.09570534745017333,nan
1740794338.4425743,0.3144984615849444,0.1990502669932889,0.25172923430020683,0.27027676722464944,nan
1740794338.4464796,0.26702122963080427,0.012471329304520357,0.24841436270047806,0.0450816257212431,nan
1740794338.4503846,0.007312689711856506,-0.12805264936613348,0.1115062365486048,-0.24614950349674675,nan
1740794338.45429,-0.2145852737464993,-0.023356411764175942,-0.05825133134296209,-0.1920403673407985,nan
1740794338.4581952,-0.21644092575112883,0.25820707618909605,-0.16372199326642303,0.18917066611723088,nan
1740794338.4621148,-0.05899249364386356,0.3878124748593779,-0.1380857693181045,0.46388341597884525,nan
1740794338.46602,0.05954972652347573,0.11650693583649008,0.022038165299723855,0.29904342928144917,nan
1740794338.4699254,0.045184580698342476,-0.39356341956047175,0.2307574083110079,-0.14249429120846102,nan
1740794338.4738307,-0.009015330628468354,-0.6652282201523257,0.3392491249392042,-0.39579820788409126,nan
1740794338.477736,0.022084319248024373,-0.39825599810476187,0.231394024830833,-0.23411540805726305,nan
1740794338.481641,0.12049631398618847,0.17127007526265925,-0.06923935370097874,0.09043595000394222,nan
1740794338.4855464,0.15184212348680187,0.4897217258473724,-0.384329748097913,0.1739426439975753,nan
1740794338.4894516,0.04366851900904453,0.2844581071997551,-0.5030941523100045,-0.05664929345542267,nan
1740794338.493357,-0.12093396815297645,-0.13006960988616362,-0.3526359643462899,-0.279122237540067,nan
1740794338.497262,-0.2030424878897552,-0.21412208898811366,-0.052947624163921486,-0.1804209694483449,nan
1740794338.5011673,-0.1581789293177643,0.16228453872809523,0.2083042781654282,0.17114513504703596,nan
1740794338.5050726,-0.05147121128382177,0.5482249180704457,0.3500813255982621,0.41561402852121293,nan
1740794338.5089905,0.049376613882702446,0.4209109817181807,0.42204677586360406,0.31598089939782875,nan
1740794338.5128958,0.13662385353920997,-0.2031981965358819,0.45394578206892194,0.0003210419342605637,nan
1740794338.5168009,0.20649816256522488,-0.76122691882901,0.34044860150091005,-0.21927666296946507,nan
1740794338.5207062,0.19933025773880347,-0.7467369503021404,-0.04164196840929048,-0.19550597745466405,nan
1740794338.5246115,0.057695991347132575,-0.22799538436275169,-0.5855457564195847,-0.055590954465880416,nan
1740794338.5285168,-0.16147739127510505,0.2884447770275059,-0.9110148776696801,0.002652425538927148,nan
1740794338.5324218,-0.29350101170898707,0.4381585322457623,-0.6826622336815462,-0.059975433959505116,nan
1740794338.5363271,-0.22374823818360545,0.3230424727551723,0.0018468574316077798,-0.12710172206423734,nan
1740794338.5402324,-0.01777253188383019,0.2474882960208002,0.6228263924427783,-0.09910567192534153,nan
1740794338.5441377,0.14446948113702435,0.2707533019677473,0.7226791952486089,0.006545154200867283,nan
1740794338.5480428,0.1603507420867681,0.16637376235093332,0.3663539826605868,0.1185462666808311,nan
1740794338.551948,0.09251707480168435,-0.18678326238039486,0.03758466320081676,0.2037518606062416,nan
1740794338.5558653,0.05577123869051007,-0.5340876510042366,0.05427680505252602,0.25481573318429296,nan
1740794338.5597706,0.06156702612584277,-0.4958783933730345,0.18428908194212423,0.22736938795739609,nan
1740794338.5636759,0.023884967339011083,-0.054170822955496606,-0.04322020452287491,0.06287920992834328,nan
1740794338.567581,-0.09243338667964403,0.35185770320266324,-0.6652919809329759,-0.20546074545445475,nan
1740794338.5714862,-0.19248031269040905,0.29458999482250203,-1.085862407094919,-0.4172322534004092,nan
1740794338.5753915,-0.15836384818926588,-0.1390096567186246,-0.6860520919421756,-0.40726104583766515,nan
1740794338.5792968,-0.005105014141953833,-0.4187393646844964,0.40025123318240086,-0.16732132313944148,nan
1740794338.583202,0.12461327637113703,-0.16307515448933155,1.2801150085068236,0.13974887488856286,nan
1740794338.5871072,0.12704546238502423,0.41829107459292597,1.1712977880558004,0.33078404595057087,nan
1740794338.5910125,0.05153440776567881,0.7364696390730122,0.222189098492326,0.34472350119767164,nan
1740794338.5949178,0.016692102203760738,0.44878842512836054,-0.648003089395119,0.23459095413963282,nan
1740794338.5988228,0.04497147163060935,-0.1956412761936009,-0.7291023248820568,0.0656484663537222,nan
1740794338.6027389,0.03920940473504628,-0.6401068013305066,-0.22267949525801897,-0.1263080416389837,nan
1740794338.6066442,-0.06708602325716884,-0.5810280018163956,0.10533029664210428,-0.28442590317472743,nan
1740794338.6105494,-0.19068822480326056,-0.19904276845655197,-0.12525618841844818,-0.3098657041378423,nan
1740794338.6144547,-0.1807958991999823,0.1182958481923245,-0.4858257924853037,-0.1514778332936491,nan
1740794338.6183598,-0.007679415593121317,0.18522829674081392,-0.31786059520141074,0.09536736368484056,nan
1740794338.622265,0.1832130083018191,0.1188276731363852,0.41068840582221205,0.24030321472065627,nan
1740794338.6261704,0.226215110034461,0.10877431226418907,1.008366426935674,0.1833033135724875,nan
1740794338.6300757,0.11036818485299342,0.18462270595148828,0.8334582196490874,0.024520115725752068,nan
1740794338.6339808,-0.03404740187400445,0.22753457354724022,0.01622473020250853,-0.05011413809830841,nan
1740794338.637886,-0.10159813758946556,0.14421674965380363,-0.7014657854486986,0.01162072222373879,nan
1740794338.6417913,-0.1100798394902377,-0.03197437824215292,-0.7781259549162785,0.06775858314470096,nan
1740794338.6456966,-0.12100881490101952,-0.19799536517908786,-0.3723151568628651,-0.03338942656575366,nan
1740794338.6496117,-0.11787001065904246,-0.28141991697749114,-0.011298242087960477,-0.2386948662900039,nan
1740794338.653517,-0.026409048065173968,-0.26544973560553375,0.0725354568824024,-0.3144805209918281,nan
1740794338.6574223,0.1475979615286395,-0.15716601861242488,0.10738285533940167,-0.10471292062564236,nan
1740794338.6613274,0.26528505888213516,0.019897412297459054,0.32385091167288094,0.26504758599528405,nan
1740794338.6652327,0.18820735856655205,0.2022867451842438,0.5468655489685953,0.48042006413294397,nan
1740794338.669138,-0.050323531153766476,0.29651751885463923,0.4019267007944522,0.3427029798095856,nan
1740794338.6730433,-0.2528406154227073,0.24296830205143485,-0.13750322435353293,-0.0347150087444563,nan
1740794338.6769483,-0.2504162564656753,0.06966511671188663,-0.6036921125613902,-0.33942061436554904,nan
1740794338.6808536,-0.06430536161659278,-0.1247494666538807,-0.5308486202233604,-0.35601383035350886,nan
1740794338.684759,0.13558619121210785,-0.23690033114589712,-0.007534143951398097,-0.1435253389666468,nan
1740794338.6886642,0.20533404975383185,-0.21038698549077214,0.40128219252293396,0.06183017898105781,nan
1740794338.6925695,0.13365536787949556,-0.054684421697323335,0.2893377622480273,0.09188315558983738,nan
1740794338.6964917,7.201776505838901e-05,0.14784550742874428,-0.14751649285394886,-0.009819951496066756,nan
1740794338.700397,-0.11430661853776942,0.2587372194621862,-0.37075460684842426,-0.06539539889444632,nan
1740794338.7043023,-0.1562494520926012,0.16610895349866572,-0.12902746150920927,0.03913421543109409,nan
1740794338.7082074,-0.09566113911815467,-0.09510320716715956,0.28791677706185964,0.23197758334632787,nan
1740794338.7121127,0.042656664745900116,-0.31782363405246666,0.4280265735945823,0.3196319537270667,nan
1740794338.716018,0.1482645637796045,-0.2837567198477956,0.19025768561500875,0.1741072042738592,nan
1740794338.7199233,0.09915184979055314,0.006749792259055728,-0.12912997464703962,-0.12959610111507677,nan
1740794338.7238283,-0.08479313059517933,0.2919314849070176,-0.24216963197347158,-0.36056658897794025,nan
1740794338.7277336,-0.20210686483704962,0.2930132791211658,-0.1800960728622733,-0.33583295827574383,nan
1740794338.731639,-0.06382512467554383,0.016383718714406442,-0.15127991439476482,-0.09602396519759356,nan
1740794338.7355442,0.25360373085063537,-0.23052033629490232,-0.19634263032369176,0.1286757715385685,nan
1740794338.7394493,0.41801141827407073,-0.1645442013495965,-0.12542611920063848,0.14818478619451583,nan
1740794338.7433705,0.17753113417264882,0.14892697127055587,0.18317602493542934,0.009083975913862088,nan
1740794338.7472758,-0.3217695491118761,0.3472727222535984,0.5334359346085469,-0.06316913957176114,nan
1740794338.7511811,-0.6274633048222164,0.16374930197962884,0.5647026217527612,0.06716699264885152,nan
1740794338.7550862,-0.43319956107278274,-0.26634173646446213,0.1493692389305034,0.2639624559021933,nan
1740794338.7589915,0.09296651474240822,-0.5312624755918579,-0.4323573272017106,0.25518362122610855,nan
1740794338.7628968,0.4815686975450846,-0.366281563485298,-0.7426022488631214,-0.0374878758939079,nan
1740794338.766802,0.45004790650372023,0.08459396104602074,-0.5760455501869172,-0.35481891444198715,nan
1740794338.7707074,0.1581661371701862,0.4338268801912417,-0.08770518023628514,-0.3482959444171972,nan
1740794338.7746124,-0.03913512896806706,0.4347157587150172,0.403429074927584,0.02084916923650455,nan
1740794338.7785177,-0.01981350603141961,0.1712869375472236,0.6606444477368285,0.386526982319515,nan
1740794338.782423,0.011300545618189241,-0.09747711880280167,0.6018599584864074,0.33694549761622716,nan
1740794338.7863283,-0.15221931329408936,-0.20757366391027765,0.2552656227229201,-0.13357044393749948,nan
1740794338.7902486,-0.405766327624859,-0.17999186997731387,-0.24579928244748458,-0.5781652659698305,nan
1740794338.794154,-0.43589163206282233,-0.1053812475215172,-0.6465079116024399,-0.5331680148678906,nan
1740794338.7980592,-0.11225062813561833,-0.025658040364838992,-0.679444879602649,0.011799486751236122,nan
1740794338.8019645,0.3198454945863018,0.05398904635999091,-0.2922021171419068,0.5988555287256583,nan
1740794338.8058698,0.49032837654010425,0.10167671211670277,0.24593431456744091,0.7451348284510387,nan
1740794338.8097749,0.30171833630703293,0.07384134204300269,0.5431876847099408,0.3765919864447501,nan
1740794338.8136802,0.006564814826251535,-0.012052615641316716,0.4337494549189489,-0.16538539545416478,nan
1740794338.8175855,-0.10608039286325778,-0.07446656387690462,0.1082650317864203,-0.4873221746785714,nan
1740794338.8214908,-0.025892710597975307,-0.06216911399492101,-0.11962446631174106,-0.4677133458506829,nan
1740794338.8253958,0.02275807075556341,-0.017868428266065075,-0.14106971407994287,-0.2553147521020934,nan
1740794338.829301,-0.10609956916205643,-0.01028231849707751,-0.10153305706941602,-0.04249928923170315,nan
1740794338.8332064,-0.29463730308250974,-0.0219177874444327,-0.14558252423526935,0.09578812850280564,nan
1740794338.8371258,-0.31152780401656294,0.03810405816901479,-0.20219299059745574,0.17295092573868104,nan
1740794338.841031,-0.09155391352692614,0.18848887910481216,-0.09082371807693988,0.19633421790825356,nan
1740794338.8449364,0.19080351021349456,0.2910821050367493,0.1915007544227809,0.15690718327626876,nan
1740794338.8488417,0.3147054942267822,0.17476753270135573,0.3879214989008822,0.08191470711676468,nan
1740794338.8527467,0.22767181417036983,-0.14918052224994907,0.24632845437892825,0.032221617591493786,nan
1740794338.856652,0.054955898549143394,-0.4451938487517025,-0.16551762096339656,0.02622430821234617,nan
1740794338.8605573,-0.05752587271158287,-0.4671243597441447,-0.4803139573484902,0.003447220141746437,nan
1740794338.8644626,-0.06649884946653989,-0.2023700193611577,-0.39332746318995976,-0.09766551442914709,nan
1740794338.8683677,-0.02002537398106567,0.12802272315679478,0.026193221928461848,-0.2344100582925351,nan
1740794338.872273,0.015965256912184426,0.3060727617773016,0.4124272186337498,-0.2720318217345367,nan
1740794338.8761783,-0.001564049358080033,0.3117260380751188,0.47034821181609254,-0.12284811877396193,nan
1740794338.8800836,-0.08163398910819196,0.26656100920582937,0.22861278682345945,0.14006064932562964,nan
1740794338.8840013,-0.17986548139363093,0.23228436215951898,-0.06329594754532673,0.3285349436037774,nan
1740794338.8879066,-0.20064696137959134,0.13457912005027384,-0.22391119514773525,0.301828707442956,nan
1740794338.8918118,-0.07306611684875784,-0.0987408164870841,-0.27188618488762156,0.08215065464838667,nan
1740794338.8957171,0.1489882031759346,-0.3802269666639893,-0.29376436635214326,-0.17583299975152217,nan
1740794338.8996224,0.29603605218735524,-0.5051902586477593,-0.2674197714058157,-0.30875864204892994,nan
1740794338.9035275,0.2379979295875556,-0.35706037598771917,-0.08756323826489316,-0.2462411201589759,nan
1740794338.9074328,0.029781941343118803,-0.03400669824911771,0.24151605580267282,-0.03532260700320081,nan
1740794338.911338,-0.13449151121149727,0.24638757926474483,0.5102678676333181,0.19532459749006986,nan
1740794338.9152434,-0.12658317500014515,0.3443247531214766,0.46693690637443386,0.30544683851705656,nan
1740794338.9191484,-0.013732387010795861,0.2798023752551622,0.088989773060284,0.22909714850430268,nan
1740794338.9230537,0.04147084450669099,0.1489556621902363,-0.34130512406130487,0.02833784664593553,nan
1740794338.926959,-0.016960546566372497,0.01764910651433717,-0.4720835635256668,-0.14885042650919056,nan
1740794338.930876,-0.0886267188514594,-0.0847581860073682,-0.211530033701379,-0.19604526812895498,nan
1740794338.934781,-0.0722437395575794,-0.1192102221543787,0.17922675174299751,-0.14181098762853064,nan
1740794338.9386864,-0.008516994717532589,-0.05436616037813895,0.33207788261322246,-0.09815554510491746,nan
1740794338.9425917,-0.011830660988702458,0.05836561062463966,0.11960836702585881,-0.11289038404601238,nan
1740794338.946497,-0.08429153326598056,0.08178878248498275,-0.23498829857934345,-0.1050712431889447,nan
1740794338.9504023,-0.08077067054598132,-0.07760431495122032,-0.38657278417185886,0.02303148923655292,nan
1740794338.9543073,0.09828564148156506,-0.33306277411712204,-0.19928263791571665,0.22923552993152502,nan
1740794338.9582126,0.32927722864642733,-0.45074356966060763,0.1484025463372016,0.34187660402995906,nan
1740794338.962118,0.3613754911037094,-0.2556190527135045,0.36985740207192,0.25192102438688596,nan
1740794338.9660232,0.10492151323538684,0.1875507740756433,0.3500874366537134,0.054877094808499914,nan
1740794338.9699285,-0.23636802668718088,0.6030832794024222,0.20250493063288613,-0.05592223637273425,nan
1740794338.9738336,-0.3716082591031669,0.7166374252653623,0.07256765309525123,-0.03506457347688087,nan
1740794338.9777496,-0.23594450489726299,0.45478339466502204,-0.04968103577026658,-0.05558227507751497,nan
1740794338.981655,-0.03818399527855517,-0.024322996520530462,-0.26726298668384796,-0.278704745317652,nan
1740794338.9855602,0.008425152895305111,-0.4569949342508307,-0.5437219226137014,-0.5826835226747141,nan
1740794338.9894655,-0.06391306031382925,-0.6375040442188481,-0.6223378994358644,-0.6112729978672888,nan
1740794338.9933705,-0.05019493708462238,-0.5193591603763349,-0.26759523190684137,-0.15010995270115673,nan
1740794338.9972758,0.13859662546446586,-0.21912023754831988,0.403453596968062,0.5721847326969156,nan
1740794339.0011811,0.3433557985090322,0.07201914518999547,0.9091022749350888,1.0256767034716405,nan
1740794339.0050864,0.3451033952765773,0.2240197992594805,0.8107573916041602,0.8547788344098607,nan
1740794339.0089917,0.12876391605391002,0.2537150329584852,0.15545279332987025,0.20212276361726517,nan
1740794339.0128968,-0.10828247504154635,0.27197799948703294,-0.5297272753575661,-0.4447574980733238,nan
1740794339.016802,-0.19905425429842213,0.3287839434714319,-0.7231759584633585,-0.6990099245367664,nan
1740794339.0207074,-0.18282910980527742,0.3259256201461129,-0.3835657973518273,-0.5507933561709197,nan
1740794339.0246222,-0.20066846878436087,0.12423404862798561,0.07439315338835852,-0.25324282500332984,nan
1740794339.0285275,-0.26967726290810906,-0.25062713135313114,0.24816296615602243,-0.028397500532048037,nan
1740794339.0324328,-0.24475035848723048,-0.5528113733420233,0.1299839149874905,0.07589309332260259,nan
1740794339.036338,-0.018922794789900492,-0.522922968701062,0.006821549538278124,0.10904050012912937,nan
1740794339.0402434,0.3029007967361218,-0.16045091170465242,0.05370203094333922,0.11097197470438609,nan
1740794339.0441484,0.48571691817131024,0.24597627802329913,0.13291573879689011,0.11405370582188562,nan
1740794339.0480537,0.40222543078428274,0.38733225733735566,0.026219799296426094,0.1734758827533606,nan
1740794339.051959,0.1408010202925781,0.2194878656237163,-0.21889923097322544,0.30549645685117444,nan
1740794339.0558643,-0.11941407411692885,-0.037334085192421616,-0.2891935458856398,0.39934460387893334,nan
1740794339.0597694,-0.28007057989780654,-0.15607853528549315,0.01802159046273262,0.2771799360387827,nan
1740794339.0636747,-0.3394808539454272,-0.10662139044947248,0.4881131879921321,-0.09829113178253503,nan
1740794339.06758,-0.2960948576941575,-0.00022026040320785107,0.6429392821655356,-0.5107827614574666,nan
1740794339.0715022,-0.12861464682091728,0.09175919629238857,0.22269848766611938,-0.6602885798401181,nan
1740794339.0754075,0.11007392932345643,0.18196051195697294,-0.5155023228046497,-0.4642941105817187,nan
1740794339.0793128,0.2594671995887271,0.24533548379550116,-0.9996193841038518,-0.13787505009377282,nan
1740794339.0832179,0.19481760451286897,0.16257477389985042,-0.8366446250397156,0.06316127293985323,nan
1740794339.0871232,-0.004677145150163601,-0.12884648253216294,-0.12179188552212157,0.1347552177581371,nan
1740794339.0910285,-0.1076499846789024,-0.46115392094828783,0.6780741685414526,0.2834578684880426,nan
1740794339.0949337,0.009800814329184558,-0.526830010905889,1.089853347149086,0.587898567164859,nan
1740794339.0988388,0.20112464680828096,-0.2048052763787191,0.9183732420515398,0.7942892914728008,nan
1740794339.102744,0.20754662511100644,0.25356714779182593,0.29613187027568477,0.5497816334431591,nan
1740794339.1066494,-0.029638737912324093,0.44926493376292986,-0.4358166825132783,-0.1553440625097344,nan
1740794339.1105547,-0.2822396027697019,0.2564793470273478,-0.9066819899832076,-0.8624426080798993,nan
1740794339.11446,-0.2928103974954133,-0.04594526903510404,-0.8984411968409216,-1.0348945502631617,nan
1740794339.118381,-0.070863188652196,-0.10181338615750175,-0.46754834635959447,-0.5724955678152379,nan
1740794339.122286,0.13062696560434128,0.11378579210430352,0.09406472521777569,0.10168923325539235,nan
1740794339.1261914,0.12192814068996984,0.2855589996593769,0.47304863878813624,0.4683662419517625,nan
1740794339.1300967,-0.015900830682909015,0.14829713891562255,0.5575762198476633,0.38665921348431515,nan
1740794339.134002,-0.06656663452581493,-0.2017481718316013,0.4573129586106024,0.1351299230973903,nan
1740794339.1379073,0.036773274243951104,-0.4370371859041981,0.31396848595631405,0.04286481907449961,nan
1740794339.1418123,0.1454435558580575,-0.3805869598881749,0.13648729978463725,0.15566061771985557,nan
1740794339.1457176,0.1131951116327578,-0.16133012960554627,-0.13936304219150752,0.26812058540810496,nan
1740794339.149623,-0.00765787557454223,0.010622378877714497,-0.46015490718699403,0.2036963281308798,nan
1740794339.1535282,-0.05254736363350899,0.10902352244482433,-0.6117413882057013,-0.010128469960307163,nan
1740794339.1574335,0.015222698127301324,0.24183966873844795,-0.4246247506535561,-0.22443247130391106,nan
1740794339.1613386,0.04734887617980182,0.3946733241762518,0.005192297847577408,-0.34079732035384813,nan
1740794339.1652591,-0.07718024922561036,0.37476559580086327,0.3679504304332791,-0.3564989670869599,nan
1740794339.1691644,-0.25578335406046565,0.07954609777998986,0.4337875297175481,-0.2864538383190105,nan
1740794339.1730697,-0.2596742958554221,-0.27474201250941466,0.2566534641195994,-0.12140381055907833,nan
1740794339.176975,-0.018573917474620966,-0.335925383533992,0.061924865239006366,0.11407033960975033,nan
1740794339.18088,0.2685868875050698,-0.0463626872861378,-0.022976085541924315,0.3141918914602529,nan
1740794339.1847854,0.3452086303392982,0.22815440687545643,-0.05981965935731952,0.3602826009260041,nan
1740794339.1886907,0.17346281103911607,0.10023122054474279,-0.13287305643825104,0.24023913541723535,nan
1740794339.192596,-0.054611207923393724,-0.35127884531099307,-0.18799735164344406,0.06735679589102,nan
1740794339.1965013,-0.1575520811781626,-0.6188661624937342,-0.11447047883490778,-0.033807651291852085,nan
1740794339.2004063,-0.1392818308803064,-0.3339511726633844,0.05147226438221523,-0.042286127936299676,nan
1740794339.2043116,-0.1039764725863178,0.2911786529382839,0.1169439086029222,-0.031210054384616444,nan
1740794339.208217,-0.07578707753651037,0.6824280141554124,-0.02315830087927009,-0.06716582777353304,nan
1740794339.2121363,0.008614174737463972,0.535021258901585,-0.20312287888449648,-0.14672254916283553,nan
1740794339.2160416,0.14299042903532577,0.11415157362687077,-0.1497112634126088,-0.2220593516439629,nan
1740794339.2199469,0.19148167520772996,-0.10980531712570164,0.16657485985694753,-0.2490927775348931,nan
1740794339.2238522,0.052096852598347156,-0.021474420114419784,0.4378189307554352,-0.19549119842990914,nan
1740794339.2277572,-0.1683946211907126,0.06380166098567351,0.3461136945850386,-0.03907778083697602,nan
1740794339.2316625,-0.23709604809723328,-0.13783037104340967,-0.05696025071457462,0.19423480257950398,nan
1740794339.2355678,-0.06947221645722068,-0.4878246050481772,-0.3879878787824727,0.39511757387675067,nan
1740794339.239473,0.15260863943560826,-0.5927074749911467,-0.3595614599209008,0.42696343007672105,nan
1740794339.2433782,0.19277518430663285,-0.29488770167843403,-0.08547529596363283,0.25600897929526517,nan
1740794339.2472835,0.046326247115327686,0.14170206065662455,0.10075635384469497,0.00668087065357235,nan
1740794339.2511888,-0.06864427124641853,0.36485969876851093,0.0675745481430185,-0.1548174955370322,nan
1740794339.255094,-0.008116141532153339,0.33679656033637656,0.0049830902342784585,-0.19413922036612352,nan
1740794339.2590117,0.10394558630183962,0.29779523538918157,0.10540346464729061,-0.22446790853093226,nan
1740794339.262917,0.049325123224349725,0.37652628739367794,0.25422337407997764,-0.3269317846480991,nan
1740794339.2668223,-0.167196327490135,0.3894261018889167,0.1709649988097035,-0.39829737369250123,nan
1740794339.2707276,-0.2883466870198247,0.10314160532341464,-0.16763253209419873,-0.24592546012357436,nan
1740794339.274633,-0.12622660404253447,-0.3916061003498481,-0.4060687785190508,0.15192773312088195,nan
1740794339.278538,0.1746543583800928,-0.7050378184805759,-0.21546120849610348,0.5404125892157221,nan
1740794339.2824433,0.29065777286631944,-0.5705402587278432,0.25339707835767417,0.6068589469392831,nan
1740794339.2863486,0.11259939618991865,-0.14802663324447166,0.4769566209983195,0.30507624216538676,nan
1740794339.2902539,-0.12078328018881386,0.16365730247874818,0.1620425093508244,-0.08778188957159073,nan
1740794339.2941592,-0.12729186821186578,0.16953206130634968,-0.37181987386648563,-0.2611416812204074,nan
1740794339.2980642,0.06333829348061115,0.045513701906013955,-0.5298972550393134,-0.18260275769904222,nan
1740794339.3019695,0.1608536619393053,0.06684836968192029,-0.12991643290351293,-0.08062378755874657,nan
1740794339.3058863,0.004448626227042596,0.26883167288487964,0.3813182861162137,-0.1381127177685695,nan
1740794339.3097916,-0.21909033011469028,0.441451266461179,0.45161025995559867,-0.2722347627182895,nan
1740794339.3136969,-0.21648074584372393,0.40296605813909814,0.06002224578137076,-0.25476642041632,nan
1740794339.3176022,0.026174174890606586,0.17710008626029675,-0.29501517794800985,-0.008902019050518696,nan
1740794339.3215075,0.21966485387528517,-0.10427419102171318,-0.21899119114091709,0.28328714345123895,nan
1740794339.3254125,0.14343225293833056,-0.36595582279300704,0.12168572551852158,0.38207927206527414,nan
1740794339.3293178,-0.0741077266128922,-0.5789365998093565,0.2540861750151921,0.24619820446714838,nan
1740794339.333223,-0.13423046210528494,-0.6481384589394441,0.0116091358439294,0.04559904576401788,nan
1740794339.3371284,0.032102959960097516,-0.4448942076147566,-0.276385294960625,-0.05505372976510265,nan
1740794339.3410335,0.1740178199679904,0.00317956250607691,-0.23465417297318003,-0.06374744135494828,nan
1740794339.3449388,0.06218365744808723,0.44235935929955733,0.07093622465601938,-0.09524494452264681,nan
1740794339.348844,-0.19045641174843592,0.6086649338686019,0.23830526222906812,-0.18883232525847302,nan
1740794339.35276,-0.25967836945860157,0.49674100698242507,0.07163194039831818,-0.24864128020910678,nan
1740794339.3566651,-0.029550448673244543,0.32839313198587744,-0.16147028920869722,-0.16518636265585912,nan
1740794339.3605704,0.24692960495606878,0.2430339549057706,-0.09895727554769905,0.04733347219896767,nan
1740794339.3644757,0.25873208014761806,0.12103954198430326,0.20995930327072235,0.25657344726344933,nan
1740794339.368381,0.01749685557351917,-0.20360741632277196,0.34265515184800377,0.33033519292509295,nan
1740794339.3722863,-0.178486240690447,-0.6196846891675731,0.05661054584231392,0.22763875263179398,nan
1740794339.3761914,-0.13248493459864077,-0.7753021399810667,-0.3597604415429099,0.0004369410209459015,nan
1740794339.3800967,0.026876289204467198,-0.48660102666732175,-0.4193138420995548,-0.24282318087230312,nan
1740794339.384002,0.06147734276605535,0.0006362517227579922,-0.05069593498106481,-0.3696428564386864,nan
1740794339.3879073,-0.042262682853477784,0.2771151972584307,0.2945915877742306,-0.2809156738759794,nan
1740794339.3918123,-0.08462895028795742,0.2576058181308554,0.204166258595205,-0.0007759683261737929,nan
1740794339.3957176,0.02516074272843825,0.24850755381855014,-0.16495809169752168,0.2928050875864768,nan
1740794339.399633,0.11426597996820251,0.4738022183871719,-0.27492923079525466,0.3857475491880315,nan
1740794339.403538,0.0028518992147954624,0.6814865665686268,0.09908691050894025,0.21912207026259695,nan
1740794339.4074433,-0.18499504648607037,0.41305660733406757,0.5415162081160392,-0.04894061515951431,nan
1740794339.4113486,-0.13451677464622994,-0.33841580748895556,0.4739333856470829,-0.20095325259408037,nan
1740794339.4152539,0.21534277464774518,-0.945840657868661,-0.12787429570349385,-0.17369571394921268,nan
1740794339.419159,0.49564253558915555,-0.7886546921858785,-0.662709492759412,-0.08687042097562699,nan
1740794339.4230642,0.3077994641397861,-0.007604383934602502,-0.5857926850871176,-0.06632551777846607,nan
1740794339.4269695,-0.2554215347145361,0.5804576487726538,-0.02966411827365413,-0.09230115159886407,nan
1740794339.4308748,-0.6497905713389338,0.38931717418358885,0.3763719926194346,-0.05883685611849838,nan
1740794339.4347801,-0.48770662685880456,-0.2636114078058654,0.25527775946170755,0.055111535852134866,nan
1740794339.4386852,0.017887787021434103,-0.5466880040720136,-0.10725564273150567,0.14835460800075972,nan
1740794339.4425905,0.3308928986978813,-0.11431171414227231,-0.1611971344807093,0.14468979770960377,nan
1740794339.4465127,0.24097221814891226,0.49825102327439724,0.21537221949992516,0.10531025506610102,nan
1740794339.450418,0.05940838023926474,0.566709086821597,0.56997093669717,0.12689454716883078,nan
1740794339.4543233,0.13100876578296083,0.08610017754149242,0.4227307159022183,0.16102903987453437,nan
1740794339.4582286,0.333155767697487,-0.2500032094762567,-0.17171876266229197,0.04063112717788647,nan
1740794339.462134,0.24981406536876077,0.02527202166430734,-0.6937075508762987,-0.26645545968915674,nan
1740794339.466039,-0.20499114542219962,0.504709917847437,-0.7228160900334172,-0.5104343864711645,nan
1740794339.4699442,-0.5766470403249099,0.39132843290146313,-0.31979222312322225,-0.38510817127249136,nan
1740794339.4738495,-0.4146577673206831,-0.4591320418970041,0.14456936196005124,0.08309900147061491,nan
1740794339.4777548,0.11186201311353079,-1.2468750141527118,0.4045437840793706,0.4755177728518495,nan
1740794339.48166,0.37102947816038284,-1.0964181868438314,0.45538374007234333,0.40444682918609454,nan
1740794339.4855652,0.0576580419636984,-0.06343027226701674,0.3831901625729435,-0.03384071776135177,nan
1740794339.4894705,-0.39018192057792267,0.9203694183176816,0.21136579535203454,-0.335199149736262,nan
1740794339.4933918,-0.32541334266248423,1.0760973513051408,-0.03056712689935041,-0.15403292701397073,nan
1740794339.497297,0.2710936695641579,0.5439807784126272,-0.21033522982536662,0.2882589290800272,nan
1740794339.5012023,0.7310760463551274,0.04204182750705496,-0.2076282984981445,0.4514158746563836,nan
1740794339.5051076,0.5214783671994819,-0.04639839170791871,-0.10957650690821091,0.10653459518577936,nan
1740794339.5090127,-0.09702788891401164,-0.00011878652585047715,-0.14944015719119066,-0.3940418738214526,nan
1740794339.512918,-0.42867943684972243,-0.20084750110904478,-0.376448574603585,-0.5255865633957255,nan
1740794339.5168233,-0.24518672182601245,-0.5363765184908916,-0.48733376293156744,-0.18614694167184945,nan
1740794339.5207286,-0.03143143122339864,-0.5737800582729324,-0.14068617630939476,0.22249882149562006,nan
1740794339.524634,-0.24174214428070567,-0.20881306332984653,0.5496482173907393,0.28935015197090824,nan
1740794339.528539,-0.585896685755754,0.14987625715315248,0.9869891712113034,0.04243013555252881,nan
1740794339.5324442,-0.37666013710412,0.1359208351868072,0.6905925233549086,-0.16277678035197563,nan
1740794339.5363495,0.4546413433867161,-0.057078173991664455,-0.11790907139905492,-0.10754334619738774,nan
1740794339.5402696,1.0655549830880302,0.04885973118008273,-0.6770367730754925,0.07943587267755658,nan
1740794339.544175,0.6732789004726722,0.48812006990412554,-0.4999804846104351,0.17369387735559838,nan
1740794339.5480802,-0.3723253293416089,0.6960334968324189,0.07176803729332108,0.15832630462029298,nan
1740794339.5519855,-0.8733597967869999,0.2335441368658897,0.25847432375825585,0.15829030350073459,nan
1740794339.5558906,-0.22673078246898404,-0.5233572726862401,-0.22726967067040024,0.15830084670596545,nan
1740794339.5597959,0.7495074261029796,-0.7149900986155496,-0.7902174716766636,-0.016113450227014464,nan
1740794339.5637012,0.7521481866054991,-0.050741513528772625,-0.6052229557284123,-0.37532313345708357,nan
1740794339.5676064,-0.3662631767534584,0.7296729811595672,0.3922360520095656,-0.5890549539355399,nan
1740794339.5715117,-1.3165034224310181,0.6561572123433654,1.3175668940392016,-0.32731584992837265,nan
1740794339.5754168,-0.9107411773899664,-0.3164868427538195,1.217983452438462,0.24452726036166528,nan
1740794339.579322,0.43824130985332405,-1.2119840580372534,0.089836747976664,0.5291777318039012,nan
1740794339.5832274,1.1769761714139146,-1.1377932044710861,-1.0695079527038849,0.1942091727805043,nan
1740794339.5871463,0.5332931410033046,-0.25082442108356773,-1.2357311981159633,-0.32228558694780196,nan
1740794339.5910516,-0.5081421097238269,0.5645504860032114,-0.3385989418708062,-0.24966015584241033,nan
1740794339.5949566,-0.4798149857052878,0.8145852217928748,0.7271081476432354,0.5176263449009713,nan
1740794339.598862,0.6052180948851879,0.8378566873833864,0.9974863899613335,1.0898118098408032,nan
1740794339.6027672,1.159927449048852,1.051845306583429,0.30473419871693336,0.5080870247575865,nan
1740794339.6066725,0.07202584022695152,1.1259372313913818,-0.6746916108708702,-1.0106159790211195,nan
1740794339.6105778,-1.6464444662837177,0.33695104837704515,-1.1018354067093248,-2.025227140780076,nan
1740794339.6144829,-1.8583773565724426,-1.256964258495541,-0.6717209543124261,-1.2945487451858995,nan
1740794339.6183882,0.055678599400101184,-2.444413068169142,0.24307854032059908,0.7900675601843166,nan
1740794339.6222935,2.155972857429647,-2.032502654375946,0.9790851062034595,2.403463610732981,nan
1740794339.6261988,2.013561237953137,-0.2782216412555217,1.084696554577517,2.0331871219831634,nan
1740794339.630104,-0.3957858555357825,1.2486863909601251,0.5767708893497522,-0.029303494620239602,nan
1740794339.634022,-2.472460832103493,1.3760028208213055,-0.14367086318592376,-2.002221473408184,nan
1740794339.6379273,-1.8915825798556491,0.6029241480706015,-0.6031715797244069,-2.3370063419034404,nan
1740794339.6418326,0.7066974632884206,0.33885856238922957,-0.5888383902964406,-1.0264249725809176,nan
1740794339.645738,2.439296865971355,1.0056266404869916,-0.28321756223520944,0.7043148774778345,nan
1740794339.649643,1.512846881297175,1.4110544857295257,-0.08550203292434745,1.7089328889917534,nan
1740794339.6535482,-0.7618936363227709,0.3029632049484348,-0.23777183141649025,1.734850709531379,nan
1740794339.6574535,-1.6452685801685363,-1.7758691885462883,-0.5715642581825456,1.1282047182866963,nan
1740794339.6613588,-0.2879539240385776,-2.782978164923609,-0.6219805859152386,0.17989741740934279,nan
1740794339.665264,1.312173439243249,-1.5136645809635496,-0.037725356160944266,-0.9645299417852691,nan
1740794339.6691692,0.8494782695797071,0.7870663724099045,1.053377417406564,-1.9264231185952194,nan
1740794339.6730745,-1.357802836206178,1.674351009727789,2.0238861538136295,-2.0600734900277216,nan
1740794339.6769798,-2.628902390127851,0.35203044064559647,2.096582383726481,-1.046002273747619,nan
1740794339.6808965,-1.1085978982467612,-1.2610804870611791,0.8558886802479672,0.5953912191096254,nan
1740794339.6848018,1.9169374952586806,-0.7217310014002558,-1.3521704662324472,1.824906371779248,nan
1740794339.688707,3.352629736860404,1.8918193436780937,-3.38601495068442,1.984491127260994,nan
1740794339.6926122,1.73569875635235,3.7170762983196304,-3.822145955704404,1.2733717943521443,nan
1740794339.6965175,-1.1957355408168209,2.1952476600821265,-1.9190773579236808,0.3167894291356864,nan
1740794339.7004228,-2.5242999259920036,-1.8660056942917755,1.5542070586944203,-0.5343152336038582,nan
1740794339.704328,-1.3163445963150904,-4.811800547473954,4.455701804412076,-1.2782821221224616,nan
1740794339.7082334,0.6637023991625964,-3.8541289673405736,4.657036963552896,-1.7562414244663715,nan
1740794339.7121384,1.2376659395947633,0.026475957119308932,1.7999428961935031,-1.466058191896578,nan
1740794339.7160437,0.21555082572115994,3.147785669098023,-2.1419705184568127,-0.171623259120569,nan
1740794339.719949,-0.7899611686008823,2.948037569941106,-4.284602402023537,1.421941928678643,nan
1740794339.7238543,-0.565709877075536,0.4017419048251736,-3.2102286158135254,2.0015752869574395,nan
1740794339.7277706,0.3273880646189355,-1.420452337772856,-0.16332338477220582,0.9228680556261186,nan
1740794339.7316759,0.5408597026938778,-0.8041454429716888,2.1377433294484356,-0.933820508269761,nan
1740794339.735581,-0.18986693063320303,1.001556294027968,2.0060261179905905,-1.8479390786048422,nan
1740794339.7394862,-0.7160651532640906,1.5496271405676914,0.20133920265483102,-0.926843342021139,nan
1740794339.7433915,-0.02660792556451457,0.06600292079334337,-1.082798405945894,0.9852545492257012,nan
1740794339.7472968,1.3462252120011176,-1.8180381999722715,-0.5433188315375554,2.141392212230337,nan
1740794339.751202,1.834993373388028,-2.054183298634348,1.0026757932249286,1.5711854247143862,nan
1740794339.7551072,0.6326645427506568,-0.44036671059334237,1.6579430159947754,-0.14360728510523235,nan
1740794339.7590125,-1.3616352277492056,1.3205186654247958,0.5286317479910351,-1.6448639157850398,nan
1740794339.7629178,-2.47672752367669,1.5764004150077418,-1.3729654718985291,-2.085738295354102,nan
1740794339.766823,-1.9149539556998867,0.3710693855599811,-2.244224530796572,-1.5632956577053374,nan
1740794339.7707283,-0.3121687916959157,-0.88615082170287,-1.314106149924626,-0.5568303871554986,nan
1740794339.7746437,1.128906026256475,-1.0430918658933397,0.5269720969917546,0.6348890969317914,nan
1740794339.778549,1.7185428817926836,-0.2132139758612277,1.7485802972673272,1.7701939196287815,nan
1740794339.7824543,1.4929052523410153,0.6928991066455592,1.599904763614146,2.316499482363523,nan
1740794339.7863595,0.7699793734202915,1.0267949540657437,0.5199413104809513,1.696824966695609,nan
1740794339.7902646,-0.12144564345791262,0.7927401393065863,-0.5673525563724715,0.03221151758107764,nan
1740794339.79417,-0.7670326932105156,0.24074952504233466,-1.0792713475957028,-1.6216642466680502,nan
1740794339.7980752,-0.7818633489207693,-0.49252032253037975,-0.9570155246817471,-2.1028883452964866,nan
1740794339.8019805,-0.27281244508052527,-1.205258624499517,-0.3965320025179863,-1.2559218954355396,nan
1740794339.8058858,0.036494939662242494,-1.4069023782636056,0.30855896383265496,-0.04063403548141513,nan
1740794339.8097908,-0.4491164829326505,-0.6829589483156544,0.7509489638946127,0.5460720991218899,nan
1740794339.8136961,-1.2720325221042457,0.6404462018877868,0.5950660012735084,0.4855780912437073,nan
1740794339.8176014,-1.1390471776910513,1.4974400816488311,-0.01876264162460485,0.4876824974923463,nan
1740794339.8215234,0.5653171305146865,1.0682188233880623,-0.42560277703785043,0.8370906624664571,nan
1740794339.8254287,2.611817090108597,-0.23215316160807242,-0.09699390584900125,0.8716088266147592,nan
1740794339.829334,2.801068833777337,-1.0192369847011338,0.6081545516645492,-0.11868931313737537,nan
1740794339.8332393,0.359204618035657,-0.3965611821190777,0.6484302609392129,-1.6307972203420018,nan
1740794339.8371444,-2.747172150964655,0.94613369178992,-0.4715948409312134,-2.0513048008991737,nan
1740794339.8410497,-3.4258978536659654,1.3575040464910728,-1.7909106768601735,-0.3492674774691986,nan
1740794339.844955,-0.6835738643429315,0.06666417029508778,-1.6305998825944494,2.4274515132177017,nan
1740794339.8488603,2.9772730110914885,-1.7712603294729148,0.48517239465935724,3.7334333129655337,nan
1740794339.8527656,3.8175026452407463,-2.14940797762562,2.8408032964543395,1.9145660054139766,nan
1740794339.8566706,0.7038602708274136,-0.4100898424190598,2.9341800173356187,-1.9543391265508596,nan
1740794339.860576,-3.495418721470582,1.831377933158236,0.134987957246757,-4.783960291849366,nan
1740794339.8644812,-4.63584495806357,2.233706615043259,-3.249914357526776,-4.1937123907530705,nan
1740794339.8684027,-1.4805566657116658,0.25619463035481715,-3.971108138101146,-0.6419168092097379,nan
1740794339.872308,2.983389971313354,-2.0687989628909746,-1.0945777766326295,3.0523930292047567,nan
1740794339.8762133,4.520371012326745,-2.1363763728600196,2.866711457505579,4.239475477080024,nan
1740794339.8801186,1.8795116492359618,0.42107855130959637,4.295312598316301,2.5781997484166763,nan
1740794339.8840237,-2.0489180320148073,3.116786261046227,1.9864503476494537,-0.06298959849037494,nan
1740794339.887929,-3.276892649965802,3.0168192883013023,-1.7596223845510055,-1.5423886523379227,nan
1740794339.8918343,-0.7682364717768853,-0.19575275304117604,-3.5374858017602637,-1.2470951671652137,nan
1740794339.8957396,2.631015210269795,-3.6922223588728293,-2.151387643298853,-0.24358776935218485,nan
1740794339.8996449,3.205690018618229,-4.169783888263308,0.5489353119877444,0.034949077604605805,nan
1740794339.90355,0.15094255470770693,-1.087421776087125,1.9100376577162557,-0.8225134036935385,nan
1740794339.9074552,-3.6780495216493296,2.787960489329398,1.1635839146291207,-1.912909280149722,nan
1740794339.9113605,-4.64062601527161,4.054024802100901,-0.2361899080410484,-1.8996476402839957,nan
1740794339.9152806,-1.807690400790706,1.863712531020251,-0.6016240760480425,-0.2362549245898582,nan
1740794339.9191859,2.324787067452055,-1.4799953729400341,0.16192294715315392,2.2371636786794435,nan
1740794339.9230912,4.367310966924434,-2.923119109175915,0.8234928639881732,3.7894299875585764,nan
1740794339.9269962,3.132514785299842,-1.5155023457322288,0.5049589684936853,3.086203906767586,nan
1740794339.9309015,0.3426264178575037,1.014166177610892,-0.3854041557595499,0.34726233595156203,nan
1740794339.9348068,-1.4168802487285475,2.208414213734869,-0.9003434436631745,-2.6099245928368977,nan
1740794339.9387121,-1.2048882940444507,1.1826284812638541,-0.7687571351854091,-3.6758442367878548,nan
1740794339.9426174,-0.24446005584533698,-0.874610167555298,-0.48508422122448336,-2.1710649594858036,nan
1740794339.9465225,-0.2328837391608142,-2.0955830213151176,-0.3559751398189477,0.5188137595741406,nan
1740794339.9504278,-1.4106902845376135,-1.5865463078339948,0.00040476928400478993,2.109590026790239,nan
1740794339.954333,-2.376961498246893,0.10125627687724138,0.919933437630108,1.4478909886718727,nan
1740794339.9582384,-1.6849119971329156,1.684258918793416,1.7834610432082003,-0.4796099617157046,nan
1740794339.9621575,0.5558785919333321,2.107499465635332,1.426807324291708,-1.5706961460769844,nan
1740794339.9660625,2.721111029227193,1.0863158639232493,-0.34805628284485374,-0.6948764176168395,nan
1740794339.9699678,3.231359461809059,-0.7859440858362007,-2.0748746611395914,1.2298936191271952,nan
1740794339.9738731,1.978320688543819,-2.2639750320953134,-1.9608026557728087,2.239677913402983,nan
1740794339.9777784,0.21372331575880688,-2.1258775402385055,0.02166276575994648,1.3376727202484833,nan
1740794339.9816837,-0.843923484381042,-0.1699820913372408,1.815040167473533,-0.5736323389886996,nan
1740794339.9855888,-1.135097731579315,2.2614417146465584,1.4249336585158214,-1.7406114769956944,nan
1740794339.989494,-1.4598611207921735,3.078559733496252,-0.7465368866262921,-1.3733435074848845,nan
1740794339.9933994,-2.2005944491018465,1.2613752149534574,-2.1759919642207697,-0.27737174264110664,nan
1740794339.9973047,-2.5969442010211026,-1.9280714028642818,-1.0317087500397766,0.2497096235740854,nan
1740794340.00121,-1.496104938481161,-3.783168954914618,1.6063589732009758,-0.10712087769467382,nan
1740794340.005115,1.1611502781274954,-2.5605609588366334,2.799858270610273,-0.4913808679259765,nan
1740794340.009033,3.7881183065291895,0.7976131880562168,1.0636087973479562,-0.05583489529660599,nan
1740794340.0129383,4.337529880614746,3.437343217433001,-1.8198993793808962,0.9642696782553867,nan
1740794340.0168436,2.199450014042059,3.2195950430302864,-2.694849819787843,1.5307669516907463,nan
1740794340.0207486,-1.0873517585759502,0.6260342507475212,-0.6067297414962165,1.0223314412026758,nan
1740794340.024654,-3.126051774061851,-1.910044474011438,2.034088285480451,-0.09111390674022747,nan
1740794340.0285592,-2.7651955217810076,-2.440066911705426,2.14649834810544,-0.8610342739228313,nan
1740794340.0324645,-0.9693470911603225,-1.1521144703062671,-0.464403003082241,-0.9231736745414609,nan
1740794340.0363698,0.35568958077923346,0.29626835412105607,-2.78912060359901,-0.7058093847084165,nan
1740794340.0402749,0.3144367517198076,0.7390978646756947,-2.005468361778372,-0.6403729012034904,nan
1740794340.0441802,-0.2730271745264639,0.4957138379860223,1.2320042253611292,-0.511956380857478,nan
1740794340.0480855,-0.05817363432700564,0.48851316188042726,3.402368441064901,0.1456131257283352,nan
1740794340.0519907,1.1502264849165704,0.8165204820324813,2.032739464350744,1.145919519778511,nan
1740794340.0559075,2.0973918855996736,0.6295086858141927,-1.4749751232006976,1.5460517432348269,nan
1740794340.0598128,1.5069593420007394,-0.570320748396611,-3.332659009638895,0.6859170807569875,nan
1740794340.063718,-0.38831105989699405,-1.9027340865778006,-1.5481274292134368,-0.8343605221398185,nan
1740794340.0676234,-1.9506561199555064,-1.80414168743557,1.8670251466299403,-1.569910542546558,nan
1740794340.0715284,-1.8046524854017767,0.17382077106276164,3.1259894585735437,-0.7600571706563106,nan
1740794340.0754337,-0.2540464639269358,2.5180112590714367,0.8396263639014385,0.7533392593858229,nan
1740794340.079339,1.0882541916193833,3.005644726709055,-2.486486452002639,1.374123555930867,nan
1740794340.0832443,1.0138591119115845,0.9029669812030566,-3.2263165147438166,0.48939219584194615,nan
1740794340.0871496,-0.11644616495003694,-2.1648702089236287,-0.5620071038877017,-0.875691331138463,nan
1740794340.0910547,-0.958063621628037,-3.632062016509141,2.7096295781049955,-1.2411735703846944,nan
1740794340.09496,-0.7258177171479768,-2.3165583721039167,3.235963262302051,-0.31551221451090455,nan
1740794340.0988653,0.09166009085199006,0.606999436359774,0.6052998340110672,0.7878706846636045,nan
1740794340.1027813,0.5404492435935239,2.807103827017652,-2.410054611958566,0.9227320876554336,nan
1740794340.1066866,0.40818464169342,2.850214333606924,-2.8793645272264468,0.16957965124046417,nan
1740794340.1105917,0.32686628943283985,1.1566996447349565,-0.6221366311909184,-0.4728710259844712,nan
1740794340.114497,0.726749183187798,-0.7719378917469059,1.9312555969927967,-0.4263052548296339,nan
1740794340.1184022,1.06669326258115,-1.7804761524839303,2.4139204877516964,-0.13565792109739774,nan
1740794340.1223075,0.4296356693330563,-1.7253353646562533,0.7303695760632177,-0.22743724359444462,nan
1740794340.1262128,-1.1723856244735826,-1.0617078086718703,-1.2740348069730971,-0.46277690429946794,nan
1740794340.130118,-2.441455494041341,-0.16814916915067435,-1.8774240878804782,-0.014933419533847296,nan
1740794340.1340232,-2.0128489705323833,0.7914101789588952,-0.9438286926440397,1.196789898416562,nan
1740794340.1379285,0.015365946822085447,1.5548452913756685,0.41862566208024754,1.9515934307336313,nan
1740794340.1418338,1.9986675181903166,1.654976293127258,1.147132634818871,0.9698986698177179,nan
1740794340.145739,2.3076987204404746,0.8073546813171093,0.9762823824691246,-1.360751689529692,nan
1740794340.149654,0.8987803417253969,-0.6489179132664558,0.24110119127373517,-2.987043548863714,nan
1740794340.1535592,-0.7512226152095478,-1.8444632331144293,-0.5788516178919396,-2.237940847649595,nan
1740794340.1574645,-1.1921165587634834,-2.002265395166749,-1.0139122247729022,0.29507776746636094,nan
1740794340.1613696,-0.342121864487397,-1.003753890044373,-0.6795848614152407,2.282454921030076,nan
1740794340.1652749,0.6740494286687073,0.5860774870958135,0.3811086928847965,2.1048404846489746,nan
1740794340.1691802,0.7873231085958257,1.9335761371465405,1.4174225876398618,0.4617943739649707,nan
1740794340.1730855,-0.0755197854233739,2.3574418789983476,1.401126881920682,-0.6673867009015347,nan
1740794340.1769907,-1.1567936436245978,1.550463452922518,0.05313463070610378,-0.3913017397258266,nan
1740794340.1808958,-1.6426892036046747,-0.27097371037551266,-1.6174247010503675,0.25694340926416265,nan
1740794340.184801,-1.1695845891274765,-2.255537809726394,-2.1023723642751104,-0.06679149286842834,nan
1740794340.1887064,0.14121575862193975,-3.1484884650932696,-0.8957232579966166,-1.09322515621681,nan
1740794340.1926117,1.7440374574219841,-2.08470193509068,0.9055609084460976,-1.2297704560417548,nan
1740794340.1965337,2.7151913842811046,0.5174294758920309,1.6852419653697555,0.22948852586617383,nan
1740794340.200439,2.1522786277938617,2.918991070002974,0.9772695250993467,1.819408804227213,nan
1740794340.204344,-0.002058396606665987,3.2933527580316753,-0.13182421843411418,1.41068850263073,nan
1740794340.2082493,-2.4776955648184416,1.3342651067255402,-0.33817305198044556,-1.0873751391872521,nan
1740794340.2121546,-3.40046187158535,-1.3290017371569747,0.3450909748967422,-3.144324992385651,nan
1740794340.21606,-1.9104781566891265,-2.5239842460717474,0.6634817650905269,-2.1696307981368865,nan
1740794340.2199652,0.8668483951935264,-1.5242027290592288,-0.2571977634487657,1.4953225161932227,nan
1740794340.2238703,2.6834503706071398,0.3382769883986602,-1.674522741000153,4.594891442376989,nan
1740794340.2277756,2.199244635340837,1.1087342332045502,-1.932677978637536,4.148869816798149,nan
1740794340.2316809,0.1698235952270839,0.23316018716333242,-0.3931666022643609,0.42390604618348954,nan
1740794340.2355862,-1.4221988759860233,-0.9592549054643577,1.645675617882223,-3.4440141758361653,nan
1740794340.2394915,-1.3421187539332098,-0.8195161801575128,2.214104912020921,-4.590442242955702,nan
1740794340.2434125,-0.114914149632627,0.726049247817168,0.7926147355618425,-2.8723485643868156,nan
1740794340.2473178,0.8299502605663638,2.0389486629431257,-1.0907091482915192,-0.2920257189987111,nan
1740794340.251223,0.7279885600481231,1.5547261771471,-1.5002043541810002,1.419703528432454,nan
1740794340.2551284,0.02008506878827137,-0.46489633345840964,-0.16698156368971034,2.141169587432333,nan
1740794340.2590337,-0.4751494610471361,-2.137514085210056,1.2935802800471412,2.4922152700580384,nan
1740794340.2629387,-0.5195238310977475,-1.8991800922474928,1.2158564321692609,2.4246351024500004,nan
1740794340.266844,-0.4169109603456336,-0.08281218352242112,-0.3133746828106078,1.2822198728595826,nan
1740794340.2707493,-0.3040655528794154,1.5071451995484053,-1.6502832082647194,-0.8914230774066334,nan
1740794340.2746546,0.07641535363902284,1.469011022588213,-1.451876480737962,-2.773987900249686,nan
1740794340.27856,0.7857139459729329,0.09868468630060656,-0.054165466368053854,-2.9259668172603917,nan
1740794340.282465,1.218811772428901,-1.1335453322400921,1.078714515782452,-1.3639978774404842,nan
1740794340.2863703,0.639346781344384,-1.1517884329670576,1.0286545186767384,0.42362485640552316,nan
1740794340.2902904,-0.7784703078563618,-0.16677270566967353,0.25792946510979464,1.0960087491879449,nan
1740794340.2941957,-1.7835858183326379,0.8364786487119382,-0.19335831631233025,0.7797822025590069,nan
1740794340.298101,-1.2370625988698494,1.1636799625032739,0.006352880702629801,0.569415322331716,nan
1740794340.3020062,0.5607415931237899,0.8290242181024332,0.26747601440604307,0.967211003494932,nan
1740794340.3059113,1.9862278219884075,0.16131129926149315,0.027334966212657255,1.276293460809067,nan
1740794340.3098166,1.6773884311235383,-0.6131920095720482,-0.4732845715879556,0.6489972931707445,nan
1740794340.313722,-0.08734476355562983,-1.2793630300339156,-0.5650533153512944,-0.6529752312935276,nan
1740794340.3176272,-1.7058246216791544,-1.4164929687934353,-0.10072296005601922,-1.4662753827272836,nan
1740794340.3215325,-1.8724035106996917,-0.6639651837683321,0.32012611777865013,-1.1448826673468684,nan
1740794340.3254375,-0.7243754956027763,0.7002829722056504,0.1549252212063136,-0.34238731199289457,nan
1740794340.3293428,0.5916679219367144,1.7001520024850587,-0.33071029761056103,-0.11964100621011256,nan
1740794340.3332481,1.2114873988871298,1.4749509713473763,-0.39524147125333586,-0.5175579687852927,nan
1740794340.3371673,1.1776402662386476,0.1966888429476677,0.16659845530130368,-0.47618270341779306,nan
1740794340.3410726,0.9061982290645173,-0.9968420728678367,0.6823041933982215,0.7086625841138053,nan
1740794340.3449776,0.45142863363262137,-1.1109201758610203,0.4557279044110601,2.2125116892163543,nan
1740794340.348883,-0.4043940828935675,-0.27804062926982664,-0.2511107419206591,2.378358430440215,nan
1740794340.3527882,-1.4609863294118781,0.47130647697786454,-0.45611513947794424,0.5992072560232158,nan
1740794340.3566935,-1.9089016319298724,0.3804340711811292,0.25252432522058577,-1.8172953025492449,nan
1740794340.3605988,-1.097649861032614,-0.25387575232720067,0.9969863436976762,-2.8810923895162137,nan
1740794340.3645039,0.5876270790513602,-0.542427120686698,0.5436584583901068,-1.8901965949321304,nan
1740794340.3684092,1.8747817545094714,-0.10057278785935846,-1.0717381191756554,0.03920014960243695,nan
1740794340.3723145,1.7634977975085588,0.5250515012884686,-2.2456520892781286,1.3268474335454576,nan
1740794340.3762197,0.4797874457069481,0.5598934273825354,-1.452098824594896,1.4715456308383992,nan
1740794340.380125,-0.7950104688820477,-0.04953742515017217,0.9053001983832,1.088469253838404,nan
1740794340.3840427,-1.0955409019799487,-0.5728357369851201,2.6468572680137314,0.7293315725514633,nan
1740794340.387948,-0.49349032911245777,-0.36308217545597077,2.0276048308385604,0.1924371638685171,nan
1740794340.391853,0.1898269974001795,0.3866395029163655,-0.3495291614978522,-0.8241694814060341,nan
1740794340.3957584,0.3078716210656301,0.8606563153148884,-2.089872014274413,-1.7837687148189567,nan
1740794340.3996637,-0.07086773224734531,0.5198845451673576,-1.512963747131871,-1.5895471413514883,nan
1740794340.403569,-0.4265301243224452,-0.34774988189891504,0.5985011056552533,0.03987430121127251,nan
1740794340.4074743,-0.38330376685408424,-0.9779012277716549,1.8973586508062228,1.8290918464695163,nan
1740794340.4113796,0.015217453472485319,-0.902854900848161,0.9981319707814,2.0223031376212655,nan
1740794340.4152846,0.472805658880343,-0.29973662627159864,-1.1215091973966795,0.28440013693103444,nan
1740794340.41919,0.712360930204503,0.3314785377890808,-2.265998493790982,-1.739921357497706,nan
1740794340.4230952,0.5969326080303489,0.6638164933460571,-1.3376753444247336,-2.012413891334022,nan
1740794340.4270005,0.15291938499115015,0.6822574227474163,0.6792158083940991,-0.21947925999197662,nan
1740794340.4309177,-0.406480571972207,0.48720791024879584,1.9274777007955455,1.8670291496132938,nan
1740794340.434823,-0.7419233939383517,0.14433636449714932,1.5589395942676116,2.1934215793829264,nan
1740794340.4387283,-0.6219748707433392,-0.25230456981276117,0.29302058545545207,0.47185720167317285,nan
1740794340.4426336,-0.15886165154730414,-0.5135118151637837,-0.6457219565584985,-1.6396986827093718,nan
1740794340.446539,0.2551260662575188,-0.4829118083007834,-0.7793909081001644,-2.2737216266853397,nan
1740794340.450444,0.3213705839396042,-0.2213492057436423,-0.5058435301825968,-1.094285983865515,nan
1740794340.4543493,0.1295437175234171,0.029082577126824435,-0.30497526990327395,0.6536304319462853,nan
1740794340.4582546,0.02023239320718958,0.09919118882506288,-0.18122702637338908,1.5550334815917126,nan
1740794340.4621599,0.1609596688462136,0.05506347741935723,0.07840966419139767,1.261491690768722,nan
1740794340.4660652,0.34159890623650285,0.06460960013357196,0.3951874481230209,0.4259000902580574,nan
1740794340.4699702,0.2426594472439018,0.1551005883553249,0.42128169233535867,-0.23464567457629035,nan
1740794340.4738755,-0.14841648295503654,0.19199671151853231,0.04138930297999213,-0.5536471440692378,nan
1740794340.4777918,-0.4855343147521132,0.10015918794438848,-0.37943453610965916,-0.6982820367937371,nan
1740794340.481697,-0.4460371110863225,0.003062730001174788,-0.3795003729252808,-0.6835879744147171,nan
1740794340.4856024,-0.08962371829266111,0.05700937619142625,0.05862631044484747,-0.342214106041084,nan
1740794340.4895077,0.22460187461253592,0.189449758813045,0.49015184837923337,0.2858364224007627,nan
1740794340.4934127,0.24244329302009157,0.12740886876618085,0.5171886146863136,0.7759747473871983,nan
1740794340.497318,0.05527159177083154,-0.2529418684363563,0.18533311325513321,0.686537599027039,nan
1740794340.5012233,-0.07075387528992538,-0.6775988928004033,-0.17076543867781427,0.06298957200382345,nan
1740794340.5051286,-0.019962532798360043,-0.6911789466083565,-0.3490493684925732,-0.5446239237339614,nan
1740794340.509034,0.08973024147849765,-0.15232775387464775,-0.4072138597778475,-0.6118104894780559,nan
1740794340.512939,0.11061250039695891,0.5547708619274376,-0.41276250571434836,-0.1439884339999072,nan
1740794340.5168443,0.04842342229677672,0.8669142389096758,-0.26378430451913476,0.37543830549882806,nan
1740794340.5207496,0.001921746985922681,0.5847332621929497,0.11890087262031976,0.49495877298552277,nan
1740794340.5246727,-0.008509591660801601,0.02488932624006533,0.5202671659779249,0.1990175120391314,nan
1740794340.528578,-0.05968251554389498,-0.351572384552276,0.5540511417476851,-0.1712046213041409,nan
1740794340.5324833,-0.17399517773457368,-0.383902416392494,0.1279179390387629,-0.3080552758094441,nan
1740794340.5363886,-0.23538650705815048,-0.2516994928317833,-0.34043192166450703,-0.1935583627961324,nan
1740794340.540294,-0.11842448069995433,-0.15416749808559077,-0.3264513879980001,-0.015122886319561962,nan
1740794340.544199,0.1292879069375331,-0.07897940599946723,0.18184098035126323,0.0731902213818591,nan
1740794340.5481043,0.3025888534649529,0.07447508018477118,0.5989772480958789,0.06133953178875333,nan
1740794340.5520096,0.2518483668993615,0.24761653677687737,0.36332488773353055,0.010724161528509277,nan
1740794340.5559149,0.03744016901587555,0.23488840036166608,-0.41069050427380616,-0.04147077718603813,nan
1740794340.5598202,-0.15212495203893928,-0.03191226170211869,-1.0042150842104172,-0.07858441704824189,nan
1740794340.5637252,-0.19793109006902748,-0.31176251535503213,-0.8306706248152996,-0.05742906360198752,nan
1740794340.5676305,-0.12450528982467202,-0.2720530952960012,-0.027146243457950282,0.0674735212775273,nan
1740794340.5715528,-0.0066685505062156255,0.11940864772607006,0.723108212606234,0.2565714285747131,nan
1740794340.5754578,0.11568478340223276,0.4998688531933778,0.886057632668602,0.3615415059233069,nan
1740794340.579363,0.20067823526960446,0.46699608480102517,0.5141339305444004,0.23694268968522936,nan
1740794340.5832684,0.15693978978825618,0.009658948552659702,0.03365526767048545,-0.10583836148496295,nan
1740794340.5871737,-0.06739542581936565,-0.4650294690811599,-0.25265201583963204,-0.4662706772984833,nan
1740794340.591079,-0.3413274814468577,-0.541523660445486,-0.35866021338891324,-0.5953905931536456,nan
1740794340.594984,-0.39307065147046394,-0.19795694645602918,-0.39446634436359085,-0.38979778732440046,nan
1740794340.5988894,-0.08387017747726352,0.21322400927698346,-0.332333349080133,0.0288828466666142,nan
1740794340.6027946,0.3761939393296866,0.344015950009568,-0.08265956528591245,0.4062021586178902,nan
1740794340.6067,0.574050755635718,0.16324331946235307,0.2724900262430127,0.5321441042792843,nan
1740794340.6106052,0.3050353496248347,-0.09221875503333009,0.4596540106396885,0.3698884545916798,nan
1740794340.6145103,-0.19508957472494134,-0.20142647781031497,0.28229810441291725,0.06149462129802739,nan
1740794340.6184316,-0.4798932294243384,-0.13968667414910585,-0.139325901085605,-0.17750365136777055,nan
1740794340.6223369,-0.3452736256091588,-0.007782089053085371,-0.4523166739483625,-0.20639290328091398,nan
1740794340.626242,-0.005471613713263853,0.1267359204187168,-0.39380439186770716,-0.05995536448482628,nan
1740794340.6301472,0.18564297445930608,0.25816991885233037,-0.012497897514269623,0.07604551339188699,nan
1740794340.6340525,0.12263497091766602,0.3438041306578046,0.4025289608934246,0.020764476666707832,nan
1740794340.6379578,0.0025671723566106732,0.2644977152019362,0.5630599721585973,-0.22305929430934396,nan
1740794340.641863,0.027183778787569716,-0.05301558398328643,0.3642349272683955,-0.43544540320848024,nan
1740794340.6457682,0.14788203215511164,-0.4835022941121436,-0.07974113057528495,-0.3606435108466695,nan
1740794340.6496735,0.15565107202026202,-0.7311494335180274,-0.5021755788932565,0.03546094562757661,nan
1740794340.6535788,-0.0289117603608881,-0.5637385241688313,-0.6194347103481922,0.48706763568842326,nan
1740794340.657484,-0.24171537238233815,-0.03788025831052512,-0.3200910741450867,0.6438983517270744,nan
1740794340.6613894,-0.26661313326840597,0.5181124093681432,0.20231268488345522,0.39665290854504004,nan
1740794340.6653094,-0.08029757512151528,0.7630598282899956,0.5454024301961059,-0.016940548397426078,nan
1740794340.6692147,0.1396325959118755,0.6035603191415214,0.426450586229055,-0.25358831505649626,nan
1740794340.6731198,0.22059697831635272,0.22166093438859702,-0.038733033034743285,-0.2118684777482343,nan
1740794340.677025,0.15035835797027922,-0.12787502783958413,-0.42006353878403174,-0.10946271859182337,nan
1740794340.6809304,0.02865194218295257,-0.3293803105368544,-0.38057939480551,-0.1963211486760031,nan
1740794340.6848357,-0.06778617199839848,-0.4262152112115009,0.004484223171845837,-0.42349658865587697,nan
1740794340.688741,-0.12425127264303469,-0.47146169084319345,0.3553389368857014,-0.46154113661939417,nan
1740794340.692646,-0.13024403880094132,-0.41271096238559013,0.3890178112236517,-0.07999937449176256,nan
1740794340.6965513,-0.06111220686191553,-0.1588522740997419,0.16232862325153696,0.5285280787367196,nan
1740794340.7004566,0.05983762388260487,0.24934008052289494,-0.07827772591087533,0.8706964881244428,nan
1740794340.704362,0.13600793828120367,0.5841052884466392,-0.19830844632932862,0.6288572961454927,nan
1740794340.7082672,0.09008224648573694,0.5976246980907852,-0.24832978697047184,-0.009491386155701196,nan
1740794340.712186,-0.031460219314462246,0.26331418209606827,-0.27824846864661895,-0.5296351719051169,nan
1740794340.7160914,-0.09947614471461294,-0.16776786164334526,-0.21327257235844102,-0.586300211756711,nan
1740794340.7199967,-0.05791615875089931,-0.38034413940456413,0.009155358830720915,-0.28944532098373355,nan
1740794340.723902,0.011168456894689106,-0.2765061228454132,0.2555450187282862,-0.0022731805487562124,nan
1740794340.727807,0.01237691841218363,-0.04032302784278185,0.28954426831923263,0.0763751910446911,nan
1740794340.7317123,-0.01651777280451119,0.07500585259979335,0.08177337123505818,0.06217616947725069,nan
1740794340.7356176,0.04271900664915312,0.003946817805430845,-0.08734345899249865,0.13936325121084275,nan
1740794340.739523,0.185325742970599,-0.10169868167895263,0.05051504866403181,0.26872584691584794,nan
1740794340.7434282,0.21978457523608053,-0.08029675424904405,0.36146092877196884,0.2294393017553,nan
1740794340.7473335,-0.012230925519664707,0.04763258947684181,0.3888799033415735,-0.06286121994603795,nan
1740794340.7512386,-0.3769765673411024,0.12184442633528356,-0.0985987412411209,-0.37692716811262833,nan
1740794340.755144,-0.5123970278682741,0.05393035486161921,-0.72990024592332,-0.3787320157751063,nan
1740794340.7590616,-0.21061281347397756,-0.055425492044408484,-0.8540299124909744,-0.008142544715018516,nan
1740794340.7629669,0.3088170199041087,-0.0381255068204814,-0.26963558190663606,0.42086135437739214,nan
1740794340.7668722,0.5880322930861211,0.12632282273816015,0.4868930696794435,0.5234320844242994,nan
1740794340.7707775,0.40214938783873866,0.2633025807488738,0.6916074291243407,0.2177857861962231,nan
1740794340.7746828,-0.020002251518256145,0.18876754121352002,0.23124645551947579,-0.22702504159787382,nan
1740794340.7785878,-0.27605390459775725,-0.07968960905287543,-0.2778796369756841,-0.4819354121279047,nan
1740794340.782493,-0.23023796888667544,-0.32592995977235095,-0.2096157460282084,-0.44082455149152056,nan
1740794340.7863984,-0.09623528549837475,-0.35007551255451663,0.3438668232098982,-0.22048961904330197,nan
1740794340.7903037,-0.10108397235157077,-0.1600557877774216,0.68622353100317,0.03435767727628806,nan
1740794340.794209,-0.18345860910491518,0.05843730980675685,0.33278677243495325,0.2637167708256825,nan
1740794340.7981143,-0.1096188136419195,0.14304012423323553,-0.4340725389433939,0.4266324777030919,nan
1740794340.8020194,0.1643247405862637,0.10237411209093045,-0.9024514753165748,0.4278930413860639,nan
1740794340.805937,0.37840836248756843,0.06642610688088911,-0.7248174741535669,0.197857214970763,nan
1740794340.809842,0.2739619622631562,0.11790407602637304,-0.22150524744974381,-0.165329668465336,nan
1740794340.8137474,-0.06400697956049126,0.1969314816831359,0.10992425949935535,-0.4132222484035837,nan
1740794340.8176527,-0.27584360960978527,0.1738220600432976,0.2072387591997976,-0.36323210033472375,nan
1740794340.821558,-0.1435185302410552,0.0022436543488620984,0.4018528864241438,-0.08691459875256835,nan
