timestamps,TP9,AF7,AF8,TP10,Right AUX
1740794581.0728335,-0.19816606703463516,0.5209436268501341,-0.1346408608095031,-0.16645691043796298,nan
1740794581.0767393,-0.19543727175835596,0.028806710585544435,-0.38068518975155335,-0.40292061628280984,nan
1740794581.0806448,-0.2163665374165694,-0.6498763137743472,-0.40795878466171465,-0.33174748395890363,nan
1740794581.0845504,-0.2929085573565952,-0.9339013880069398,-0.14048490401768018,-0.07594712831247376,nan
1740794581.0884562,-0.2512648738648082,-0.549889835995157,0.21844611972085115,0.09934962687773138,nan
1740794581.0923617,0.04243107774119563,0.2256094498906868,0.41930300561987444,0.09663145113328735,nan
1740794581.0962675,0.42833997283117203,0.8147212990798365,0.4016355036393453,0.0462071723279742,nan
1740794581.100173,0.5557490189104666,0.8127172036934923,0.25425139885057285,0.07807022924497335,nan
1740794581.1040785,0.2675554115868257,0.27353755186397677,0.03504563806677231,0.13782355121364281,nan
1740794581.1079843,-0.1917337203642102,-0.3799903221029466,-0.24330626355918802,0.08863632008093046,nan
1740794581.1118898,-0.4212974400660007,-0.6896395613889605,-0.46467049637410524,-0.06499257706127792,nan
1740794581.1157954,-0.29103176717968227,-0.47422068273819135,-0.411541515125451,-0.1580079777135026,nan
1740794581.1197038,-0.045559391884812214,0.06971580545090823,-0.036054431288725895,-0.08250888551666957,nan
1740794581.1236093,0.029443418899818802,0.519544012137791,0.34781216862893743,0.06143094693264033,nan
1740794581.127515,-0.04474134470957687,0.5334626474528442,0.3256295619590337,0.0972337060892602,nan
1740794581.1314206,-0.011362954050391394,0.11359845612535349,-0.10488070061872065,0.008274460520514875,nan
1740794581.1353261,0.23360207426250393,-0.3822387888176315,-0.4237954447357269,-0.050379422197877125,nan
1740794581.139232,0.4484646626731364,-0.5288768334456895,-0.15211918754390796,0.013988542972258721,nan
1740794581.1431375,0.3185297508482262,-0.2085392929503926,0.5071060992610921,0.08259280706167572,nan
1740794581.147043,-0.1310034295110764,0.2682629737052435,0.7850274392023527,-0.00976265602926686,nan
1740794581.1509488,-0.5062897923066518,0.44146916951966075,0.21916666183897174,-0.2057466064397781,nan
1740794581.1548543,-0.4646931904599209,0.14197711460130694,-0.7036919688986869,-0.24275651243939467,nan
1740794581.15876,-0.09340623906819367,-0.33340984428329434,-0.9826852674537984,0.013313687353704758,nan
1740794581.1626656,0.20323527600193333,-0.5016886042307329,-0.22895930896673986,0.3367013416969844,nan
1740794581.1665735,0.1699465380101065,-0.16345582301388067,0.8050516879109595,0.35582883707791757,nan
1740794581.1704793,-0.033396790762986225,0.40144013754861413,0.9862580328606413,0.0012254177924852603,nan
1740794581.1743848,-0.06401019908855793,0.7014921653892592,0.05826041233579089,-0.3621305175517127,nan
1740794581.1782904,0.17375999916096155,0.48770787368303053,-1.031196595681974,-0.3233408558609004,nan
1740794581.1821961,0.4148323624831533,-0.05073065564602085,-1.1366844628462327,0.09543384429911245,nan
1740794581.1861017,0.34801426893428594,-0.5048917379961572,-0.13949112233609035,0.43980452292244687,nan
1740794581.1900074,-0.03075155023270312,-0.6165804424955084,0.9668274302106573,0.3216481811835703,nan
1740794581.193913,-0.4224008406905959,-0.4333749927280479,1.173664438551061,-0.1530513996827804,nan
1740794581.1978185,-0.5378939384377986,-0.15791100075272127,0.4664164276911815,-0.5091692331770413,nan
1740794581.2017243,-0.34602355215901587,0.07973103409574057,-0.3307376410925922,-0.4172391233305182,nan
1740794581.2056298,-0.027461733906406265,0.27718684180634057,-0.5564540193376744,-0.009212892582291386,nan
1740794581.2095354,0.2293319574290085,0.4420605571210375,-0.3383102142159814,0.31979703879454696,nan
1740794581.2134428,0.3390184356507099,0.49963984440148906,-0.20948048338419284,0.3395934075880391,nan
1740794581.2173483,0.2911263182951874,0.3569632990729164,-0.33656716682948246,0.15446047502606375,nan
1740794581.221254,0.11928159030580668,0.03713454135510978,-0.3562088711459613,-0.003207311590378641,nan
1740794581.2251596,-0.07470792984146997,-0.2942191450648709,0.045875467663249514,-0.04033803915773861,nan
1740794581.2290652,-0.14667061369702317,-0.4574701194725947,0.6234620897000113,-0.03037187273999145,nan
1740794581.232971,-0.04383841325189876,-0.40716895686740373,0.7992410670677039,-0.052426140208286356,nan
1740794581.2368765,0.09953637645785966,-0.2453275458931421,0.3432108929635277,-0.09437526032037799,nan
1740794581.240782,0.07967942847265645,-0.09814919854332121,-0.3390478159596334,-0.1108753916491299,nan
1740794581.2446878,-0.12980748646093954,0.003818902370910293,-0.6389842520728654,-0.09741403520511986,nan
1740794581.2485933,-0.3052177617435739,0.12151286005168407,-0.36476340517973316,-0.06604806965851331,nan
1740794581.252499,-0.2140912254553048,0.2986754140464027,0.14152673402036137,0.0011595446553763701,nan
1740794581.2564046,0.08774550480042376,0.471530202619295,0.42516145138893197,0.10950408531603006,nan
1740794581.2603116,0.28243593787183563,0.49264645470329493,0.33041121923221467,0.18161599064506828,nan
1740794581.2642171,0.1515634776077674,0.2540673291400859,0.006380595079561552,0.1130264727817957,nan
1740794581.2681227,-0.14671163789757263,-0.19206550609974973,-0.33197306461280957,-0.06843118491665143,nan
1740794581.2720284,-0.2407014529381925,-0.6193163979419466,-0.5292132198869696,-0.1660892710838519,nan
1740794581.275934,0.01947594159385311,-0.7514855351289479,-0.46034440593822373,-0.02217387926320636,nan
1740794581.2798398,0.37111980879674794,-0.45849704496952115,-0.07387274962248935,0.24703946888341677,nan
1740794581.2837453,0.43127374670624796,0.11475608911010399,0.4564387036403696,0.3180448507394818,nan
1740794581.2876508,0.12819087179106595,0.6080810740427959,0.7462122607438315,0.021766661622515296,nan
1740794581.2915566,-0.23953013655409594,0.6893209146777483,0.5326395048901544,-0.4104396630950164,nan
1740794581.2954621,-0.36745011680263023,0.31370260232139574,0.003257354556715802,-0.5519206111466819,nan
1740794581.2993677,-0.27107855973342865,-0.22154897803630993,-0.3389761779834747,-0.2446663845339425,nan
1740794581.3032734,-0.1850026562823652,-0.5040684518826511,-0.22299155394087358,0.21511193978813203,nan
1740794581.3071837,-0.20413217076210344,-0.3444442800119181,0.05561569216275785,0.40526859850779456,nan
1740794581.3110895,-0.15687339455799768,0.06811931525529498,-0.02352104308402286,0.2413386281233263,nan
1740794581.314995,0.12311469069248646,0.34263806842633815,-0.5305424438438809,0.026643744247528103,nan
1740794581.3189006,0.4997991368937792,0.24384612196154157,-0.8985423038682429,0.042588441180157574,nan
1740794581.3228064,0.6317927166614518,-0.09841491843212613,-0.5284456493108336,0.19540012627461,nan
1740794581.326712,0.3677923793135379,-0.3253467423024021,0.46926518586722904,0.1571354757150076,nan
1740794581.3306174,-0.06084389703741591,-0.20157826028958176,1.2822413979062928,-0.18388797572794724,nan
1740794581.3345232,-0.3069459182945562,0.15467869466530962,1.2046776170420566,-0.5350815143055919,nan
1740794581.3384287,-0.30000585546073816,0.38616084538225176,0.35879718964655044,-0.516236687361769,nan
1740794581.3423345,-0.26390511182174026,0.2450628609918818,-0.4747515979683404,-0.0977759160905437,nan
1740794581.34624,-0.3490043587827364,-0.16236408428915738,-0.7008034795669998,0.36227212772010575,nan
1740794581.3501456,-0.38446224418874436,-0.4717295558703154,-0.4593424801049404,0.5052222837440359,nan
1740794581.3540556,-0.11135353927598882,-0.40212117219887,-0.3027256053065306,0.3096623750741393,nan
1740794581.3579614,0.38934748972280087,-0.0119958918357116,-0.4566321688422455,0.01972872082092188,nan
1740794581.361867,0.668370735345883,0.3715536644332855,-0.5633235188244229,-0.1684858795219083,nan
1740794581.3657727,0.4006263895307107,0.46560279107885566,-0.1761313224428048,-0.24573053286545152,nan
1740794581.3696783,-0.17292469833032026,0.26936718765563306,0.6248016601158514,-0.24715692882435322,nan
1740794581.3735838,-0.44171881281153075,0.005080810831357358,1.2310700526334495,-0.12218621233405885,nan
1740794581.3774896,-0.10223227572875088,-0.14233851577291154,1.1071860302085696,0.15266723404773824,nan
1740794581.381395,0.46239845935398566,-0.1887555151521726,0.3122465344456143,0.3991668341462466,nan
1740794581.3853009,0.5796151984181723,-0.25036268562866204,-0.587142744087181,0.3338326231587835,nan
1740794581.3892064,0.037902126507697004,-0.3285646807957966,-1.0409101020255156,-0.09209597760773282,nan
1740794581.393112,-0.6680555604065472,-0.26818494897086514,-0.9058394183483077,-0.5330906845950487,nan
1740794581.3970177,-0.8812657751197667,0.03395762484296883,-0.40471258378298963,-0.5490190300989757,nan
1740794581.4009273,-0.48322216579764155,0.41907983497527707,0.14673881572302666,-0.0802809530683543,nan
1740794581.404833,0.04973347199622252,0.5500536707360081,0.5200317808487371,0.45426420000175644,nan
1740794581.4087386,0.26028828019873756,0.25726008605995926,0.5975692647016084,0.5810014626199275,nan
1740794581.4126444,0.230929655258392,-0.22619398349266676,0.3795163230616782,0.248776242580716,nan
1740794581.41655,0.385299072082044,-0.44735641222205863,0.01720586921411216,-0.17052026343419854,nan
1740794581.4204555,0.8322761219997602,-0.19166604460394387,-0.24310442856820697,-0.32000680725862835,nan
1740794581.4243612,1.085384675210312,0.26835828352974606,-0.24635666973539255,-0.20022783006718858,nan
1740794581.4282668,0.5591754118300576,0.4329581915271099,-0.07030355169577193,-0.05299282253937118,nan
1740794581.4321723,-0.6831433185464096,0.09416153334620715,0.06358918287505788,-0.009907410625412852,nan
1740794581.436078,-1.7964819341588403,-0.43853363298575015,0.033778265329320926,0.022436540692769447,nan
1740794581.4399836,-1.8567184992231276,-0.6531960022976704,-0.06390555137455772,0.13821739137163755,nan
1740794581.4438894,-0.7184054206860577,-0.3502496980083552,-0.06321904256099088,0.23074639105375153,nan
1740794581.4477985,0.8248396975392855,0.1917681026896287,0.049354175939882144,0.11921636561080538,nan
1740794581.451704,1.7163088513146845,0.5417438283208855,0.11676606376396773,-0.16678304551546483,nan
1740794581.4556098,1.482085888553525,0.5324953983294233,0.017643501831366405,-0.3547387681720065,nan
1740794581.4595153,0.49553887554364306,0.3173924271425994,-0.16690516389964954,-0.23171571417327808,nan
1740794581.463421,-0.46472102858103614,0.08675320918511173,-0.2344283147904583,0.09153360900408125,nan
1740794581.4673266,-0.8585798143382837,-0.1412573572825443,-0.08763304895956883,0.2997352497774906,nan
1740794581.4712322,-0.6742941746683917,-0.4017334159621721,0.16408496200782016,0.23432960221111795,nan
1740794581.475138,-0.2494790075694949,-0.5652364707247627,0.3277438313320724,0.047260521567733624,nan
1740794581.4790435,0.0823874094572762,-0.4033759347196193,0.3063763621108405,-0.02951406572275063,nan
1740794581.482949,0.19515721835218386,0.08019052689364939,0.1388839711491356,0.018082588380503417,nan
1740794581.4868548,0.14354304242121194,0.5039701190762989,-0.08790473770704524,0.0072213759703770985,nan
1740794581.4907603,0.036059947234966375,0.4475748566077468,-0.30048311234851066,-0.15113204765487798,nan
1740794581.4946687,-0.05145706238439725,-0.043904365001064684,-0.41510099098333736,-0.29816711234628435,nan
1740794581.4985743,-0.0860479999922946,-0.4198495932569548,-0.3330269457076643,-0.22505971334172525,nan
1740794581.5024798,-0.055649650454792456,-0.20333557888546447,-0.03424454919436987,0.03987554261889675,nan
1740794581.5063856,0.03828915401611337,0.4210335818760409,0.32831973233823003,0.2425006061256989,nan
1740794581.510291,0.16604217159733609,0.7329149814083163,0.49555352164046634,0.20713565038176848,nan
1740794581.5141969,0.25969842911195207,0.26248440867862627,0.3196183922368463,0.040652440873665596,nan
1740794581.5181024,0.2395034351374601,-0.6224435326354085,-0.07968360139041415,-0.024392090726503807,nan
1740794581.522008,0.07504478119893124,-1.0401557102251173,-0.3969874976458404,0.06607825901923296,nan
1740794581.5259137,-0.16738673497257747,-0.5311429199000557,-0.39456834222553056,0.13626411645249628,nan
1740794581.5298193,-0.3492120584382495,0.4225541110295398,-0.08848806955467751,0.0374659339640697,nan
1740794581.5337248,-0.3555369648529342,0.8951905116094874,0.2852203581266551,-0.1419188641980414,nan
1740794581.5376306,-0.18521873248815132,0.4960379394713193,0.4608869927866021,-0.19738089621980517,nan
1740794581.5415382,0.04927983449639296,-0.25258983380563726,0.32001113947261484,-0.09068303841433284,nan
1740794581.5454438,0.21211484929572966,-0.536818448455525,-0.05114792023228125,-0.0018684178873674972,nan
1740794581.5493495,0.2377101981349837,-0.14518172216230454,-0.4243630630068375,-0.07177617297931295,nan
1740794581.553255,0.15057974705037067,0.3663428051574263,-0.5681025970314039,-0.18516315689059318,nan
1740794581.5571606,0.02150594863411912,0.37127566249446836,-0.39528907249976786,-0.10591661060102806,nan
1740794581.5610664,-0.07639373485726418,-0.11255480929543411,-0.021601980923820267,0.19394382576657873,nan
1740794581.564972,-0.08618544633875698,-0.49760897178510355,0.33205039497017824,0.4480966830860017,nan
1740794581.5688777,0.009262853884377966,-0.3434306194253806,0.5181433438100922,0.391083754762085,nan
1740794581.5727832,0.14902033548461968,0.1522293458127971,0.5371865715868889,0.07495251249212055,nan
1740794581.5766888,0.199816817029059,0.4287049413001122,0.42899826050241013,-0.19554639569962887,nan
1740794581.5805945,0.056334086895261655,0.2228955967263171,0.14779946098802127,-0.2295578130346822,nan
1740794581.5845,-0.22980007824664775,-0.17169762363728164,-0.35365446436453657,-0.15170606458332067,nan
1740794581.5884078,-0.4430368738535211,-0.29790862401105983,-0.8903122896843051,-0.1872308606271911,nan
1740794581.5923133,-0.3771733876418271,-0.06006371190255952,-1.0202157872916493,-0.32266781846655845,nan
1740794581.5962188,-0.042681379636889026,0.22658600243321797,-0.43469930875626134,-0.2991909172830501,nan
1740794581.6001246,0.31490311346384114,0.24817748231899323,0.5771832338183219,0.03712933136868173,nan
1740794581.6040301,0.43170443734295955,0.02875174478946411,1.2026653767422535,0.4775344026184784,nan
1740794581.607936,0.26702148842162854,-0.17196130400428586,0.839189192052497,0.6342115015461441,nan
1740794581.6118414,0.019240291822961806,-0.19242032326781927,-0.20922548963371398,0.36257499819981687,nan
1740794581.615747,-0.09443421208806208,-0.09999325935908783,-0.9152446274345811,-0.08243453278713576,nan
1740794581.6196527,-0.05018612025901779,-0.020545212577450858,-0.5517022136705073,-0.33436885661668725,nan
1740794581.6235583,0.0013763106162790247,0.03627898654489929,0.4912139571728005,-0.2915146393123134,nan
1740794581.6274638,-0.060213298401400495,0.11942154261392171,1.0511122848338446,-0.14921486244947535,nan
1740794581.6313696,-0.18234862360106943,0.18318164541681553,0.42142374519213616,-0.10398213521155993,nan
1740794581.6352766,-0.21390148841285192,0.11250498955321711,-0.8509964627230234,-0.12876228922768318,nan
1740794581.639182,-0.09237697643176614,-0.08369990777040093,-1.503980819840113,-0.07351591882382123,nan
1740794581.6430876,0.08038147125074943,-0.20795257201685297,-0.8732820369684112,0.09360680435955765,nan
1740794581.6469934,0.15196383493707133,-0.09151639851455451,0.44654727614246276,0.23841086299538028,nan
1740794581.650899,0.08136704541498657,0.1570110686624709,1.2786033207079148,0.24198438858083482,nan
1740794581.6548047,-0.029480454440974187,0.2262508137297493,1.0674788834747535,0.13907808272534675,nan
1740794581.6587102,-0.051105299489846476,-0.03160549955575684,0.2839590294706049,0.034226428800505686,nan
1740794581.6626158,0.04798573338915238,-0.3760575362334449,-0.2844400527273638,-0.05253992038479137,nan
1740794581.6665215,0.18442872897946067,-0.4055103153023371,-0.3949334595695281,-0.16973626253838217,nan
1740794581.670427,0.2400974556248733,-0.009353894674480646,-0.3712107196019784,-0.28042627168801276,nan
1740794581.6743326,0.14961581222199924,0.4767178700824952,-0.44319659090052715,-0.23335781299700917,nan
1740794581.6782384,-0.06235562989810208,0.6049157391565327,-0.39071681515534723,0.040963039730667804,nan
1740794581.6821487,-0.29319909619485596,0.26736236718769524,0.0338184886976843,0.3576073525715665,nan
1740794581.6860542,-0.4112126059971077,-0.22694935011214112,0.5503096013577131,0.4083695794477238,nan
1740794581.68996,-0.3330967888581519,-0.4932995777018246,0.537695431808467,0.09972181263125449,nan
1740794581.6938655,-0.09143598859498249,-0.4167267487432009,-0.1575428830797037,-0.304891353481994,nan
1740794581.6977713,0.174530185338251,-0.15606134614092548,-0.8357067408922109,-0.4430182626735834,nan
1740794581.7016768,0.3216816136140266,0.09447020054084328,-0.6185229974886703,-0.23056011542853735,nan
1740794581.7055824,0.3131313658672896,0.2517954911833009,0.49565762515286044,0.08041814474612587,nan
1740794581.7094882,0.22221614089683928,0.28740799145159607,1.4643729081913588,0.21603975686466256,nan
1740794581.7133937,0.12770771394186106,0.16517567745285358,1.2364850095679747,0.1703916006876128,nan
1740794581.7172995,0.027836685174971558,-0.07574824252743981,-0.10911663659969968,0.13014078395622775,nan
1740794581.721205,-0.1194399269681304,-0.24234181650492131,-1.4003834393372445,0.17383626756313825,nan
1740794581.7251105,-0.28529806740266256,-0.13279039135320897,-1.558103333895923,0.16395159422557135,nan
1740794581.7290208,-0.3472115124733037,0.1924979603992436,-0.6308258027654998,-0.029228259502015668,nan
1740794581.7329264,-0.21220792737733288,0.38116768698543946,0.399932528158898,-0.2908443222887391,nan
1740794581.7368321,0.049844938529935164,0.14516448889396058,0.718095965331583,-0.3569364511186016,nan
1740794581.7407377,0.23776183582882665,-0.3601095727957474,0.41475663970763726,-0.14302750458079375,nan
1740794581.7446432,0.20673175013071177,-0.6245239799153074,0.15402846865672606,0.12129361135711948,nan
1740794581.748549,0.012703466283479905,-0.3229227675744466,0.3061446756110255,0.14937972690339787,nan
1740794581.7524545,-0.14684054273410616,0.28605206318463594,0.5824413273484002,-0.056846883677061213,nan
1740794581.7563603,-0.12783239671783309,0.5985106293760637,0.48295651351325153,-0.20194730482431542,nan
1740794581.7602658,0.04121332142498085,0.31572832723466654,-0.08292473022369427,-0.04667483625392436,nan
1740794581.7641714,0.22115990509089245,-0.22481125774077335,-0.7175362979513674,0.30637781568362454,nan
1740794581.7680771,0.3000296488366652,-0.42526515864835307,-0.9804204364636422,0.5221762495671265,nan
1740794581.7719827,0.2474543137274245,-0.08530038233115046,-0.7776345006195549,0.38916897234946685,nan
1740794581.7758923,0.07215733581240387,0.40180459760717374,-0.3192571976840955,0.007308781784102126,nan
1740794581.779798,-0.2020810638050814,0.5083701639818747,0.1641689631281914,-0.36011850637300485,nan
1740794581.7837036,-0.4883622624508838,0.13083292119943157,0.5648348562782468,-0.5376610797388931,nan
1740794581.787609,-0.6139359148292346,-0.36880430928982083,0.8235371642742035,-0.5069340516215509,nan
1740794581.7915149,-0.4270356847937709,-0.602079442924561,0.8534879490593047,-0.3072436527604194,nan
1740794581.7954204,0.03589323758191784,-0.5039723800460552,0.5965208278425104,0.017408921498584518,nan
1740794581.7993262,0.517836378461915,-0.23571059677531253,0.10730333454290492,0.3578938139816321,nan
1740794581.8032317,0.7244080442459424,0.10388273476198465,-0.4609049443369638,0.5302265840326909,nan
1740794581.8071373,0.5608385784059272,0.509576135117006,-0.9235701594736918,0.4245233822609414,nan
1740794581.811043,0.18565687034089715,0.8408842818416191,-1.0904289283537503,0.15028326076495677,nan
1740794581.8149486,-0.16039352090696704,0.7674291346246842,-0.7998864985702875,-0.0515542572238897,nan
1740794581.8188543,-0.3533427290092541,0.11492448223221174,-0.06389832624734175,-0.07327798644474726,nan
1740794581.822763,-0.414755992254575,-0.7675001784872506,0.7820616286991734,-0.05737298371786557,nan
1740794581.8266687,-0.3927277760848819,-1.1700263569105611,1.1983397480489122,-0.19179403320709454,nan
1740794581.8305743,-0.278928136680892,-0.6867121892530116,0.8751137840365865,-0.4263827149492812,nan
1740794581.83448,-0.06090197530081149,0.3086961930122444,0.08156782508425833,-0.4877152442454824,nan
1740794581.8383856,0.18899827383741313,0.9571124007779793,-0.5234686883164477,-0.20663778597047924,nan
1740794581.842291,0.3345556277410915,0.7307938581679261,-0.5206561699945714,0.24165046980805327,nan
1740794581.846197,0.29993204899868986,-0.07549178191430796,-0.13867744706207638,0.5010357285077334,nan
1740794581.8501024,0.1479779929185424,-0.6833431479317276,0.044979440381898175,0.41684428291719083,nan
1740794581.854008,0.016042057980611753,-0.6062224107450592,-0.20501614996927783,0.17285627305444842,nan
1740794581.8579137,-0.016129645025474804,-0.041591932514479936,-0.5058560542058103,0.029211115379156435,nan
1740794581.8618193,0.0174541685119565,0.4511355150387438,-0.3359349420563467,0.0118548719500827,nan
1740794581.865725,0.02870906626471024,0.5349989176730648,0.29735821529510376,-0.05270088032991715,nan
1740794581.8696334,-0.03572784298208982,0.3074636353038393,0.812189593493307,-0.23399863534990195,nan
1740794581.873539,-0.16120980365647736,0.03434450604411981,0.6969032977792124,-0.3597204230618192,nan
1740794581.8774445,-0.282372809501495,-0.16715112398190393,0.07937124440723738,-0.24388491549186758,nan
1740794581.8813503,-0.3110904386069872,-0.3341036467462829,-0.44447062213977157,0.029760387319523646,nan
1740794581.8852558,-0.1786670700246883,-0.45834322813133166,-0.4860768045216126,0.17522846405091003,nan
1740794581.8891613,0.09453526006116612,-0.41996538066596795,-0.22398437503372579,0.06286513194556785,nan
1740794581.8930671,0.36044646526632246,-0.14633985695108945,-0.06679119463460906,-0.10095503630694086,nan
1740794581.8969727,0.4263887920600676,0.2415375620744132,-0.11129868395854324,-0.03225237622245816,nan
1740794581.9008784,0.23354466382603764,0.5069280945994264,-0.08943010290116161,0.25097719074077296,nan
1740794581.904784,-0.05147463612685375,0.5070330993465453,0.18410519549409557,0.4252041590507162,nan
1740794581.9086895,-0.17686668541406203,0.2894061588384632,0.49974689072829126,0.2558198282574623,nan
1740794581.9125953,-0.06823595986154539,0.002537453694624054,0.49727978955891056,-0.10970451365973434,nan
1740794581.916503,0.07929751493172728,-0.2290711375893514,0.12952889990433744,-0.32623463490386595,nan
1740794581.9204087,0.017595801010277756,-0.33642905743967183,-0.2743420577763847,-0.27033471223637096,nan
1740794581.9243143,-0.25157733771701507,-0.29207119319769304,-0.41669835484552764,-0.14821910213232836,nan
1740794581.92822,-0.4451119821478773,-0.13704631742557014,-0.35452786671807573,-0.16460496427942287,nan
1740794581.9321256,-0.3035923373219576,0.003143547512622081,-0.31901696002019353,-0.21596913593230987,nan
1740794581.936031,0.10405530811289986,0.016887610161122057,-0.31576677334304387,-0.04258744851308259,nan
1740794581.9399369,0.43448753603347223,-0.048968512301253174,-0.09506330442857243,0.3528671248216149,nan
1740794581.9438424,0.4303464347490476,-0.011466435810170508,0.43575534036624786,0.6041053489954985,nan
1740794581.9477482,0.17531718339131863,0.2122998708946669,0.9289014098769791,0.39057211225997784,nan
1740794581.9516537,-0.039418022615695394,0.4295663056900281,0.8917769163353736,-0.13603017404083104,nan
1740794581.9555593,-0.05771032729784925,0.34229482181103726,0.2521009205841765,-0.47379861236557413,nan
1740794581.959465,0.0022777194681423995,-0.06962129465756657,-0.5129472982978255,-0.33192118480922433,nan
1740794581.9633722,-0.04853194609505006,-0.4327657517625952,-0.8693675480831138,0.04783565874055531,nan
1740794581.967278,-0.20870176028316656,-0.3636350665249685,-0.7463420367865041,0.20537537402443767,nan
1740794581.9711835,-0.2969812562859284,0.050881103996456754,-0.46720459849346774,0.015816374561302093,nan
1740794581.975089,-0.19673169990573916,0.2952879896877998,-0.24494871445464436,-0.2047428784399213,nan
1740794581.9789948,-0.001467255834781173,0.02943450793426917,0.054750430555822995,-0.14478980176640124,nan
1740794581.9829004,0.11898718008349987,-0.4421923468152645,0.576901707315403,0.10353505573192384,nan
1740794581.986806,0.1339819087867426,-0.4687310732575722,1.070752424060964,0.20312233893164602,nan
1740794581.9907117,0.1547519877172477,0.15085039302606282,1.0434595603187509,0.05035872942469356,nan
1740794581.9946172,0.23433040801544727,0.8231650945772765,0.3512172924392852,-0.08479363655203148,nan
1740794581.998523,0.2591202650235389,0.7666820042130483,-0.5315012670211229,0.04833132889364684,nan
1740794582.0024285,0.10006995870248105,-0.06850356633842916,-0.9661525752748077,0.291530582335935,nan
1740794582.006334,-0.17661160122683772,-0.8607849161331501,-0.8053184288878603,0.24598022565697186,nan
1740794582.010241,-0.34244867620432556,-0.7924789539298245,-0.4460559642153921,-0.18567635206772504,nan
1740794582.0141466,-0.2682909885747665,0.033903805347861485,-0.24155925431006875,-0.5945409568380244,nan
1740794582.018052,-0.07949289632776742,0.7104621917039028,-0.06218042049969768,-0.5092895621627785,nan
1740794582.0219579,0.009057161392946359,0.5532697672891161,0.405141601446617,0.03445794743469817,nan
1740794582.0258634,-0.029634676222375686,-0.14975562923476227,1.0301127878929435,0.5110994872572463,nan
1740794582.0297692,-0.01437915937662727,-0.5346046204723752,1.1855814737951935,0.5002308512985956,nan
1740794582.0336747,0.17042267533100966,-0.20229344173178004,0.4593039044791704,0.1337034863780478,nan
1740794582.0375803,0.37148406279455126,0.34493643060267426,-0.7128807099293603,-0.13308311321767757,nan
1740794582.041486,0.3266510513264533,0.3668692401056933,-1.3482417544014176,-0.09922697718670455,nan
1740794582.0453916,0.005966049031253197,-0.18900133365753144,-0.9095982843050189,-0.005818427138446062,nan
1740794582.049297,-0.3090476616473384,-0.6266296629344431,0.12554508757694402,-0.13210961975249394,nan
1740794582.0532029,-0.33490686537146674,-0.35631228194711384,0.7801006009826025,-0.37044455658380376,nan
1740794582.0571132,-0.11027767354529552,0.3881600120565143,0.5890595230533896,-0.3530254095031117,nan
1740794582.061019,0.0718141082585483,0.8221118445690909,-0.020254769566338007,0.04162422801285735,nan
1740794582.0649245,0.03517217873436746,0.5105849380415325,-0.3239925655287128,0.47812329633533024,nan
1740794582.06883,-0.08066132794191894,-0.18505372755680807,-0.10412131503342273,0.535640167890635,nan
1740794582.0727358,-0.04070784604913986,-0.5869233718384317,0.23776364341792228,0.19157206159115925,nan
1740794582.0766413,0.1497357617441469,-0.45778808350488187,0.24966968041728743,-0.18421698366732278,nan
1740794582.080547,0.2465683593909159,-0.13657241601944378,-0.07551544107324147,-0.28463811118973065,nan
1740794582.0844526,0.10377244174601975,0.00033870818678952385,-0.39243229716940936,-0.1744681306067936,nan
1740794582.0883582,-0.1130309488100554,-0.007936386925028549,-0.42314561132278394,-0.09968921398432357,nan
1740794582.092264,-0.1379897541321396,0.11437669465785426,-0.16217963803867233,-0.11932801167867776,nan
1740794582.0961695,0.032269901882452136,0.3950049174182763,0.24123699659556314,-0.0752514376874498,nan
1740794582.100075,0.12193757761364972,0.5153922141241141,0.6105362882267718,0.10142175168408125,nan
1740794582.103985,-0.04777842748219312,0.2253958309364681,0.7233734093572752,0.23138353850176188,nan
1740794582.1078906,-0.28535175607282653,-0.29693736341288623,0.36569802605350404,0.1332636945819694,nan
1740794582.1117961,-0.25059218688867935,-0.6160135563026938,-0.4019365665509075,-0.07660549051131298,nan
1740794582.115702,0.0873973679811643,-0.5066446035203055,-1.0794306853320317,-0.09855348014090455,nan
1740794582.1196074,0.36221597702814745,-0.12940585865347712,-1.0562197533288364,0.12901637135619393,nan
1740794582.1235132,0.24878522554311297,0.2393161034592339,-0.24149804027828697,0.28668623013501976,nan
1740794582.1274188,-0.11139674459812086,0.48869364391290343,0.7240959749905109,0.07017398204498042,nan
1740794582.1313243,-0.2637816941048785,0.6032328678209693,1.0449137455913502,-0.35829825807971727,nan
1740794582.13523,-0.013089583678857899,0.45959014605905196,0.5698898344197695,-0.49629154688593347,nan
1740794582.1391356,0.3076948995194138,-0.07288879651165038,-0.09803639383468223,-0.1176288620920938,nan
1740794582.1430414,0.2413863200334324,-0.7864549841953347,-0.32045374795936127,0.3903687017551007,nan
1740794582.146947,-0.201909951070326,-1.1008889868105802,-0.11131886321374021,0.44779246431065517,nan
1740794582.1508563,-0.5194558188349647,-0.5993982000459489,0.017508190822385413,-0.014718525678884974,nan
1740794582.154762,-0.31689015282913263,0.41210261265432674,-0.20017569773752225,-0.4471177985099612,nan
1740794582.1586676,0.20118880537071407,1.0805895193288897,-0.4386498887768332,-0.3303002434543822,nan
1740794582.162573,0.4685403760860939,0.8611460329005463,-0.2690548790915765,0.2013772351768937,nan
1740794582.1664789,0.23474070366708935,0.10249013857784992,0.19714669741956806,0.5301756681862496,nan
1740794582.1703844,-0.15660998430009032,-0.36696677332003164,0.40317999229595447,0.29865231883571924,nan
1740794582.17429,-0.22313612487682055,-0.20173002614504199,0.08408048360816935,-0.19317233987305824,nan
1740794582.1781957,0.055951767486010946,0.10448538401842483,-0.33714203657804176,-0.39537560850792963,nan
1740794582.1821012,0.2502865208586034,-0.08851124509559127,-0.2607931128400516,-0.16680381958047913,nan
1740794582.186007,0.06270520008677086,-0.6870713525678003,0.3051710170585779,0.13336015688145497,nan
1740794582.1899126,-0.27928868906435206,-0.9199371679430001,0.7163560704315063,0.16106864627069517,nan
1740794582.193818,-0.3260218240688003,-0.2985126967668058,0.4799639132865036,-0.013523409676956283,nan
1740794582.1977315,0.0021691438684082196,0.7059847349325032,-0.150275580995549,-0.10971754289348716,nan
1740794582.201637,0.3063503816471621,1.1404306285433519,-0.5298407680346936,-0.07287444700366597,nan
1740794582.2055426,0.220401915752885,0.6506111448912127,-0.4321290301717192,-0.09219378084729099,nan
1740794582.2094483,-0.12589486196089497,-0.14369525636891303,-0.2307754412910541,-0.20562047301519526,nan
1740794582.2133539,-0.2872053528581037,-0.41899711306729587,-0.25798265581202556,-0.1390850593871285,nan
1740794582.2172594,-0.07814797314851743,-0.09660404952786884,-0.2892593932313454,0.29199181110521744,nan
1740794582.2211652,0.20906140130716563,0.1781005736272522,0.07647412233041986,0.7570942322649151,nan
1740794582.2250707,0.21209457718381186,-0.07351111354796214,0.6740923326064125,0.6626598340813908,nan
1740794582.2289765,-0.02499444040490059,-0.5694142786025257,0.8089381477867286,-0.09795982361811881,nan
1740794582.232882,-0.13674329864318502,-0.68553102650217,0.18000281306785915,-0.8590709539855502,nan
1740794582.2367876,0.04706327367608472,-0.26935612654342217,-0.5460762296608748,-0.8597882259883105,nan
1740794582.2406933,0.25818338509617317,0.22934381908097454,-0.46128161591486483,-0.14444492779328727,nan
1740794582.2446017,0.1508751047236256,0.4130171622176477,0.34507872391985034,0.45297011556848515,nan
1740794582.2485073,-0.21955440046521232,0.41649053917018947,0.7241842833022156,0.30100431358122326,nan
1740794582.2524128,-0.4484260782328319,0.5487141723573871,-0.09462044871348783,-0.26037453340261263,nan
1740794582.2563186,-0.29844234701422717,0.6659105794401968,-1.3070704980399441,-0.36271815305367,nan
1740794582.260224,0.01104414207179808,0.2817719961785732,-1.2997571413479145,0.25849002592900944,nan
1740794582.2641299,0.12614430038094046,-0.6223263063988799,0.30478227313746503,0.8777945631166933,nan
1740794582.2680354,0.043209542581939785,-1.2482918196292745,1.868207386556326,0.6697863396992123,nan
1740794582.271941,0.08317155730491332,-0.8047006848796865,1.483292642702414,-0.22527189967013808,nan
1740794582.2758467,0.3857218483309756,0.39141614938612707,-0.6421601806871996,-0.8266147427016487,nan
1740794582.2797523,0.6341657942196584,1.0498628516269077,-2.1508392854892158,-0.5046434023080738,nan
1740794582.283658,0.43063328484494695,0.37531489989562355,-1.1921695012246334,0.2547170374036181,nan
1740794582.2875636,-0.1566204280353191,-0.8503899783450538,1.2730674535304904,0.48141626639609353,nan
1740794582.2914712,-0.62890842882803,-1.063791481739036,2.4204311789803037,-0.05993285375354301,nan
1740794582.2953768,-0.662557969479385,0.17796298440978336,0.8512117229567476,-0.6199152874604161,nan
1740794582.2992826,-0.4734115662994182,1.511518952449295,-1.6586631912500605,-0.47847039886739673,nan
1740794582.303188,-0.42624429675422415,1.3177445611889982,-2.1767753943757873,0.12415546861915339,nan
1740794582.3070939,-0.42668716957838004,-0.2556883165197391,-0.1145606380941551,0.3657273441170912,nan
1740794582.3109994,-0.0031067052923345103,-1.3539643762120286,1.9980146934237257,0.011671843388495739,nan
1740794582.314905,0.9283510075993364,-0.6715193264736626,1.5032399881963703,-0.21967711800278492,nan
1740794582.3188107,1.6560781926082029,0.8126972875395476,-1.1497518431600677,0.3517033944357248,nan
1740794582.3227162,1.3428112814068,0.9343640445604653,-2.8442604333681603,1.3017243928351685,nan
1740794582.326622,0.07746747351652769,-0.8523086889427091,-1.4549608541564556,1.437117139704688,nan
1740794582.3305275,-1.0603044316518795,-2.4425347504298527,1.6275070545491357,0.22644748920958283,nan
1740794582.334433,-1.1738025347272092,-1.4161692413397724,3.1249982753369667,-1.4503514156510517,nan
1740794582.3383405,-0.5868383070139429,1.8083174690434813,1.6779595251110853,-2.217671999171046,nan
1740794582.342246,-0.38270677098626477,3.923349569812727,-0.7391064718798552,-1.6742213910248132,nan
1740794582.3461518,-0.9197201013981499,2.2913392667553127,-1.4036495548123173,-0.6159674015465834,nan
1740794582.3500574,-1.2150822605725935,-1.7997585574374648,-0.1676795541820889,0.15552134122556435,nan
1740794582.353963,-0.14495122361781715,-4.156063079581902,0.5758588301456943,0.7764272072772118,nan
1740794582.3578687,1.908362742212444,-2.1915508205179135,-0.8262251859380509,1.7529425683352187,nan
1740794582.3617742,3.109520929122579,2.0481533739387716,-2.9109721953728855,2.7448580101797537,nan
1740794582.36568,2.119599695401445,3.93858631418311,-2.688996558997642,2.555681559897265,nan
1740794582.3695855,-0.28573159180956553,1.3261505216701002,0.622634568790512,0.6042446096419996,nan
1740794582.373491,-1.9667647970129936,-3.0160244478599965,4.2535045009270736,-1.9872127661324324,nan
1740794582.3773968,-1.7828207267609069,-4.339561860966882,4.678418549194595,-3.314342053064187,nan
1740794582.3813024,-0.7628320472489436,-1.073149099324061,1.4221481980398036,-2.7123335315955552,nan
1740794582.385209,-0.6257755909335837,3.48570569614023,-2.445429966637161,-1.3759442396095967,nan
1740794582.3891149,-1.4539505481899262,4.731175553918433,-3.5923186386784853,-0.6920708676490479,nan
1740794582.3930204,-1.4853366158619155,1.5779802093437236,-1.725618000163054,-0.369837651030129,nan
1740794582.396926,0.5506641988650429,-2.64195832353702,0.596673282214954,1.0807014789589895,nan
1740794582.4008317,3.3905113395300694,-3.9115451795290848,1.0278458600433744,3.898979013775675,nan
1740794582.4047372,4.214352036086352,-1.6019899961990665,-0.2548045643582552,5.814379515456092,nan
1740794582.408643,1.7913484555904053,1.3901659767780514,-1.273030766695437,4.058203998139514,nan
1740794582.4125485,-1.8635690919805055,2.1180139931562887,-0.6737184279473297,-1.2609025818906812,nan
1740794582.416454,-3.4632697739920184,0.5625636066592478,1.013580696284021,-6.414292872142655,nan
1740794582.4203598,-1.9635678877852174,-0.938146180291105,2.283891042758881,-7.281144588790888,nan
1740794582.4242654,0.4021847636971094,-0.6532104843706678,2.212210128139956,-3.3342592278513874,nan
1740794582.428171,0.7987968604366471,0.7431511454801936,0.9501501090856593,1.9053623386396104,nan
1740794582.4320815,-0.9161971798296638,1.3107805011250853,-0.8040060287166807,4.415738554500223,nan
1740794582.435987,-2.112221406110039,0.23108336844078411,-2.277498057552856,3.3424959138885715,nan
1740794582.4398928,-0.596123077190798,-1.3568848074556128,-2.6983222360625327,1.0250145999595366,nan
1740794582.4437983,2.6531608482230773,-1.7658185395713268,-1.594009200201862,-0.10454658114484622,nan
1740794582.4477038,4.413272317311399,-0.5834378843049527,0.5357149718561419,0.07569567956038656,nan
1740794582.4516096,2.7296176035095825,1.0576463995601657,2.1404054047958336,0.12663382046309368,nan
1740794582.4555151,-0.9919846293760354,1.7590467884877632,1.8536765257991898,-0.6048358681779674,nan
1740794582.459421,-3.5564847838757463,1.1195840431436859,0.028539753777008025,-1.2299201161279463,nan
1740794582.4633265,-3.2536932983767244,-0.17950836238387732,-1.3439179782665425,-0.8677604949584945,nan
1740794582.467232,-1.1721694929228748,-1.1781488016111898,-0.6749409637507731,-0.09734554326552293,nan
1740794582.4711378,0.5446977558040165,-1.3445070982027838,1.341031700209244,-0.19035752132817835,nan
1740794582.4750433,1.0703142009345719,-0.7172605049121971,2.3108340776988525,-1.160897247289029,nan
1740794582.4789534,1.1440149428334825,0.276470263015728,0.7836946037393546,-1.4245658910062349,nan
1740794582.482859,1.3857573050156293,1.0419886503874274,-1.9923302069243385,0.19142885224509706,nan
1740794582.4867644,1.220173369106407,1.1014455622218222,-3.30717302108266,2.5810779856638306,nan
1740794582.4906702,-0.11742443688199795,0.4357700642177595,-1.9049057749877922,3.2509203024204956,nan
1740794582.4945757,-1.956399076657525,-0.42876354449736304,0.7235208110894797,1.2060316792893007,nan
1740794582.4984813,-2.3763791658588787,-0.8334635650456843,2.0983957491225014,-1.6314842773637965,nan
1740794582.502387,-0.36143884785789987,-0.5812608244479965,1.4470115581509582,-2.4091876330009883,nan
1740794582.5062926,2.587385856546212,-0.06898176032758309,0.2335804312978833,-0.5860947781154113,nan
1740794582.5101984,3.566509824586535,0.2104452388467194,0.10027623205839244,1.3991503774373473,nan
1740794582.514104,1.213258565282353,0.2020513515617861,0.84970069218486,0.946402037144861,nan
1740794582.5180094,-2.663633163730443,0.21478150449157615,0.8785450843988579,-1.6163317427948403,nan
1740794582.5219152,-4.644788199679706,0.38095665453037364,-0.6113971078478905,-3.2919982920242363,nan
1740794582.5258245,-2.9377356083455726,0.40809412317680166,-2.4174670695853777,-1.7889937972222218,nan
1740794582.5297303,0.9787650625869923,-0.007802759122710393,-2.611368132158043,1.821908166670736,nan
1740794582.5336359,3.8510211985959626,-0.6510294627216604,-0.7288619193763999,4.165480652585518,nan
1740794582.5375414,3.637053279504383,-0.8968476485850859,1.6890011038169563,3.109445423540801,nan
1740794582.5414472,1.060405643130008,-0.4094107181606387,2.713744562088067,-0.12690745841262496,nan
1740794582.5453527,-1.4732111671641297,0.42593038246151804,1.855784786615736,-2.453564118137417,nan
1740794582.5492585,-2.184817104065919,0.8967813453304806,0.1732793505913867,-2.1288743052430426,nan
1740794582.553164,-1.1990189986411244,0.7094025986009357,-1.0814672464615793,-0.21154142569883588,nan
1740794582.5570695,0.07633375127157085,0.1832107608615649,-1.5104838483431031,0.9938426344554702,nan
1740794582.5609753,0.47255454239295075,-0.26106659349271094,-1.3485772786366135,0.4445700819154193,nan
1740794582.5648808,-0.03279976751946876,-0.5563998288782877,-0.7498158631651544,-0.8847965465324202,nan
1740794582.5687866,-0.6113767183387804,-0.7855535562854984,0.27076639460705376,-1.4146431990619721,nan
1740794582.5726955,-0.5100818968354488,-0.734714502685334,1.3298297532389456,-0.6490481440138063,nan
1740794582.5766013,0.3054517005637296,-0.043467359888141,1.63296644289794,0.6171517370819897,nan
1740794582.5805068,1.2181934785227222,1.0812171526512457,0.7530114216947916,1.3884968538191793,nan
1740794582.5844123,1.5127492476371318,1.6398315887180805,-0.7027287599191603,1.387545068602165,nan
1740794582.588318,0.9042846717257447,0.7715460566411735,-1.5217576897680691,0.9402309963339043,nan
1740794582.5922236,-0.3099827079849662,-1.043133654201534,-1.0655453378736461,0.3411716183068752,nan
1740794582.5961292,-1.4788146309521397,-2.11024393459388,0.12507343233739854,-0.3730878126993447,nan
1740794582.600035,-1.9641602321884815,-1.2252132455553293,0.9591900081514635,-1.1034268637514972,nan
1740794582.6039405,-1.4294245113351984,0.8377374870077371,0.8772581620334892,-1.459872901020498,nan
1740794582.6078463,-0.006674717203046824,1.9497665085358926,0.19705574710223864,-1.0730916787623073,nan
1740794582.6117518,1.642120554946342,0.9464047780724333,-0.44023399605298635,-0.10417145432111513,nan
1740794582.6156573,2.498628734816366,-0.9460796634695109,-0.6736730864510445,0.7274282964609846,nan
1740794582.6195657,1.7661755678115025,-1.4104766555677166,-0.464680399819411,0.7658601275240069,nan
1740794582.6234715,-0.35690722371733913,0.22175544725259516,0.1047787073402224,0.10569112739037663,nan
1740794582.627377,-2.4398975174818323,1.9772205365774582,0.7649030101455939,-0.40309965249533924,nan
1740794582.6312826,-2.7277859479775937,1.3901046498654563,0.9393806190487175,0.037534801807197885,nan
1740794582.6351883,-0.7408244790109645,-1.4756746495993456,0.1642202410539084,1.2498120753979738,nan
1740794582.6390939,1.9438926169204938,-3.6827543823614746,-1.1514809260421153,1.9960892274072286,nan
1740794582.6429994,2.8631091708228245,-2.4613867411857484,-1.7048351179150767,1.0418250987912785,nan
1740794582.6469052,1.0253664408117633,1.5715425908097351,-0.5410160179464517,-1.4542439873594857,nan
1740794582.6508107,-1.8707189784476164,4.685614751411305,1.6004393153655465,-3.6272463401830866,nan
1740794582.6547165,-2.9046896191912865,3.7523625763617794,2.616511068648242,-3.326062761970644,nan
1740794582.658622,-0.8907026485804445,-0.48231992885605623,1.1523067304465957,-0.23069284033134468,nan
1740794582.6625276,2.2297173176253753,-4.08396630392825,-1.6838107000468776,3.4052773890709376,nan
1740794582.6664355,3.247233107921405,-3.8648820550303657,-3.1585111923263742,4.481467712420324,nan
1740794582.670341,1.031042306488911,-0.4334449675526614,-1.723416465667006,1.9216977807263511,nan
1740794582.6742468,-2.2055522260576663,2.7041370643055145,1.2229472264452836,-2.1005356065675107,nan
1740794582.6781523,-3.204091090076828,2.8010818751903055,2.728063460495153,-4.043064897444499,nan
1740794582.682058,-1.1174648731546761,0.37254850135652456,1.4397618982608373,-2.335156772627527,nan
1740794582.6859636,1.6492442838210482,-1.8069038360861998,-0.9711301446089953,1.1476141474929114,nan
1740794582.6898692,2.149683559114762,-1.742506484283822,-1.7418865315346792,3.030859759765506,nan
1740794582.693775,0.13938098423038955,0.018169312052276006,-0.12607884683967363,1.8224921162476848,nan
1740794582.6976805,-1.7654617721916277,1.4181741965144434,1.8334635758917541,-0.7857451239439398,nan
1740794582.7015862,-1.1446011373085034,1.1840926209207605,1.6848948199949432,-1.9632949647762548,nan
1740794582.7054918,1.4423038919301672,-0.1200395319434144,-0.6635444320285748,-0.7949427421026133,nan
1740794582.7093973,3.07039661526278,-1.035461773492803,-2.8822772801361913,0.9766080884371335,nan
1740794582.713305,1.7086134081099351,-0.7786896573769246,-2.7807314841721085,1.1541958126634668,nan
1740794582.7172105,-1.5579469118499683,0.19672609640133146,-0.5114524784107937,-0.39772468654296345,nan
1740794582.721116,-3.724000725444441,0.8819822551285759,1.8894187157293938,-1.7369162561657565,nan
1740794582.7250218,-2.983276006130877,0.6726588017951308,2.753072956798249,-1.172795776620441,nan
1740794582.7289274,-0.313824329746592,-0.24803175697294966,2.128816696085626,0.8208652402944172,nan
1740794582.7328331,1.9214426935035454,-1.1506905259397002,1.0205320893796148,2.208942854851596,nan
1740794582.7367387,2.4298051574701174,-1.2658018076804496,-0.06150934111370775,1.6548087310233492,nan
1740794582.7406442,1.7509893836878991,-0.31104440959160634,-1.2941487350220502,-0.16728702614896312,nan
1740794582.74455,0.9417582809314302,1.16466233194113,-2.529652670951112,-1.5006603110804873,nan
1740794582.7484555,0.2156968991849536,1.9878083315460118,-2.8250588278807505,-1.387744022611551,nan
1740794582.752361,-0.8056751544893377,1.2696900553210644,-1.4410001352259856,-0.3926843052772205,nan
1740794582.7562668,-1.9305256863057871,-0.6117955705989216,0.9271837161247657,0.3431455717419953,nan
1740794582.7601736,-2.189337754323627,-2.0582266933503566,2.486415051727835,0.3533139632304201,nan
1740794582.764079,-1.0134032670084254,-1.643434297450111,2.1496041097923104,0.040893214250439576,nan
1740794582.7679849,0.7843320383419796,0.35153259648826823,0.7237889480387643,-0.06030671701043601,nan
1740794582.7718904,1.685763394581207,1.9745609720980146,-0.048193184251659825,0.1328517979321171,nan
1740794582.7757962,1.1247333640900221,1.4759841771269036,0.4331610243412641,0.37725877019314,nan
1740794582.7797017,0.08512246752069748,-0.783512475960279,0.901705901280799,0.47591834459619936,nan
1740794582.7836072,-0.15578132504358458,-2.5081590107376783,-0.18316792428383805,0.3491052038438821,nan
1740794582.787513,0.3988975792527645,-1.7622340761530197,-2.5392379060514942,-0.05855769857092889,nan
1740794582.7914186,0.5584417220310735,0.9353440112229446,-3.9776951528000906,-0.642372699127897,nan
1740794582.7953243,-0.3915860645463045,3.0014808956318917,-2.6071325804495933,-0.9422721387641205,nan
1740794582.7992299,-1.5774127176839365,2.3777688747849073,1.0282829924971684,-0.44137408969026254,nan
1740794582.8031354,-1.4826001973192358,-0.35185868548669597,4.224720778497156,0.7036407493336355,nan
1740794582.807046,0.12004665492408355,-2.546827814122615,4.558288950889541,1.4353251387648562,nan
1740794582.8109517,1.6648455552059551,-2.192764985775584,1.9926575007984841,0.724305105449787,nan
1740794582.8148572,1.4894449153558098,0.11464820461019683,-1.3358560246759072,-1.1234810731363225,nan
1740794582.8187628,-0.20131068194763815,1.895035251848526,-3.1610826811450625,-2.3793740217777164,nan
1740794582.8226686,-1.484209492907361,1.3737617810913534,-2.806343447337882,-1.4993266085198824,nan
1740794582.826574,-0.9087555262229143,-0.7681410131132403,-1.1726625278778142,1.1149240426048155,nan
1740794582.8304799,0.8017615646297453,-2.193082481190169,0.4630637107859701,3.218049504330448,nan
1740794582.8343854,1.5681307114757683,-1.3142373725249517,1.38792827189892,2.8146717921862243,nan
1740794582.838291,0.38695124386988017,1.143629583064092,1.4810032871598762,0.1381020757213196,nan
1740794582.8421967,-1.4460992690867824,2.878455000335431,0.863108782094369,-2.566342256897001,nan
1740794582.8461022,-1.7718561114619689,2.201660060274165,-0.16694864506405127,-3.1958278016737665,nan
1740794582.850008,-0.0428302513567854,-0.4180916082882447,-1.0173433453111784,-1.6122785712739125,nan
1740794582.853918,1.9823646720896162,-2.7888111200510766,-1.0410222776918283,0.598183427141402,nan
1740794582.8578238,2.1159881566963166,-2.9044558567809555,-0.1363202745531454,1.8413301170816687,nan
1740794582.8617294,0.09294080072601564,-0.6412245200509014,0.9719481208649446,1.747546071743695,nan
1740794582.865635,-2.1646621275647417,2.139862311673103,1.2810786034119446,0.9115702556363651,nan
1740794582.8695407,-2.5578109040874066,3.1208624036890913,0.4624053733138866,-0.04733814325950552,nan
1740794582.8734462,-0.8491507752248894,1.4437147405249795,-0.7760250003914779,-0.8419204226630623,nan
1740794582.8773518,1.3442528841381427,-1.535321316786365,-1.3540044677965368,-1.200790378402335,nan
1740794582.8812575,2.316584077940551,-3.322513725960556,-0.851566458337501,-0.7783065738783191,nan
1740794582.885163,1.746542036275593,-2.377721437859712,0.15129255639610686,0.3327286187034963,nan
1740794582.8890688,0.4964970215232785,0.5388758149086552,0.7384596148476349,1.2658404838701744,nan
1740794582.8929744,-0.609061192524309,3.0020207787358104,0.5751033237719549,1.0255918841307448,nan
1740794582.89688,-1.4259016413822867,3.0477042496095414,0.11621919981496444,-0.37922967883428876,nan
1740794582.9007895,-2.001329168633046,0.8688497734414777,-0.03195642673384915,-1.6918984461736541,nan
1740794582.904695,-1.9349158230935066,-1.5066260587559197,0.18089775641466926,-1.5733994410503442,nan
1740794582.9086008,-0.6710441850984606,-2.207783522655445,0.2666384883833752,-0.009920870878506185,nan
1740794582.9125063,1.5416031811197146,-1.185220988288036,-0.12366352869077218,1.6198949700149492,nan
1740794582.9164119,3.321921943019324,0.0689964623675911,-0.6816854147003922,1.9303962875137906,nan
1740794582.9203176,3.151975115939225,0.29757161695041917,-0.7236435978678801,0.8459048675556267,nan
1740794582.9242232,0.8339938836035253,-0.24483935980203614,0.0013342625254595096,-0.5270657506828186,nan
1740794582.928129,-2.1206093955796654,-0.3484452062596881,0.8903492751798421,-1.1550287993809791,nan
1740794582.9320345,-3.6721364088092496,0.5369770413413041,1.0070547794154572,-0.9663477865823804,nan
1740794582.93594,-2.9075627284451273,1.5689275922528334,0.07785774898307286,-0.534658821816597,nan
1740794582.9398458,-0.6333659502329763,1.503933639479024,-1.094406598540949,-0.22481337558878894,nan
1740794582.9437513,1.5096441991140774,0.20519422376896648,-1.3338201255591808,0.07023223088310136,nan
1740794582.9476602,2.4108147865394343,-1.1403856883691477,-0.28187583688949597,0.46207174154625863,nan
1740794582.951566,2.07366020789653,-1.3540871797374936,1.1464610565689681,0.7160128447052128,nan
1740794582.9554715,1.1437265339929032,-0.5600640237701143,1.5901067501843305,0.5620027879217044,nan
1740794582.9593773,0.14494204797421456,0.08511770141062883,0.5862191865266599,0.16362019225954144,nan
1740794582.9632828,-0.7652902054025877,-0.13176314978828085,-0.9296146764019304,-0.028421558693818624,nan
1740794582.9671884,-1.4978316192635062,-0.6107992127808214,-1.520131823725691,0.08651807207080174,nan
1740794582.9710941,-1.7779595042317375,-0.2501781591025053,-0.6642151630201517,0.047268005669532286,nan
1740794582.9749997,-1.3297878934511673,1.0390558306284543,0.7411974398166572,-0.5328146553576781,nan
1740794582.9789054,-0.2586870394372042,1.993869051361568,1.305219423114523,-1.2554884848346868,nan
1740794582.982811,0.8806646086309766,1.3535580834850134,0.536927258950646,-1.1925733738003368,nan
1740794582.9867165,1.4733187834205137,-0.6090108380534818,-0.714662718093674,0.015531828214920133,nan
1740794582.9906223,1.3086814842925492,-2.186395694756089,-1.1826816319744902,1.5132506954661975,nan
1740794582.994535,0.6694778576913797,-1.9441626302626391,-0.46662449389711086,1.9486857706942595,nan
1740794582.9984405,0.011773820189145742,-0.18170720654273878,0.6389754575600802,0.8741500475673305,nan
1740794583.0023463,-0.39932292034261474,1.4324217028631603,1.032896427932177,-0.7413269680430864,nan
1740794583.0062518,-0.5717893226842228,1.589648399421311,0.41874810741138374,-1.497359419244095,nan
1740794583.0101573,-0.6149369371067122,0.5267813210383061,-0.49358070126033166,-0.9553631294593525,nan
1740794583.0140631,-0.5755769156650383,-0.5028827666861706,-0.7995124646857882,0.07520980498777886,nan
1740794583.0179687,-0.43876515848621644,-0.6835357947369441,-0.29868466621554246,0.5548172322626265,nan
1740794583.0218744,-0.21101013706063587,-0.3271768229038049,0.41583679934401846,0.2848156916960669,nan
1740794583.02578,0.05900542506494723,-0.18480173229564134,0.6459876636837327,-0.12007195634977516,nan
1740794583.0296855,0.3267052152525279,-0.4021754126214016,0.2606326150105808,-0.12027466883247101,nan
1740794583.0335913,0.5619875209896883,-0.4164047962603402,-0.2915203442103931,0.16487035181125848,nan
1740794583.0374968,0.697632573969865,0.18521429176450718,-0.5100422495913752,0.28358980128150446,nan
1740794583.041409,0.6192726297337422,1.0026528366047067,-0.2983727703260366,0.10628833914048152,nan
1740794583.0453146,0.26992565457232426,1.2056748608418504,0.057484969571648455,-0.07135996363104607,nan
1740794583.0492203,-0.23021977003840902,0.4894665343814037,0.24148586073997572,-0.016541984037330676,nan
1740794583.0531259,-0.6209408694221612,-0.5520199486575256,0.17892643946383702,0.10100336741165432,nan
1740794583.0570314,-0.7059902591760727,-1.0592722797943201,0.014907942585904537,-0.018584597035593384,nan
1740794583.0609372,-0.5173314934656111,-0.7814487158063479,-0.07777938330023287,-0.330849846836859,nan
1740794583.0648427,-0.24949285433861804,-0.20902579645343702,-0.03716871519058417,-0.4503883887610123,nan
1740794583.0687485,-0.03657534698634681,0.08543836784047854,0.08511814152402807,-0.1478674924337967,nan
1740794583.072654,0.16014522896622713,0.05458081666428155,0.19044651933394066,0.31855461048368494,nan
1740794583.0765595,0.41762651418802865,0.06566476771565259,0.19344209308256835,0.48355126593174486,nan
1740794583.0804653,0.650081322227737,0.3292490937756886,0.062158964099368295,0.215441959811404,nan
1740794583.0843709,0.6282714542410455,0.6223909167271499,-0.15746381819948996,-0.15743236797025864,nan
1740794583.0882823,0.24196502216741295,0.5986338143662657,-0.35242671716434626,-0.2609491809972316,nan
1740794583.0921881,-0.29909698515614447,0.22586688078869355,-0.40253208519310457,-0.08305788751484305,nan
1740794583.0960937,-0.603928079390017,-0.20181485224967147,-0.2571002718924677,0.10459061892024821,nan
1740794583.0999994,-0.4719248564246349,-0.43297986716142967,0.0276705744001732,0.12992375804593218,nan
1740794583.103905,-0.09494288610914353,-0.49414018316087077,0.3159638786954396,0.07519056049649911,nan
1740794583.1078105,0.14746956769098218,-0.5171994933096856,0.46361999654704295,0.0543278002463871,nan
1740794583.1117163,0.08158962448940305,-0.45961588581403046,0.3960380086124222,0.0032144758013157846,nan
1740794583.1156218,-0.11144140232202882,-0.14774278336381738,0.1572532940670925,-0.1852556170453556,nan
1740794583.1195276,-0.14089459899007425,0.39655316616229236,-0.10610491581075607,-0.3943059641056492,nan
1740794583.123433,0.0543331539347036,0.8127109547889751,-0.2412061580679106,-0.33317013383745164,nan
1740794583.1273386,0.2613752819183109,0.7105818134473711,-0.2114852667401733,0.08267403355861412,nan
1740794583.1312444,0.267373599417745,0.11669276696167376,-0.1299583287644921,0.5213137810060641,nan
1740794583.1351557,0.10425394592522892,-0.48049659255555305,-0.14006237749007824,0.544540416982416,nan
1740794583.1390612,-0.021164243318664018,-0.5858847465451831,-0.24147743003536443,0.11688845426791494,nan
1740794583.1429667,0.0005798120505721002,-0.17517759877767825,-0.25800850378961326,-0.3198813049808917,nan
1740794583.1468725,0.056214899448725236,0.3113613801013903,-0.02537744370035598,-0.33820040575664967,nan
1740794583.150778,-0.02194384819638434,0.42448839566355767,0.37711683198993085,-0.005952179328737628,nan
1740794583.1546838,-0.21950844909941392,0.11195054588507553,0.6278835140782963,0.22298710700108137,nan
1740794583.1585894,-0.3379239774792985,-0.30799747427038976,0.45665093608904606,0.06636056486450097,nan
1740794583.162495,-0.22876467448707413,-0.4937478145506002,-0.0472276042369667,-0.26626088735063747,nan
1740794583.1664007,0.026201274512971377,-0.35426969770176203,-0.4614050552470447,-0.3606051652358125,nan
1740794583.1703062,0.2054885015515091,-0.0369674033187817,-0.41921792872432734,-0.10397914570807178,nan
1740794583.1742117,0.1915938288456382,0.250191438538345,0.011946736144701563,0.21631167253480132,nan
1740794583.1781175,0.07664182859956975,0.37311788927496814,0.3673357843089158,0.2982954796471607,nan
1740794583.182028,0.02417006669981789,0.3084277738020271,0.2354213082691662,0.16818764856410956,nan
1740794583.1859336,0.0756756502810812,0.13922244138114406,-0.313767177498387,0.06439267601736898,nan
1740794583.1898394,0.13081211550470756,0.012661048512816724,-0.7604671091723455,0.07644136631017091,nan
1740794583.193745,0.0939595214372416,0.021996909302951523,-0.6164496626568826,0.05096382470840273,nan
1740794583.1976504,-0.0154978143953264,0.08700445472166345,0.10196113757889232,-0.1282905459912821,nan
1740794583.2015562,-0.11275907903445019,0.00443611501609022,0.8629227372519169,-0.31010263984007375,nan
1740794583.2054617,-0.16064633864734146,-0.30660673809565325,1.0795670737656982,-0.24786011160628843,nan
1740794583.2093675,-0.1860129560061036,-0.6213010276171557,0.6092701859493228,0.04365181795274052,nan
1740794583.213273,-0.19671099789294913,-0.5698017736157202,-0.15931485065290804,0.24924852762835134,nan
1740794583.2171786,-0.14130390778045565,-0.05107842200519477,-0.6804585580332787,0.1289629130162613,nan
1740794583.2210844,0.01445100158020282,0.5600355136499979,-0.7121610945265705,-0.1619266272357779,nan
1740794583.22499,0.20014544356002495,0.7275181588504176,-0.44042977037825004,-0.241635212129013,nan
1740794583.2288997,0.2824354082788367,0.31714317826345034,-0.1959274769025153,0.026727305980161147,nan
1740794583.2328055,0.20740136309959023,-0.22222689907393467,-0.09056384621733021,0.35052408049383266,nan
1740794583.236711,0.06761653468131654,-0.3205500090638813,0.043006617435641506,0.3518789822750965,nan
1740794583.2406168,-0.002091234688756402,0.08367378121108789,0.3644485158845196,0.01930907637550436,nan
1740794583.2445223,0.018733784748171896,0.46307537054688835,0.7326222257093565,-0.2881566624073928,nan
1740794583.2484279,0.01957923559049966,0.2929971185015213,0.770828050443319,-0.27544517292832993,nan
1740794583.2523336,-0.09378103004779133,-0.34091370565556073,0.2677346145257991,-0.03739768817979305,nan
1740794583.2562392,-0.26644239375435447,-0.817397198588246,-0.5088260773091167,0.10815938958115184,nan
1740794583.2601447,-0.337882991210969,-0.6597888872377665,-0.9697336567249266,0.03222282695009591,nan
1740794583.2640505,-0.2123367586713789,-0.04638677349446885,-0.7364908235555955,-0.08178168860383331,nan
1740794583.267956,0.03843066005646403,0.42198156280779026,-0.020830086493343804,-0.03071574707951525,nan
1740794583.2718618,0.24587563883157174,0.4030577051748575,0.5605571584224218,0.11538384009294629,nan
1740794583.2757714,0.29701532465760516,0.14285685677373533,0.571711170881427,0.1147935267458778,nan
1740794583.2796772,0.20796947589382292,0.09883600970119052,0.14800033228463053,-0.0922959945672706,nan
1740794583.2835827,0.07351265989586707,0.3477049214245431,-0.20406198393660135,-0.2587191022519229,nan
1740794583.2874885,-0.021478561933891725,0.5002773321641263,-0.16300735308798464,-0.11871021143036808,nan
1740794583.291394,-0.04448754167499325,0.2058908074549478,0.1016018162221039,0.2626051192356941,nan
1740794583.2952995,-0.013763867776871719,-0.38626082950001767,0.18223123501811497,0.51847785081426,nan
1740794583.2992053,0.013075129867182718,-0.7695500229901603,-0.07129098526310904,0.3657817721996539,nan
1740794583.3031108,-0.03220999970882455,-0.6418553940006418,-0.37991275587902545,-0.09868229998296894,nan
1740794583.3070164,-0.1649357729748483,-0.20854052806567194,-0.3619711146265656,-0.5092318680393086,nan
1740794583.3109221,-0.2976725201735066,0.10884684812720104,0.030325889468512154,-0.5878818385716008,nan
1740794583.3148277,-0.28848506053456247,0.1649555988768825,0.45119574464891016,-0.34899251493626415,nan
1740794583.3187335,-0.07943283331842872,0.17965583378086342,0.5208524879833756,0.003469778762507287,nan
1740794583.3226423,0.21440778736387947,0.3577314997222753,0.1953753272784422,0.287167632932356,nan
1740794583.3265479,0.38854552502205075,0.5627653330213923,-0.22787158777760166,0.4248746477579595,nan
1740794583.3304536,0.34022898984332584,0.47494888592920503,-0.4218183498594055,0.4011968387957754,nan
1740794583.3343592,0.159488100065751,0.027175704405663692,-0.3075314603106185,0.23539864976913125,nan
1740794583.3382647,0.012752619042111824,-0.4481555352684201,-0.05632331238879412,0.005110073452442431,nan
1740794583.3421705,-0.04367271349921718,-0.5654635077261615,0.11079737451139288,-0.1745721063009762,nan
1740794583.346076,-0.09538031581037107,-0.3084467151134247,0.10305591898376418,-0.2434997107743492,nan
1740794583.3499818,-0.21505637131849653,-0.01713009583434868,-0.003368567714845934,-0.24181065522850997,nan
1740794583.3538873,-0.3292547247071517,0.029979051141354723,-0.04777436066996361,-0.22630561201001265,nan
1740794583.3577929,-0.29163204052846675,-0.0828128597117774,0.07911349880241889,-0.16994029005794573,nan
1740794583.3616986,-0.07837781772007398,-0.07613015741279529,0.31334574817490657,-0.008938365814736874,nan
1740794583.3656042,0.15091588483952967,0.13292265058962754,0.4156109745713809,0.2078315321486781,nan
1740794583.3695168,0.22445866044798007,0.32533720020705525,0.16668832611177806,0.30056604504294027,nan
1740794583.3734224,0.1575117681740287,0.2806644099979201,-0.35668127763252455,0.16080170221996798,nan
1740794583.3773282,0.1215577472577773,0.07357061078604926,-0.7327249601821294,-0.06560826263391975,nan
1740794583.3812337,0.20780406441358587,-0.029431086076855784,-0.5456196034858821,-0.10277451564227691,nan
1740794583.3851392,0.2820638220733732,0.06384235966086899,0.13816973464587948,0.1111763764545732,nan
1740794583.389045,0.13462847192550964,0.13476745480538554,0.7115974719942378,0.2898325718197301,nan
1740794583.3929505,-0.23574622643838644,-0.05205097602978566,0.5815889523242381,0.11084801079805406,nan
1740794583.3968563,-0.5525835767575737,-0.3954390298434333,-0.17094624771782915,-0.35167686440139556,nan
1740794583.4007618,-0.5203650050260692,-0.5242380838823706,-0.7776893552134533,-0.6261256172930141,nan
1740794583.4046674,-0.13657198315148086,-0.2418271304630881,-0.5425350215628951,-0.35191034434732016,nan
1740794583.4085732,0.2916290380603486,0.19675219292915738,0.38608447208855534,0.26847495919743825,nan
1740794583.4124787,0.44438488192485304,0.35070305215863395,1.1004427482896169,0.6381173531554845,nan
1740794583.416391,0.27518450852550724,0.11294704276873611,0.8502817511344797,0.40671479330980587,nan
1740794583.4202967,-0.0007078548687822603,-0.1481508683826724,-0.17432079042210474,-0.14705675383652117,nan
1740794583.4242022,-0.154908535416067,-0.025685610841630978,-1.0448514919444423,-0.4413867792465217,nan
1740794583.4281077,-0.13720146284775847,0.41296077240218076,-1.0496133465679467,-0.24073800536754988,nan
1740794583.4320135,-0.04033967005209104,0.6589825394728122,-0.3505164986987902,0.13245715859219512,nan
1740794583.435919,0.047621529469009015,0.33025675243588626,0.3260819114392882,0.24102936347377055,nan
1740794583.4398248,0.10376332046311604,-0.3735568665274441,0.5153265187460786,0.056295446860883544,nan
1740794583.4437304,0.11595160439060388,-0.8565365607327372,0.38246298814278157,-0.07699030657582032,nan
1740794583.447636,0.04831210799371377,-0.7412671561959555,0.3059203463605968,0.053703362239402155,nan
1740794583.4515417,-0.09936525960431444,-0.2192656444806545,0.3174388828542066,0.22952347214362537,nan
1740794583.4554472,-0.23388028754714374,0.22451279307168365,0.137278119141742,0.09893349378685,nan
1740794583.4593527,-0.2302370139176599,0.34565925038344963,-0.302122160648605,-0.3173605366685367,nan
1740794583.4632647,-0.06713547248094859,0.3085494619267103,-0.6155384001320061,-0.5828492160510448,nan
1740794583.4671702,0.12975496112158919,0.35274586083754844,-0.3999387785880354,-0.3483962057834068,nan
1740794583.4710758,0.2056995836412753,0.4303425395399409,0.18971051176991233,0.21129106226145367,nan
1740794583.4749815,0.12883461463851242,0.2808142701230958,0.5141750201540582,0.5716950882539799,nan
1740794583.478887,0.007019042686285749,-0.16956716972505784,0.17422628395132406,0.4391213558257694,nan
1740794583.4827929,-0.036692341839782275,-0.6136270643503373,-0.47009690863216935,0.0457814488604301,nan
1740794583.4866984,0.020006174275215994,-0.6494258388633275,-0.6578335596989773,-0.16708750728624164,nan
1740794583.490604,0.10407745843983207,-0.2239485494569447,-0.09141111519126215,-0.06309213783140627,nan
1740794583.4945097,0.13056256327042087,0.2895410944769167,0.6979216975315026,0.0918044108132647,nan
1740794583.4984152,0.057539522533136864,0.4723323074919407,0.9194373795292239,0.012429114504721953,nan
1740794583.5023208,-0.1097226908882821,0.26172580845716065,0.37081911391690714,-0.25248081629670344,nan
1740794583.5062265,-0.3120886893141363,-0.05924187912476263,-0.39370073788708043,-0.4110129422508624,nan
1740794583.5101378,-0.4242306844075729,-0.21379225584547704,-0.7092355100805419,-0.29291800200782814,nan
1740794583.5140436,-0.30936434509886596,-0.18349115059696303,-0.4679795196652903,-0.014761163419762868,nan
1740794583.517949,0.045442053008844865,-0.10564529053278268,-0.08124399045245673,0.21163496076102692,nan
1740794583.5218549,0.44727181866820953,-0.027546347557823668,0.09496326542628683,0.3200008085332763,nan
1740794583.5257604,0.6128779389598304,0.1255124332680598,0.11350272855785949,0.36914875958551313,nan
1740794583.529666,0.4185004175198873,0.34556850407446804,0.2007522627333461,0.3561232923235799,nan
1740794583.5335717,0.027283613223259118,0.4285588633577635,0.3477917549767682,0.18295409698925078,nan
1740794583.5374773,-0.26698158181574577,0.17376364103591582,0.30751382762938184,-0.1572949313122232,nan
1740794583.5413828,-0.3242191527221374,-0.3168699122532356,-0.02417352383057751,-0.4613719870469139,nan
1740794583.5452886,-0.2542171123368359,-0.6445835387471838,-0.3916257257858193,-0.48657409631174464,nan
1740794583.549194,-0.22528554205633916,-0.496141246904181,-0.44351402014314534,-0.22937463462920749,nan
1740794583.5530999,-0.2339310496293077,0.0016908512657715204,-0.14502432741649043,0.054484908650529434,nan
1740794583.5570102,-0.12822554051918875,0.3823373969461674,0.19002342100708716,0.1411757498063525,nan
1740794583.5609157,0.14976913046801826,0.32227492749779973,0.2768711355442393,0.08394409697084015,nan
1740794583.5648215,0.426482590970493,-0.017144982385551816,0.15858928723154223,0.1013357565396141,nan
1740794583.568727,0.4623102823370215,-0.17772877084890962,0.07030118800998333,0.25695141379312736,nan
1740794583.5726328,0.2267884990995668,0.07527128652322376,0.09247216024779961,0.35345358739284,nan
1740794583.5765383,-0.06364286515150587,0.4737700466250427,0.06703270714586765,0.1866535126573583,nan
