timestamps,TP9,AF7,AF8,TP10,Right AUX
1740794353.2279687,0.10207793408969122,-0.12365951280565987,0.8362615770199083,0.07806026328747732,nan
1740794353.231874,-0.17735200757635222,-0.09766818851176567,-0.06179325225471226,-0.047773895131368184,nan
1740794353.2357793,-0.221395253287247,0.06817488775499694,-0.4452211383132109,-0.03370963206535116,nan
1740794353.2396846,-0.015139712173534488,0.019491143668481155,-0.2802727072977828,0.10832905171918324,nan
1740794353.2435899,0.18795337763357364,-0.34808204286971545,-0.17464637611157632,0.19863040054353776,nan
1740794353.2474952,0.13851749278912856,-0.7244516841623547,-0.4349949859578766,0.09371995601107604,nan
1740794353.2514005,-0.12898432590539496,-0.6807878210104688,-0.6166324847231749,-0.12994758534171152,nan
1740794353.2553058,-0.33002949450717284,-0.11777791395946763,-0.14951671032257932,-0.24258419105187265,nan
1740794353.259211,-0.2456851895332376,0.5985028494092239,0.7806995848936165,-0.12289982797680328,nan
1740794353.2631164,0.03920899586731321,0.9488513976439805,1.2704156405861111,0.08710565344772633,nan
1740794353.2670217,0.2431631113401718,0.7122063820931057,0.6886090927787801,0.1320876464578528,nan
1740794353.270927,0.20346102121215037,0.1336098127186672,-0.5468742524431105,-0.05964029148861439,nan
1740794353.2748418,0.030464262812537637,-0.3229736503813601,-1.3469196477953793,-0.275891003748657,nan
1740794353.278747,-0.05744870138660079,-0.38684192330482065,-1.0612754434551679,-0.24400245560218567,nan
1740794353.2826524,0.0061518147833773745,-0.18192352369489212,-0.07122975609900391,0.06762450961703033,nan
1740794353.2865577,0.09198411463102109,-0.05277246313578658,0.7241350674871223,0.40484728903227335,nan
1740794353.290463,0.06704344156483016,-0.19405743792262317,0.8388176748522687,0.48141982387462284,nan
1740794353.2943683,-0.042591782747231674,-0.441698896590039,0.5017820764115756,0.24719743749922632,nan
1740794353.2982736,-0.11218811521216063,-0.4384257155849276,0.1595156656712545,-0.10011939939193337,nan
1740794353.3021789,-0.0917668558129696,-0.025719149608263145,-0.06280426561202593,-0.3276612613309776,nan
1740794353.3060842,-0.05195062903470096,0.5355775953480989,-0.30629013799436594,-0.3526692577300423,nan
1740794353.3099895,-0.058386081806261925,0.7771973707573424,-0.5639110076891034,-0.2398466666054498,nan
1740794353.3138947,-0.06942616430698438,0.4887088613021322,-0.5727272917430452,-0.08703745535976563,nan
1740794353.3178,-0.0071238931987060005,-0.047938631049561746,-0.17591610825686646,0.043697475653572994,nan
1740794353.3217134,0.10449479772452064,-0.33708284285517676,0.36834940562558666,0.11724311639402059,nan
1740794353.3256187,0.1452816024216982,-0.19161442193868727,0.5961993078333656,0.1195237041669154,nan
1740794353.329524,0.061160677526327624,0.07466147946220915,0.33856699756256486,0.08494927144857681,nan
1740794353.3334293,-0.03853136728028319,0.022904828461889015,-0.10325028287881433,0.08719180068107865,nan
1740794353.3373346,-0.005593147997042451,-0.37506861150128035,-0.3111099898358918,0.15577406591678244,nan
1740794353.34124,0.14058415623127934,-0.6656098897101764,-0.18551944732853143,0.2117190849426102,nan
1740794353.3451452,0.20077320835339216,-0.4196550770243717,0.03811693847264828,0.13461249536991945,nan
1740794353.3490505,0.02623378637731596,0.24933796215620652,0.13162834264874976,-0.08721973492226483,nan
1740794353.3529558,-0.27706369766212435,0.7642622387740206,0.09992147970788406,-0.3074417906506984,nan
1740794353.356861,-0.43262164447215284,0.6901108111268868,0.0542230125400251,-0.3590453851824656,nan
1740794353.3607664,-0.2859639461636336,0.18143004574938776,-0.001121149470595505,-0.2290356349494968,nan
1740794353.3646717,0.03226154317957564,-0.2301304814583762,-0.13312022600888673,-0.05688938581771127,nan
1740794353.368592,0.2585186068479135,-0.23792256098259673,-0.2778948868905491,0.0426893931068776,nan
1740794353.3724973,0.2743306689490971,-0.043530233913779914,-0.23113834969058292,0.10408831002361549,nan
1740794353.3764026,0.18505046597563915,-0.025434130227082387,0.08272460882126173,0.21879743896954137,nan
1740794353.380308,0.13625108727425525,-0.24225280831667273,0.4195734357387859,0.35426113891523375,nan
1740794353.3842132,0.12365047036405266,-0.3850053313346805,0.42501278944609805,0.34559570017601415,nan
1740794353.3881185,0.03342310602014622,-0.20193481223298812,0.04891650675438071,0.10331438864599947,nan
1740794353.3920238,-0.1622483447558839,0.16691238382920864,-0.3501578006441103,-0.223047971223753,nan
1740794353.395929,-0.3254032872201783,0.3625769888126161,-0.3845296744433579,-0.36511182554082994,nan
1740794353.3998344,-0.29859809641995533,0.24354542189536948,-0.07111238458947049,-0.22954892655300102,nan
1740794353.4037397,-0.09275281849878098,0.02326565150877258,0.203200188282377,-0.012484489288723987,nan
1740794353.407645,0.11731288393838762,-0.039319688802590895,0.145703671395406,0.024909081103559275,nan
1740794353.4115503,0.1791030353204171,0.037344121760747764,-0.10967245835448446,-0.1342372904646009,nan
1740794353.41547,0.1046315884926534,0.04128248058470995,-0.1935663296311193,-0.24025059612645777,nan
1740794353.4193752,0.01850323537918097,-0.09076937568116528,0.0366156458059057,-0.0752780461044569,nan
1740794353.4232805,0.005584170917147655,-0.16908613604047792,0.3306071763529668,0.2801971464458225,nan
1740794353.4271858,0.046350336460481964,-0.03829772491411277,0.3543035700761515,0.5239694450607362,nan
1740794353.431091,0.08163326731594785,0.15384756563473811,0.07278239856618847,0.4506344243843255,nan
1740794353.4349964,0.08552547236367364,0.11806867877655493,-0.24614126761566113,0.13864991305670973,nan
1740794353.4389017,0.05632279923771031,-0.16489279673916285,-0.3625964690581183,-0.1791627463056617,nan
1740794353.442807,-0.01921276744076066,-0.3523819891181127,-0.29333930261552077,-0.36060150711575717,nan
1740794353.4467123,-0.14099693705978736,-0.15429810333689747,-0.1900416657518651,-0.4176590046602779,nan
1740794353.4506176,-0.24349479453627512,0.25336494623215505,-0.09167960853036844,-0.3826616672996272,nan
1740794353.4545228,-0.2248676801806959,0.3928621408427424,0.09509884932963462,-0.2188193471447257,nan
1740794353.4584281,-0.06111015811888209,0.08384576872182185,0.38321501042306577,0.08539778781557363,nan
1740794353.462347,0.13570236050468631,-0.27781400299958836,0.5862129886108617,0.39439517292803583,nan
1740794353.4662523,0.21604273243596814,-0.1797761911642702,0.4888767819471437,0.4955298540244947,nan
1740794353.4701576,0.1494115551639677,0.326405430700198,0.10301951347876703,0.31532768940407463,nan
1740794353.474063,0.046498825545191934,0.5979641422241802,-0.3216154685622001,0.010308664778296422,nan
1740794353.4779682,0.015266632673548783,0.15010818576047766,-0.5486553565701053,-0.19893612007124312,nan
1740794353.4818735,0.035382638869059214,-0.6832108925706203,-0.5555978080573745,-0.24871979113381204,nan
1740794353.4857788,0.013347190024501398,-1.0231446827403454,-0.4553325536719547,-0.23259730474678517,nan
1740794353.489684,-0.06402327993559412,-0.4176047399942636,-0.28486157175602445,-0.20486318351988064,nan
1740794353.4935894,-0.09977849579778697,0.5976209317307728,0.0307869291178049,-0.08431513973295011,nan
1740794353.4974947,-0.03408275532280592,1.0340315490935037,0.4892966748696138,0.18367021534618416,nan
1740794353.5014,0.03827693021222338,0.507593591998009,0.8710865731925245,0.4325682980144224,nan
1740794353.5053053,-0.02751068336588874,-0.3705214359733404,0.8792905159639977,0.3728882574601817,nan
1740794353.5092227,-0.2080487593378833,-0.6945087345128819,0.43227939819435557,-0.059213945514639106,nan
1740794353.513128,-0.2802679760170835,-0.239450218419083,-0.22665681471146001,-0.5265324354616786,nan
1740794353.5170333,-0.06991811267198696,0.37581742329230355,-0.7309957484672431,-0.5758406438192795,nan
1740794353.5209386,0.30091375828733463,0.45260722715252266,-0.8775584788685667,-0.12204135817219652,nan
1740794353.524844,0.49668694131007785,-0.021972811482777063,-0.706104848455816,0.4226928361730097,nan
1740794353.5287492,0.32598248240648503,-0.4497774734126917,-0.3552844686863839,0.5610800470703089,nan
1740794353.5326545,-0.03916867935402797,-0.35795645533647413,0.07571777110271256,0.2243153686731246,nan
1740794353.5365598,-0.2559576677774164,0.09733994423332762,0.5060083816517384,-0.1858772301941936,nan
1740794353.540465,-0.1950449874044241,0.3857115344370824,0.7921896154645092,-0.2620359726117014,nan
1740794353.5443704,-0.05576999883618867,0.229997974922833,0.7675648992957411,-0.021781373886997007,nan
1740794353.5482757,-0.08021429833895939,-0.13660819830728058,0.39752661732953565,0.17100557754102563,nan
1740794353.552181,-0.2324620425105766,-0.30350114699890607,-0.13506492644118126,0.06018512038751363,nan
1740794353.556097,-0.2504829752550465,-0.1417043543897079,-0.5382218688719068,-0.2230723234209045,nan
1740794353.5600023,-0.0027647123230426546,0.12564640372400185,-0.6186236764499865,-0.3521666627943136,nan
1740794353.5639076,0.31089889785065195,0.23064344535761166,-0.397120534761274,-0.19276317692568642,nan
1740794353.567813,0.3818758843604294,0.13323786821224992,-0.057570237955815284,0.08078520110242277,nan
1740794353.5717182,0.165928346877506,-0.011328088769464202,0.18833467977337995,0.23045181490535296,nan
1740794353.5756238,-0.06486799668218869,-0.06377921310029842,0.21617190801811592,0.2168242858278051,nan
1740794353.579529,-0.062185693762557205,-0.021286671124209025,0.050524302578002174,0.17039494794327517,nan
1740794353.5834343,0.09303069875555663,0.029965568023085122,-0.13773367995006677,0.16753609855830368,nan
1740794353.5873396,0.10592109705757645,0.011255885483976104,-0.13439521934611054,0.13421836512236196,nan
1740794353.591245,-0.14062534942229712,-0.0978613684185589,0.13182619328954345,-0.013016474041317163,nan
1740794353.5951502,-0.41314915813204656,-0.24045729364279936,0.4693596996136348,-0.21064887446714115,nan
1740794353.5990555,-0.39539381291851733,-0.2871558775511829,0.5410509723106441,-0.3028485869133691,nan
1740794353.6029713,-0.06742826108554645,-0.11819290145066483,0.17797905391906876,-0.23149259151244078,nan
1740794353.6068766,0.2681454205905272,0.23076349231011684,-0.4044866745205253,-0.1009840708521869,nan
1740794353.610782,0.3346854119941997,0.51955049785852,-0.7498692563336811,-0.03319507437403507,nan
1740794353.6146872,0.17158868127603238,0.48364739422371394,-0.5690311982450704,-0.013191788986647593,nan
1740794353.6185925,0.02992516855976074,0.1115987382267486,-0.015039270829474635,0.06689967479073768,nan
1740794353.6224978,0.04091229271009424,-0.29786037065655796,0.46039620036854634,0.23135494689111305,nan
1740794353.626403,0.08618259619890055,-0.4187632747304683,0.520871304978306,0.3556443341706187,nan
1740794353.6303084,0.006089548838367189,-0.2333844453335389,0.21071139503787392,0.30433299065448155,nan
1740794353.6342137,-0.16019169383553358,-0.025997842075027915,-0.15883720591174125,0.09310323335714428,nan
1740794353.638119,-0.22638502648371167,-0.026476756260121508,-0.32370681211327623,-0.13047097956840947,nan
1740794353.6420243,-0.11893446624618022,-0.13209095598996431,-0.24342525206367852,-0.25031791565860584,nan
1740794353.6459296,0.017684479655155957,-0.060900762874425335,-0.029323289254557565,-0.2745371527611831,nan
1740794353.6498442,0.017055750872113647,0.24439178053092087,0.19962247734423424,-0.2597335527919011,nan
1740794353.6537495,-0.07784601312485967,0.48070257621312573,0.3548967101515933,-0.2038847061651834,nan
1740794353.6576548,-0.06820895638350713,0.3249657825386183,0.34817307395777825,-0.06886291656971996,nan
1740794353.66156,0.12226303285928324,-0.14347475882026353,0.12945856151819748,0.11381440180172975,nan
1740794353.6654654,0.31369017817999045,-0.4725931198271283,-0.2159199410222536,0.23331735864059522,nan
1740794353.6693707,0.27301899461430745,-0.3257798449084529,-0.47218872758147035,0.22598259907882076,nan
1740794353.673276,0.006368402957377253,0.13112475788580727,-0.46479086209780024,0.16325467911996525,nan
1740794353.6771812,-0.23299094807488396,0.40567388807106897,-0.22947363391126147,0.15576647649650577,nan
1740794353.6810865,-0.23736113619780322,0.22135633331292817,0.0313281999200394,0.18519062384160462,nan
1740794353.6849918,-0.0728830043058405,-0.19651116428509194,0.1703264526274328,0.10532829027818985,nan
1740794353.6888971,0.034764337520270465,-0.40227456994968713,0.2323355575430432,-0.15279248272531035,nan
1740794353.6928024,-0.005003375001265196,-0.2267266981688473,0.3393444148280274,-0.4287533752939866,nan
1740794353.6967156,-0.057035831354269144,0.08207280759773301,0.47364246069414545,-0.46397426959998117,nan
1740794353.700621,0.021328284073304723,0.19190950178441438,0.4459117067885063,-0.19621213438192397,nan
1740794353.7045262,0.15840732133299137,0.06403300002711063,0.10992361070804002,0.13887279007524425,nan
1740794353.7084315,0.15052833059224655,-0.053453774418402225,-0.42384524262371726,0.24946371983339363,nan
1740794353.7123368,-0.05151869442565542,0.04377107578459665,-0.8315374176462383,0.10553715857548508,nan
1740794353.716242,-0.23512769209088133,0.2770160476651319,-0.8362007486238774,-0.04214552972319807,nan
1740794353.7201474,-0.16281750447024354,0.38654526722109395,-0.4152726678910974,0.03410292333190119,nan
1740794353.7240527,0.12675722417841637,0.2104242065493678,0.21771611287954723,0.2726400749171934,nan
1740794353.727958,0.3339353385705927,-0.17414240270052417,0.7705289625825318,0.40010067231176244,nan
1740794353.7318633,0.22854739475089994,-0.5398574521848817,0.9961055098983032,0.24246685129061152,nan
1740794353.7357686,-0.09178162722821247,-0.6746976739780657,0.7540166348159989,-0.1005238200034353,nan
1740794353.7396739,-0.3153233312940687,-0.47994139222367277,0.08946585795991883,-0.38944611706981774,nan
1740794353.7435946,-0.25627691700221095,-0.00797184422589077,-0.6933815906046971,-0.4842048390392378,nan
1740794353.7475,-0.024485493052087533,0.525099479902898,-1.1238504029747163,-0.40676108646797443,nan
1740794353.7514052,0.14011351327386262,0.8107091827140509,-0.8782945621174086,-0.22160563371539455,nan
1740794353.7553105,0.1337689273843637,0.6477677618700525,-0.08223650346672275,0.0439752250357104,nan
1740794353.7592158,0.045326689741947195,0.13584981472949176,0.7275849087646616,0.33286871681973595,nan
1740794353.7631211,-0.00906537302665305,-0.3657270128086712,1.0143210836562724,0.4972912068992405,nan
1740794353.7670264,-0.0223408462996528,-0.5364902003850758,0.6619469421468457,0.4074318042608645,nan
1740794353.7709317,-0.04448294669228917,-0.3685258760432881,0.011602209382514696,0.12653769694937206,nan
1740794353.774837,-0.06152654737229979,-0.12152546724654088,-0.4864493321844687,-0.10560645710287558,nan
1740794353.7787423,-0.0034783156327892945,-0.014930463544124289,-0.6281519064306674,-0.12256866765868311,nan
1740794353.7826476,0.12838527889129997,-0.01628401055305925,-0.4980324238166207,-0.027764756549634263,nan
1740794353.786553,0.21087232040631376,0.042152856301588486,-0.26048976132919904,-0.06799175364180847,nan
1740794353.7904725,0.12367290869314136,0.19586102520197501,0.0027262902071969455,-0.30618352531765336,nan
1740794353.7943778,-0.09678850106933759,0.2845947316183942,0.26215343595616947,-0.4963748651887466,nan
1740794353.798283,-0.27550470584599446,0.1702319131594507,0.4506653151345926,-0.346861350754752,nan
1740794353.8021884,-0.27633725891876243,-0.058180344389465025,0.48379072182000016,0.11914224799883624,nan
1740794353.8060937,-0.12739979405405857,-0.16980822526997838,0.3536374937517403,0.5397278373959176,nan
1740794353.809999,0.04185242753207541,-0.06618628447174126,0.13802610457447947,0.5747808328949642,nan
1740794353.8139043,0.14831084215698356,0.10294639206507165,-0.09699329746785193,0.24485874714322564,nan
1740794353.8178096,0.19919317893558847,0.12458391099980635,-0.3465921002535743,-0.12462643585454639,nan
1740794353.8217149,0.21041756988597968,-0.030183525687750158,-0.5788715654837223,-0.2587553853911094,nan
1740794353.8256202,0.15104115706927584,-0.19710761022088227,-0.6476027666565314,-0.16887609683606702,nan
1740794353.8295255,0.006410434458688028,-0.2290238732529057,-0.3921771584402482,-0.0434722841623821,nan
1740794353.8334308,-0.1437874222318635,-0.13987726921263394,0.1378604106494871,0.003081529810665392,nan
1740794353.8373492,-0.17895827245417276,-0.024260833718316218,0.6223726083742925,0.0027121908973059853,nan
1740794353.8412545,-0.08315661985265003,0.08729929045771051,0.7222483112147754,-0.00011321257531391043,nan
1740794353.8451598,0.013368309052034715,0.21592382448137798,0.4087232689157723,-0.04016577244290438,nan
1740794353.849065,-0.017656234826303435,0.3089998190230336,-0.005677481016119944,-0.14019105833600823,nan
1740794353.8529704,-0.13313623265265628,0.23833900912617548,-0.19192993798627953,-0.1999053997881559,nan
1740794353.8568757,-0.15327942086546154,-0.020134277498812896,-0.12666756716494534,-0.07907751154895694,nan
1740794353.860781,0.01753975413803355,-0.2727329047608863,-0.0545987965295898,0.19718830586319783,nan
1740794353.8646863,0.24844924948223104,-0.27888465268843565,-0.1612172660973484,0.3992819779110743,nan
1740794353.8685915,0.3080160218044108,-0.04544902562226536,-0.35647621651858524,0.32441629138237305,nan
1740794353.8724968,0.12530984650907026,0.14125549553649686,-0.4063606672809673,0.037559621589293934,nan
1740794353.8764021,-0.1209690810541627,0.04413468826329552,-0.21655659384516693,-0.18943164447530442,nan
1740794353.8803074,-0.19532044861291692,-0.21369932436556702,0.0822343069920933,-0.18675351505390533,nan
1740794353.884225,-0.05875180560451588,-0.2675021648389989,0.3096766259694138,-0.06800766913361915,nan
1740794353.8881302,0.10405251025721539,0.04244291578236826,0.40919918377930037,-0.058601069552783346,nan
1740794353.8920355,0.10000184739714754,0.4345577095253179,0.4131797597232945,-0.19149798749363822,nan
1740794353.8959408,-0.06944117018412947,0.4783993608496154,0.3138938760633637,-0.26058902975899473,nan
1740794353.899846,-0.23139540719989798,0.09117541439178888,0.07302240220755013,-0.09173782405855266,nan
1740794353.9037514,-0.2323043312693794,-0.355062208864454,-0.23909361763079318,0.21627246420126003,nan
1740794353.9076567,-0.07306634919072534,-0.4482157930645534,-0.41994956551225937,0.38903388411116385,nan
1740794353.911562,0.12703616341617555,-0.17596014302521928,-0.33494304106938405,0.287971035194961,nan
1740794353.9154673,0.250580508958375,0.12134180071552712,-0.1048095618265797,0.04777667551113408,nan
1740794353.9193726,0.2506404746834061,0.18520417884160037,0.005870924035865723,-0.11144236613744048,nan
1740794353.9232779,0.14409329527277293,0.10125433921491615,-0.08795904860450354,-0.13372269893102817,nan
1740794353.9271832,-0.010322462273429232,0.09150458394384543,-0.16518973048069044,-0.1247824213807955,nan
1740794353.9311,-0.12849420898595407,0.16191593588368736,0.02471432552079128,-0.1438975509389055,nan
1740794353.9350052,-0.14522856510537085,0.09863225178791285,0.39767611924868973,-0.10855186813166098,nan
1740794353.9389105,-0.0759898993144046,-0.1865757016488462,0.5662761737891987,0.050165604724009764,nan
1740794353.9428158,-0.0156996246245503,-0.45019754069130136,0.2857556953417615,0.217597955289242,nan
1740794353.946721,-0.04025808823740474,-0.3676946520345961,-0.21228581783967723,0.18853015926152236,nan
1740794353.9506264,-0.11078447330069718,0.05350764464638091,-0.44060069317152956,-0.06279692810012823,nan
1740794353.9545317,-0.11087045943768395,0.43604882641659054,-0.20790742428693207,-0.29686035862826693,nan
1740794353.958437,0.007406125231275378,0.445529911575714,0.15656067248092403,-0.259450299010763,nan
1740794353.9623425,0.14817933642682002,0.1537331276136379,0.19554085800477455,0.020072913751791554,nan
1740794353.9662478,0.17811691655976317,-0.09000486899546076,-0.1269491437550257,0.25911419810470043,nan
1740794353.970153,0.09201768582974632,-0.09893430988424594,-0.3865861915816523,0.2525486360400469,nan
1740794353.9740584,0.020068559927078282,-0.03668274874943118,-0.2237419834745242,0.09315734182253342,nan
1740794353.9779742,0.052477121557428764,-0.13458964404039847,0.20558365154589547,0.013096370672911733,nan
1740794353.9818795,0.10618027143886313,-0.33673828343037776,0.40674968247104865,0.06660025905312013,nan
1740794353.9857848,0.02546160496030236,-0.35344855943044134,0.14159272229317363,0.07350786642297029,nan
1740794353.98969,-0.19295352740954422,-0.0541379953107889,-0.2767110838104329,-0.10831457133197385,nan
1740794353.9935954,-0.346361744747136,0.32347646331479774,-0.3430767568529106,-0.35282360327241785,nan
1740794353.9975007,-0.24554249711739373,0.4336854684588832,0.055457728239558975,-0.3950132310760342,nan
1740794354.001406,0.04464214333645805,0.2258192684936261,0.5133133206348677,-0.15928578680273933,nan
1740794354.0053113,0.2517305888049676,-0.020646389723256282,0.5612136837895266,0.1412318955197391,nan
1740794354.0092165,0.19694830546304323,-0.05996618178902651,0.15674919588838768,0.26371685106742837,nan
1740794354.0131218,-0.004628448148819377,0.03430762781622833,-0.3261414761805793,0.21196599264143187,nan
1740794354.0170271,-0.09062974911902104,0.01611318531476862,-0.5286747784098914,0.17346179753715746,nan
1740794354.0209324,0.032127110997656236,-0.1755519331562303,-0.4302479139969426,0.22113186353274022,nan
1740794354.0248473,0.18704135476508113,-0.3312645842128336,-0.24644959313601,0.2016570079886368,nan
1740794354.0287526,0.15856947760157758,-0.25618950387213035,-0.11883822283628696,-0.02595742926784863,nan
1740794354.0326579,-0.040593258791625994,-0.024952483077132406,0.0024550147767636813,-0.33068926627332806,nan
1740794354.0365632,-0.195500713475334,0.13585143456863144,0.2003800782325466,-0.41338234451961836,nan
1740794354.0404685,-0.1601310434036111,0.15695004100149285,0.42277078015275693,-0.17812793824962167,nan
1740794354.0443738,-0.02337099964263856,0.18341146498657449,0.5231281856090405,0.11138882971845367,nan
1740794354.0482793,0.028190017080869358,0.29867141996151164,0.42257411228183234,0.12940886877436125,nan
1740794354.0521846,-0.046299055659170966,0.3263439341517646,0.17385588546126887,-0.10812344109568842,nan
1740794354.0560899,-0.11029902552113036,0.04370552247600654,-0.11759174432646873,-0.24764297237993904,nan
1740794354.0599952,-0.05158155092859053,-0.4372786409790456,-0.3725747956688537,-0.02816874355277956,nan
1740794354.0639005,0.06878957256559447,-0.6652378848433986,-0.5274835796198692,0.38478586785576674,nan
1740794354.0678058,0.11751918085864492,-0.3291665051084381,-0.5133605410381785,0.5751978181876942,nan
1740794354.071719,0.08486554484398018,0.32183044131038496,-0.31180721360794944,0.34740038989380057,nan
1740794354.0756242,0.08993957416417446,0.6710420034875234,-0.01906759288860168,-0.07695022772137859,nan
1740794354.0795295,0.18251403516429388,0.3795915674464461,0.20759939981412615,-0.34524306674318656,nan
1740794354.0834348,0.22782555101140126,-0.24408703429678258,0.29137232998464935,-0.35599991624761435,nan
1740794354.08734,0.06484278650721215,-0.5817007301625031,0.2901315254655212,-0.2749067972829187,nan
1740794354.0912454,-0.250443006950025,-0.3582338841910353,0.28893296452979506,-0.23236472842078207,nan
1740794354.0951507,-0.45291729552409526,0.1284380370837754,0.2799861419834787,-0.15024770564805184,nan
1740794354.0990562,-0.3554856311644027,0.40761572070510593,0.19973426012207765,0.07851710334183018,nan
1740794354.1029615,-0.06861068023939183,0.33745974744291235,0.059337099987868104,0.3471309963797704,nan
1740794354.1068668,0.13166134715748415,0.13619122512002496,-0.047669260230936636,0.4082295358587404,nan
1740794354.1107721,0.1290099484085654,0.008861284208423761,-0.09911111602460981,0.1897015386277191,nan
1740794354.1146774,0.07583928008544315,-0.08947338670617223,-0.22270220997271356,-0.08351497502550934,nan
1740794354.1185975,0.15410557819128623,-0.274531372879281,-0.5169480733941917,-0.15427747165881353,nan
1740794354.1225028,0.3100548143130946,-0.4508505787358463,-0.8076192676810502,-0.04523693938755146,nan
1740794354.126408,0.31853837737635465,-0.364853874086718,-0.7169361630848813,0.00589921711446163,nan
1740794354.1303134,0.09346432624603694,0.05156441725704699,-0.07795582146313342,-0.09500790405694699,nan
1740794354.1342187,-0.1743295108213227,0.5105254026413761,0.7672090176365024,-0.14907808067753012,nan
1740794354.138124,-0.24928185979371437,0.6273256678825646,1.2108614321507356,0.037812302978305554,nan
1740794354.1420295,-0.1538838584329478,0.31439552994298187,0.9670418824472767,0.3020298345183553,nan
1740794354.1459348,-0.13083005899957884,-0.15345454260294553,0.3416316754978996,0.24337129181965356,nan
1740794354.14984,-0.2950151066366711,-0.4476094172656108,-0.14160870667275618,-0.2516181401021627,nan
1740794354.1537454,-0.43207604050313403,-0.47135165732934087,-0.30994944017509807,-0.7419012671759863,nan
1740794354.1576507,-0.23734177366452586,-0.3201000320269085,-0.4152030366732987,-0.6406109206490024,nan
1740794354.161556,0.27706903697658153,-0.06951690782869047,-0.6596496123445663,0.11008914330771828,nan
1740794354.1654754,0.7213634418700157,0.2694512445302627,-0.8395611272259209,0.8966205129667193,nan
1740794354.1693807,0.71719150376573,0.5950262649897134,-0.6138069950984137,1.0353907979786896,nan
1740794354.173286,0.2874100194070465,0.6576327498643749,-0.04198981654333545,0.4547548596441026,nan
1740794354.1771913,-0.19885481275819406,0.27813725883724766,0.385913893782441,-0.2949941028686968,nan
1740794354.1810966,-0.4239826224670217,-0.3906017290126257,0.3583549148127549,-0.6560391257462048,nan
1740794354.1850019,-0.3744843751424954,-0.9090725904480619,0.20185274776745604,-0.5595608063641928,nan
1740794354.1889071,-0.20811320203266995,-0.9017427469985619,0.48367911550767334,-0.30073177618751556,nan
1740794354.1928124,-0.00999978001233293,-0.35168542569832706,1.155975520619228,-0.09018799710953247,nan
1740794354.1967177,0.20275323945368862,0.42806322415994336,1.3765605258554454,0.1000834542035596,nan
1740794354.200623,0.2988026351255252,1.0303605388174544,0.4290216146456241,0.2888858707324484,nan
1740794354.2045283,0.053130408503442125,1.1364908779672274,-1.2522838752447762,0.3096574630457041,nan
1740794354.2084336,-0.5329568387382152,0.6083250530589874,-2.274893905349528,0.028791900182680685,nan
1740794354.2123523,-1.0217149603685882,-0.3849062198290367,-1.6785952774852622,-0.35575791393467715,nan
1740794354.2162576,-0.834865191310787,-1.2821444368014472,-0.013427346871597585,-0.4354237752838097,nan
1740794354.2201629,0.15857041126267205,-1.3847900216098048,1.1787684019192448,-0.05871944876803242,nan
1740794354.2240682,1.415411496459067,-0.46894300777334896,0.9655475222469957,0.4671169494775945,nan
1740794354.2279735,2.146077716120124,0.8106133315984388,-0.07171934810387215,0.7484548435619623,nan
1740794354.2318788,1.9310614648601028,1.3500479455651626,-0.6046062729949686,0.7591271812694026,nan
1740794354.235784,0.8709560675363089,0.6571961086981576,-0.04109284475980091,0.7125305787051246,nan
1740794354.2396894,-0.7386338173226241,-0.5365659326053688,0.9723074435784923,0.5002097859423179,nan
1740794354.2435946,-2.592130217799918,-0.935246789773631,1.4478962073452175,-0.4069622092980594,nan
1740794354.2475002,-4.091443314859251,-0.0703941609022748,1.1133360732360251,-2.1638387572521323,nan
1740794354.2514055,-4.139794694505416,1.0822784810320092,0.38741777773960095,-3.720388326510505,nan
1740794354.2553108,-1.76925892766121,1.0751630242731351,-0.43226023946294867,-3.2611872809013023,nan
1740794354.259228,2.6201669282823623,-0.3940817150600381,-1.4782369447409087,0.042197545252526725,nan
1740794354.2631333,6.73942205803742,-1.9993558525448503,-2.661043353589643,4.637534898741162,nan
1740794354.2670386,7.650235322549686,-2.0592104726741387,-3.099474836600485,7.291247999822404,nan
1740794354.2709439,4.092835525636533,-0.2609010740918689,-1.748907342455031,5.631971382895828,nan
1740794354.2748492,-2.1531108588137102,1.9849675366008916,1.2425591701678946,0.2818476757861904,nan
1740794354.2787545,-7.315247591056607,2.8876409171420887,4.122760287988474,-5.464007693940235,nan
1740794354.2826598,-8.343956731454096,1.8579458627763867,4.858465271677467,-8.134717351072078,nan
1740794354.286565,-5.0013522805750075,-0.2188647684438982,2.945762413357209,-6.4936509509701565,nan
1740794354.2904704,0.32264854011755106,-2.0049687626677066,-0.2185074670763597,-1.9380457789735799,nan
1740794354.2943757,4.600962574666488,-2.7257728691620824,-2.7332611337911614,2.9557681644629237,nan
1740794354.298281,6.097092715522485,-2.2700966185476013,-3.725252078256513,6.096572635147451,nan
1740794354.3021863,4.876300594425197,-0.7872275378744514,-3.4437015351227713,6.5460077602516895,nan
1740794354.3061025,2.0917607339755437,1.3441895559426789,-2.2634528595471526,4.382717655928409,nan
1740794354.3100078,-0.9111003523456704,3.1880203862801983,-0.21680022626258047,0.5231563853340672,nan
1740794354.313913,-3.052751837158247,3.4367757799210072,2.3166100576011104,-3.386872912864109,nan
1740794354.3178184,-3.699112472540926,1.472915323560654,3.999961488527433,-5.513850124251653,nan
1740794354.3217237,-2.839893382633157,-1.670046712851538,3.380039120988456,-4.885536929901908,nan
1740794354.325629,-1.1230004058525773,-3.762132864540725,0.5845860077491056,-2.1255327022186568,nan
1740794354.3295343,0.5181720771206326,-3.1904443114897028,-2.247431213078776,0.9714133860270918,nan
1740794354.3334396,1.4607235895697788,-0.45698847189456304,-2.7869760551934246,2.7769403997419486,nan
1740794354.337345,1.6681124451346736,2.2088282850233476,-0.868051086817973,2.87511783376831,nan
1740794354.3412502,1.4209964438600902,2.818938352984626,1.2934067519944454,1.94883733125454,nan
1740794354.3451555,0.9118423241796579,1.2647938017964868,1.444368577891893,0.8684662781409549,nan
1740794354.3490608,0.211578661471294,-0.8668620641854639,-0.3250749710521843,0.027096532403552386,nan
1740794354.352976,-0.4666247457957384,-1.885092847376827,-1.8303053191173122,-0.5799154234939583,nan
1740794354.3568814,-0.7407849665280406,-1.3165223975981466,-1.3504558547639929,-0.972269770945735,nan
1740794354.3607867,-0.4640322906813276,0.11051962702284358,0.4688120084985715,-1.0981749677639892,nan
1740794354.364692,-0.04134052536495486,1.3683333493259973,1.5144098229575895,-1.0081841687872015,nan
1740794354.3685973,-0.08726463988095194,1.8185199619117465,0.7450231434361942,-0.8427943154674262,nan
1740794354.3725026,-0.6723832651289658,1.2743220487991016,-0.6588309066008087,-0.5711449514654362,nan
1740794354.3764079,-1.0836130996772906,-0.11381675815680674,-0.8194434202335542,0.0502186742657392,nan
1740794354.3803132,-0.5605392329490285,-1.7726527096450164,0.5499058500555516,1.046330330063338,nan
1740794354.3842185,0.727093318376362,-2.7224950506802155,1.8277112313147559,1.832059996113125,nan
1740794354.3881238,1.6574123963749723,-2.1320321926358026,1.433770006073685,1.5658085113940396,nan
1740794354.392029,1.2881596259426313,-0.1237821575167082,-0.3414702191503601,0.09984647886901404,nan
1740794354.3959343,-0.05596910839327793,2.060891726017024,-1.754437319879914,-1.5459571146197353,nan
1740794354.3998485,-1.034913043026561,2.954104595857557,-1.6464591538778566,-1.9578458551205942,nan
1740794354.4037538,-0.7160650507758105,2.0803538167380586,-0.6206328288431895,-0.726588675362033,nan
1740794354.407659,0.3895723172934474,0.3030070987920266,-0.06526471032123704,1.029776036462471,nan
1740794354.4115644,0.8857769887239759,-1.0511589476834777,-0.371406804812648,1.7051650576173316,nan
1740794354.4154696,0.07090783956493266,-1.376199135514282,-0.5528326329143329,0.7852965119774821,nan
1740794354.419375,-1.2279637430938048,-1.0972805357602928,0.3567525665884912,-0.7024579790286847,nan
1740794354.4232802,-1.5344003151975838,-0.9201775041717773,1.927228271547049,-1.3264927488570402,nan
1740794354.4271858,-0.36198866575088084,-0.9539679374930506,2.6720335800483137,-0.7074464044781146,nan
1740794354.431091,1.2065299295788505,-0.6749722803261857,1.6823408620938092,0.259343327571003,nan
1740794354.4349964,1.6484260410129672,0.3019683840667358,-0.3688798880414581,0.5337491749957458,nan
1740794354.4389017,0.6018456667840534,1.5656722779757009,-1.9460807461633638,0.05937010664951393,nan
1740794354.442807,-0.7903464269673136,2.133709659095452,-2.172076941575319,-0.3315095007927312,nan
1740794354.4467201,-1.1194747944824854,1.3771582737344357,-1.4517481991774417,0.007094826179603858,nan
1740794354.4506254,-0.1624081228152468,-0.27396786206010026,-0.7064550731345521,0.777225844731871,nan
1740794354.4545307,0.9714202921647555,-1.5761139087360054,-0.30487978321245046,1.1064807266502816,nan
1740794354.458436,1.0550017739084978,-1.5132254732278674,0.10086147072229586,0.5304841476883422,nan
1740794354.4623413,-0.02175635688153148,-0.22411766871435673,0.860966166844522,-0.530607684874927,nan
1740794354.4662466,-1.2276562210664481,1.0484667388492044,1.7329428845851,-1.2391669627208437,nan
1740794354.470152,-1.4616610369096619,1.0283674081066418,2.0704801734691545,-1.1440460846611653,nan
1740794354.4740572,-0.5548860107304787,-0.39332671379638257,1.4671214509714796,-0.48160217926915877,nan
1740794354.4779625,0.7090052625961262,-1.9355828447408059,0.12513915764706557,0.19464972895294957,nan
1740794354.4818678,1.3846896280712466,-2.003124669367137,-1.3080583487585602,0.5386025249100271,nan
1740794354.485773,1.1075614190011365,-0.18251136344183347,-2.138748993026118,0.5780451868363472,nan
1740794354.4896784,0.20416965255096087,2.2270502461156387,-1.9544245630901036,0.508352873968136,nan
1740794354.4935992,-0.6970323009954226,3.2477502800685025,-0.8390679910353277,0.4384338513865589,nan
1740794354.4975045,-1.087472553139863,1.9621162725972445,0.5622479599147494,0.32376051833362957,nan
1740794354.5014098,-0.7861968977827699,-0.639987588269676,1.3363895670028063,0.06862801116259425,nan
1740794354.505315,0.012208046615658198,-2.5187579277652534,0.9756157017571976,-0.33042745411106267,nan
1740794354.5092204,0.797653544699285,-2.3588201390359136,-0.08268133861673052,-0.7051779100005228,nan
1740794354.5131257,0.9972321310106269,-0.6263705345868928,-0.719308636306345,-0.7789954093263466,nan
1740794354.517031,0.4032638672565344,0.9967050925297725,-0.1657943355919623,-0.3907822067576223,nan
1740794354.5209363,-0.548931028416918,1.1736094310146283,1.1510337471110859,0.2729934466013566,nan
1740794354.5248415,-1.036824127716674,0.014078347572487807,1.9049572476569325,0.7166107571476147,nan
1740794354.5287468,-0.5698155639032216,-1.1705657780343695,1.1318174443223017,0.539356853527417,nan
1740794354.5326521,0.4671848851296944,-1.0959835116976935,-0.787152313597459,-0.12237942870541625,nan
1740794354.5365574,1.0737158291715092,0.38451148711648186,-2.4291829596671652,-0.6222251856956773,nan
1740794354.5404768,0.5786715360705734,2.1385696904046707,-2.5993807540244336,-0.3989695526601668,nan
1740794354.544382,-0.6245763571241109,2.6316009087893066,-1.289020316954132,0.4098270664731679,nan
1740794354.5482874,-1.36528952605876,1.1701138526339565,0.5145309287352465,1.0176831593137876,nan
1740794354.5521927,-0.8243261933998217,-1.401634698196236,1.7663347879810665,0.7389221840884833,nan
1740794354.5560982,0.600795358643244,-3.1851800343894037,2.0395341712208785,-0.29654851888766254,nan
1740794354.5600035,1.624161341926694,-2.7132605881113774,1.4809186506148793,-1.2156619683693093,nan
1740794354.5639088,1.3213482425410887,-0.3118048807596574,0.4490851406339036,-1.2106675045849764,nan
1740794354.567814,0.031641012809359034,1.9905061585274142,-0.6436965493252113,-0.27650470604097016,nan
1740794354.5717194,-1.0365408279860597,2.215654873287588,-1.324731928988017,0.8230136486785969,nan
1740794354.5756247,-1.075179894276766,0.364394442426922,-1.2415601147602546,1.253384765566588,nan
1740794354.57953,-0.4421920760868823,-1.474090756109283,-0.5043297312537285,0.7638204692331149,nan
1740794354.5834353,-0.09492499624041228,-1.2034523853450143,0.28327236040222226,-0.2296942846839155,nan
1740794354.5873542,-0.3688565462678081,1.0004615919131123,0.5323363975075835,-1.0403908291404185,nan
1740794354.5912595,-0.5541786552028581,2.7041259810706797,0.23604488035694557,-1.1587425472758441,nan
1740794354.5951648,0.17495154276711078,1.7433064591616847,-0.08075859139039661,-0.4936628534895056,nan
1740794354.59907,1.5413280395339173,-1.3276316570638602,-0.011361607828665935,0.5873012417505794,nan
1740794354.6029754,2.1814573937490054,-3.6041450621270883,0.26161468723849124,1.4021830735431298,nan
1740794354.6068807,1.0781148045582842,-2.7983089738561047,0.26146111771997216,1.335749583806186,nan
1740794354.610786,-1.1223579066591356,0.33624413842076045,-0.10247775521948393,0.33055062329850843,nan
1740794354.6146913,-2.507018449104679,2.7853842069427346,-0.3710112577367308,-0.9341063827417625,nan
1740794354.6185966,-1.7863771809481095,2.430001800064662,-0.13803143107010252,-1.5038114713509398,nan
1740794354.6225019,0.29558225211240674,0.12292165323280185,0.3586164422707336,-0.9739023053828566,nan
1740794354.6264071,1.6457324356614942,-1.5104151934023489,0.4853909447140934,0.10464573903595199,nan
1740794354.6303124,0.9896832882511223,-1.04019777412566,0.047045288020893014,0.730307650434922,nan
1740794354.6342297,-0.7731098449708004,0.42882281191755695,-0.39172217182778557,0.4351135405652371,nan
1740794354.638135,-1.5344268523130873,0.8966786670850632,-0.2229246530845039,-0.2554015112993721,nan
1740794354.6420403,-0.2746310450362308,-0.060573636994834854,0.30278179544126516,-0.3980901445678422,nan
1740794354.6459455,1.7810208006029467,-0.9523860727800555,0.24980114346896018,0.33676461396402335,nan
1740794354.6498508,2.424260858780716,-0.42159843405599384,-0.7581236108456222,1.2665063697256302,nan
1740794354.6537561,0.8124467482509672,0.9533222395442293,-1.7224936931480883,1.3605277837780836,nan
1740794354.6576614,-1.6064847751022096,1.3380111854852268,-1.139191401279101,0.28461421745892335,nan
1740794354.6615667,-2.571103475252077,-0.053408466115459144,1.1561716528991932,-1.2341299459748531,nan
1740794354.665472,-1.302352439618554,-1.8675848583105468,3.306517342110498,-2.054666314776471,nan
1740794354.6693776,0.7876285779295175,-2.0799772380632726,3.0399904585650637,-1.6065147134914148,nan
1740794354.6732829,1.6376576707175137,-0.28741857244930746,0.10763185137499495,-0.2884594780122386,nan
1740794354.6771882,0.632927563466336,1.844275955933941,-3.1260027698499355,0.9783024778815501,nan
1740794354.6811042,-0.9128217596895503,2.4096231362946043,-3.840675327488592,1.5093525552395963,nan
1740794354.6850095,-1.2556519101084704,1.1833093745019962,-1.5566385838103647,1.246001920257123,nan
1740794354.688915,-0.025279521441930096,-0.46424363020240206,1.409130917358344,0.5801895194563104,nan
1740794354.6928203,1.5038003726952531,-1.2632224899111217,2.3779671425451365,-0.06099141921960612,nan
1740794354.6967256,1.7994939735079098,-1.2029201065553163,1.0340287430494772,-0.471361791076096,nan
1740794354.700631,0.580584146244707,-0.9714031048372311,-0.5089592801421997,-0.6474430212643156,nan
1740794354.7045362,-1.0354348209041322,-0.7422582863944047,-0.30379289189027453,-0.6472812117353341,nan
1740794354.7084415,-1.7173548494451538,-0.03039131472284019,1.1496606492257633,-0.5053619915364046,nan
1740794354.7123468,-1.1309828791629348,1.2673430659964968,1.5591833291766992,-0.24921310667385974,nan
1740794354.716252,-0.04140309388320029,2.1976136728370834,-0.30550878999912867,0.0526316021764968,nan
1740794354.7201574,0.5928598957387226,1.563582835878777,-2.8706342177602937,0.2935190212015459,nan
1740794354.7240627,0.5027486438264852,-0.5956898757594568,-3.2649172850987327,0.3948369302020058,nan
1740794354.7279785,0.15306692555431411,-2.6585885233081585,-0.5334875771249814,0.367118264751254,nan
1740794354.7318838,0.08484147425619011,-2.7918825038492305,3.0269791741935146,0.2859359884504836,nan
1740794354.735789,0.3372343518462144,-0.6852974245423854,4.038237660389178,0.19301786447458377,nan
1740794354.7396944,0.5057394774421942,2.1059303978547343,1.494342200968756,0.04293756287759371,nan
1740794354.7435997,0.2664521068130832,3.4819614865826995,-2.1836683912681902,-0.20757958519349914,nan
1740794354.747505,-0.2464141835332589,2.4581272557908727,-3.6106856532646883,-0.45293650417703324,nan
1740794354.7514102,-0.591156806438028,-0.2349490736704813,-1.778089036120656,-0.4531305965997325,nan
1740794354.7553155,-0.49106336016374874,-2.82785476577929,1.2001812578517852,-0.08538024384270584,nan
1740794354.7592208,-0.10644386489747323,-3.7014918116676028,2.5012838457492492,0.41451840889661085,nan
1740794354.7631261,0.16501634863147394,-2.30538542277922,1.3970872355185897,0.5690328284173379,nan
1740794354.7670314,0.11415723679716068,0.5404772024941322,-0.4576132562699326,0.12979847375905326,nan
1740794354.7709367,-0.09643950823481774,3.063783349732654,-1.1799444932918008,-0.5716670197142927,nan
1740794354.774851,-0.1651785344362887,3.6093795019647428,-0.6002473232752515,-0.8560539452773448,nan
1740794354.7787564,-0.00242622158345455,1.8255283286685162,0.0526474838036984,-0.367963270362714,nan
1740794354.7826617,0.20882879266680288,-0.973432235358893,-0.04345730458874848,0.5122075289978248,nan
1740794354.786567,0.2810109174651748,-2.776211512989193,-0.3691669506063772,1.0133523530181858,nan
1740794354.7904723,0.25258384251825294,-2.4792520324947405,-0.01563503618042317,0.7467472185469037,nan
1740794354.7943776,0.2758420178179519,-0.6853314932338369,0.8920244072611989,0.06382458282952207,nan
1740794354.7982829,0.31980467212526376,1.0303042873444768,1.2211044400677538,-0.39358060259051947,nan
1740794354.8021882,0.1272020656084988,1.5755919870008739,0.293660057430981,-0.4080767714281857,nan
1740794354.8060935,-0.43492911789510197,1.0543576447294492,-1.104805947647495,-0.32013857336017454,nan
1740794354.8099988,-1.041348104895777,0.22911578847507208,-1.5230206793773626,-0.4564320809499973,nan
1740794354.813904,-1.0904206122203914,-0.3865350583390054,-0.5360344047170396,-0.6141788580967155,nan
1740794354.8178093,-0.3256496748054942,-0.7499246545232953,0.7380533999324469,-0.30198600437681794,nan
1740794354.8217227,0.7737488898216737,-0.8578478306116201,0.9586125110926468,0.5301564763636158,nan
1740794354.825628,1.3510553892974604,-0.5247626293093137,0.13054323673908994,1.2187475454275651,nan
1740794354.8295333,0.9793914070326385,0.24928680743503212,-0.4859306402766715,1.0197247457590213,nan
1740794354.8334386,0.06557308658706237,0.9547961162666294,-0.002584418416431021,-0.02489034887540559,nan
1740794354.837344,-0.5952423797080025,0.9683182172692939,0.9456238607309384,-1.020274743329923,nan
1740794354.8412492,-0.6168121736470342,0.29605722240120436,0.9671929415753869,-1.0971848683722292,nan
1740794354.8451545,-0.29281137898674686,-0.35639100391186546,-0.31352630879542337,-0.27900471642886443,nan
1740794354.8490598,-0.1048597965136051,-0.4230147948723695,-1.655351460626569,0.6093381776289366,nan
1740794354.852965,-0.12741495009932827,-0.18696277506016695,-1.5650356269980632,0.8308113877532401,nan
1740794354.8568704,-0.056219124657786876,-0.34880584743697934,-0.04801382017965475,0.39541737483980977,nan
1740794354.8607757,0.24329372564942076,-0.9245934770124873,1.3351165077612765,-0.16325717973410797,nan
1740794354.864681,0.44726451429460606,-0.9878447838055826,1.2044696884586656,-0.4629070973285262,nan
1740794354.8686013,0.17897770390747583,0.17203848392370386,-0.11267171842289632,-0.5361654153301065,nan
1740794354.8725066,-0.3976716169832727,1.821801072991691,-1.0052200486334437,-0.49761342583730805,nan
1740794354.876412,-0.6257216034473781,2.225861591953895,-0.4212709504841964,-0.24299374413948516,nan
1740794354.8803174,-0.10520400476981516,0.5780960305589502,0.9866576521159818,0.3240097269171153,nan
1740794354.8842227,0.7300578929817305,-1.7736262602486734,1.6417339471292813,0.8942585322323523,nan
1740794354.888128,0.9838386346621207,-2.4898099681507873,0.763068374687269,0.8935330386439212,nan
1740794354.8920333,0.28698359283133484,-0.7453349254950847,-0.8993433234645718,0.16424168808984027,nan
1740794354.8959386,-0.7241173716608682,1.7199851322090676,-1.9653698501034493,-0.6622483926308387,nan
1740794354.899844,-1.047792001354176,2.341646690385456,-1.7803692729455916,-0.7376623445840901,nan
1740794354.9037492,-0.3987638704562746,0.4502045218623829,-0.7670821437885414,0.012740803505953493,nan
1740794354.9076545,0.48542051738597825,-2.0181244819896933,0.3230776159875618,0.6758653995897689,nan
1740794354.9115598,0.6640111702813586,-2.58694555992804,1.152058714321996,0.31935473578050105,nan
1740794354.9154797,0.015130963949937553,-0.7757004399819221,1.7264649707263373,-0.8698703817103061,nan
1740794354.919385,-0.6707690175011046,1.6022448671342502,1.8998797341514764,-1.625122662504805,nan
1740794354.9232903,-0.5851791725256615,2.476098533272405,1.3101625286405607,-0.9023125494603793,nan
1740794354.9271955,0.24183662532616249,1.4864235964841848,-0.10482508195320063,0.9295930819665533,nan
1740794354.9311008,1.0263345963979034,-0.11262050252785005,-1.7269763232952122,2.334602548412021,nan
1740794354.9350061,1.06364740100635,-1.076978599799168,-2.597724713263363,2.0730354097699553,nan
1740794354.9389114,0.3575579428103652,-1.2481793160167063,-2.1776725003913677,0.36176431730262754,nan
1740794354.9428167,-0.5340544898008651,-1.0913272976558759,-0.7422836522301425,-1.4147850685926413,nan
1740794354.946722,-1.089993768857539,-0.7374485834413547,0.910468347972605,-2.0306227923596953,nan
1740794354.9506273,-1.1496406672502988,0.051084001163202546,2.0307124964496377,-1.3853341541132334,nan
1740794354.9545326,-0.7730950994740553,1.0981419246439752,2.2361090387559637,-0.28256654314995566,nan
1740794354.958438,-0.04028316628969228,1.5508699690569905,1.519656054150562,0.49864901566232295,nan
1740794354.9623566,0.8718506010960752,0.7571503045864982,0.2004578361659904,0.7873064745097776,nan
1740794354.9662619,1.5302435052263081,-0.7529988124884219,-1.1223957459739202,0.8251928102239953,nan
1740794354.9701672,1.414799249950945,-1.562275226659324,-1.800585279749782,0.765462997710864,nan
1740794354.9740725,0.4031749114564071,-0.8118340440955173,-1.549021239142864,0.5099056285642021,nan
1740794354.9779778,-0.9438632812665887,0.8081275063653359,-0.6630287036318134,-0.030460052598335886,nan
1740794354.981883,-1.711825311845708,1.7046188514305187,0.25837256003966663,-0.6684300840585339,nan
1740794354.9857886,-1.3575961163001944,0.9965539301562678,0.8238879932843385,-1.0058305441827606,nan
1740794354.9896939,-0.16691122456988627,-0.6412525924881192,1.0279170599244458,-0.7557474829394988,nan
1740794354.9935992,0.9779030566107005,-1.7297618293059775,0.9549751104436456,-0.012156496965465856,nan
1740794354.9975045,1.2979647638275795,-1.4228908824026212,0.5145559574923271,0.7524869432814187,nan
1740794355.0014098,0.6839708391504441,-0.14856371351148812,-0.3351942308608215,0.9756390875995892,nan
1740794355.005315,-0.28913150607337473,0.9913172213184412,-1.170709155844855,0.4255352670051046,nan
1740794355.009232,-0.8449444187583106,1.241121453118115,-1.2291266739466902,-0.5312669819235543,nan
1740794355.0131373,-0.5976864917431064,0.6600807112217847,-0.2041407689290463,-1.1112463758607256,nan
1740794355.0170426,0.16586573788268455,-0.14003881511076005,1.158714085470448,-0.7438650582486762,nan
1740794355.0209482,0.7242254911976886,-0.5356013173479371,1.567585322300925,0.34103584362316436,nan
1740794355.0248535,0.5363031430389582,-0.30169824940488826,0.4834752833892609,1.2073780195299513,nan
1740794355.0287588,-0.2442343158737727,0.24582009495939924,-1.1742409717823157,1.0547253655069162,nan
1740794355.032664,-0.8557896691902211,0.4592770877769009,-1.8329345644242536,0.03303930831549891,nan
1740794355.0365694,-0.6408621048455693,-0.07442922548939379,-0.8458241956563811,-0.8705295161417831,nan
1740794355.0404747,0.24952018894842523,-0.992868148631614,0.8396608464219387,-0.847122965891721,nan
1740794355.04438,0.9233861175852753,-1.3006726718720305,1.6663085614551172,-0.11279000924858813,nan
1740794355.0482852,0.637572499527042,-0.33917388330230036,1.0318733679699776,0.38485961019385756,nan
1740794355.0521905,-0.366018079058661,1.3017191728768518,-0.24230121366712437,0.09759197242103382,nan
1740794355.0561068,-1.0288999344474525,2.086794829243239,-0.9318797333005262,-0.47216521282535273,nan
1740794355.060012,-0.5771009941647577,1.041443202442926,-0.6705295339874535,-0.40455174122207577,nan
1740794355.0639174,0.5957371590603563,-1.0501296104818918,-0.08678019308741426,0.4460137495921366,nan
1740794355.0678227,1.2782617481897662,-2.2225931832419716,0.12796812411935996,1.1594844632748664,nan
1740794355.071728,0.7160722276002399,-1.2967529488981908,-0.01540156954774872,0.792139490373768,nan
1740794355.0756333,-0.5638440998219143,0.8260022090096356,-0.04185394920749382,-0.4419471806786289,nan
1740794355.0795386,-1.3038822460240074,2.0389527423248026,0.2325290412630729,-1.2967787599801042,nan
1740794355.0834439,-0.8455863410763782,1.2120305070637352,0.46485457689172355,-0.8661295466713614,nan
1740794355.0873494,0.22827355804820093,-0.6811873566931824,0.3031825180769128,0.36953796296153146,nan
1740794355.0912547,0.8135459085617862,-1.699464693241526,-0.11290296604869812,1.0652936217180158,nan
1740794355.09516,0.49758651978034013,-1.0125645244352788,-0.3458880467265575,0.5225160690410697,nan
1740794355.0990653,-0.11053073336912055,0.38667585725542286,-0.24504963885120387,-0.5565062350537651,nan
1740794355.1029806,-0.2220839662652416,0.9897085797685631,-0.10306464224412148,-0.9230140142838213,nan
1740794355.106886,0.18832915214368443,0.4525422102289888,-0.18139008546230231,-0.21375339085682737,nan
1740794355.1107912,0.44633838389851827,-0.25869828180875865,-0.2861076649542385,0.7049328895444311,nan
1740794355.1146965,0.08887911651804467,-0.2192282147978259,-0.02174315894510893,0.8115409609756389,nan
1740794355.1186018,-0.5382717029664937,0.3634959605736652,0.5805484047372754,0.0911527157009158,nan
1740794355.1225073,-0.7122583798338518,0.5706798625937521,0.9265848498935406,-0.5601101992372832,nan
1740794355.1264126,-0.2235911182952643,0.01740386559106878,0.4954824639609181,-0.46566259409969624,nan
1740794355.130318,0.37917171028994523,-0.6877500073840761,-0.479055692693625,0.08531317044928499,nan
1740794355.1342232,0.4635611652939018,-0.7588761738616179,-1.1415241417623236,0.31897238207921125,nan
1740794355.1381285,0.05332089864496933,-0.19792063604240445,-0.8738019008965754,-0.013670358474784802,nan
1740794355.1420338,-0.25776118293952666,0.2987828137698941,0.0721296244533643,-0.37904786122496537,nan
1740794355.145939,-0.06694312366199276,0.2712041288822087,0.8541465201448754,-0.21343172058019153,nan
1740794355.1498537,0.358850259322222,0.011764933490316475,0.8759766771787291,0.32701946723363745,nan
1740794355.153759,0.4469909336146344,0.05329436156501922,0.26640534477610434,0.5691005399675629,nan
1740794355.1576643,0.03424818377062578,0.39055376423411686,-0.39721322977567336,0.1858868913111394,nan
1740794355.1615696,-0.4502123397871254,0.4946033700847823,-0.6682716413490455,-0.38940292926707915,nan
1740794355.165475,-0.5160197994862419,0.07230744642103723,-0.48814325131480896,-0.5039918032910929,nan
1740794355.1693802,-0.16907400759647354,-0.47815547577944806,-0.04301632164694587,-0.07774819835886256,nan
1740794355.1732855,0.1644083217888859,-0.5466609835882144,0.42114598749205345,0.337031061038314,nan
1740794355.1771908,0.1855070255252594,-0.1016397680851547,0.6423162898983996,0.26270553765632243,nan
1740794355.181096,0.03174644240038068,0.2562088847677046,0.42247621196439283,-0.1378965112572497,nan
1740794355.1850014,0.009021409315938153,0.06596270279818227,-0.15345572795285747,-0.31649712098037913,nan
1740794355.1889067,0.15802042809770134,-0.3881344055445737,-0.6376582756819371,-0.04478896743724946,nan
1740794355.192812,0.22896948290172833,-0.4261486745176729,-0.5634445625063236,0.3262032325895321,nan
1740794355.1967254,0.05850112162471392,0.15624032887749803,0.03723417198972553,0.3367057417379065,nan
1740794355.2006307,-0.18405731350459487,0.7930405262430461,0.569651148667983,-0.014934218834011505,nan
1740794355.204536,-0.21297982446659464,0.7990313792849071,0.46946976259939543,-0.3102479373760817,nan
1740794355.2084413,-0.009091125297087737,0.15908769320644128,-0.15895569973293855,-0.25201281381182367,nan
1740794355.2123466,0.14507195433348746,-0.49232455292919786,-0.6294619555125983,0.003065821802241986,nan
1740794355.2162519,0.029589065986691795,-0.6220163646297782,-0.4400333415334874,0.1069188104722223,nan
1740794355.2201571,-0.2215286600586967,-0.33357533989946947,0.16855535756704934,-0.014883671380077014,nan
1740794355.2240624,-0.2797077187192248,-0.09198368211154312,0.531486193087088,-0.10633404930907255,nan
1740794355.2279677,-0.030702668461123704,-0.08584490163786265,0.360825396359737,0.03213539476125248,nan
1740794355.231873,0.2807079731344876,-0.06461825785617631,0.03550527005254375,0.25497262057366277,nan
1740794355.2357783,0.34229185429660297,0.20650287407393583,0.03413617791417125,0.26233003542721717,nan
1740794355.2396836,0.1310322377286824,0.542411905584306,0.261912794286763,0.004328132017810607,nan
1740794355.2436037,-0.09492703366219271,0.5381772889966517,0.16959748595493282,-0.2397186725356474,nan
1740794355.247509,-0.12681683910127697,0.09954314840750851,-0.4589179822076346,-0.2086961951540404,nan
1740794355.2514143,-0.03043479866904293,-0.39831443879803613,-1.07546887031988,0.018002494198258175,nan
1740794355.2553196,-0.008452893399501366,-0.5264726010962104,-0.9206843095682408,0.13108206625275454,nan
1740794355.259225,-0.1135595363929981,-0.26212590530660146,0.051267996407952446,-0.01649571903672534,nan
1740794355.2631304,-0.18874622274017247,0.05648470319249993,1.0150065574115856,-0.23149484233413403,nan
1740794355.2670357,-0.08951917325133081,0.16329863708985898,1.133642060986994,-0.22340599211010279,nan
1740794355.270941,0.1181328794035317,0.11595460954291693,0.45130758840641066,0.0478113619227935,nan
1740794355.2748463,0.23431061619320778,0.10415300602077066,-0.22217906274414026,0.33420072259398736,nan
1740794355.2787516,0.16150332172546242,0.14794956433771228,-0.27280939995487663,0.38219737572088613,nan
1740794355.282657,-0.0011618048271098773,0.10406782405170323,0.06397941703590455,0.1787301883684138,nan
1740794355.2865622,-0.09933053022942827,-0.07726634469690351,0.09863427744546444,-0.09205462119060029,nan
1740794355.2904818,-0.09475721181761518,-0.24356234389306247,-0.4058658267332925,-0.2610402306265983,nan
1740794355.294387,-0.0583181541765899,-0.2334047038192448,-0.9290025578436176,-0.28587938125386525,nan
1740794355.2982924,-0.03697237210349441,-0.08164999545805056,-0.8205595020552042,-0.19753834450024318,nan
1740794355.3021977,-1.684795472320434e-05,0.05751708801761747,-0.06689955824516479,-0.03526477484593861,nan
1740794355.306103,0.0740324695258453,0.13856351274384177,0.7041898751205523,0.13370967152599914,nan
1740794355.3100083,0.12242355625458862,0.24750275270736033,0.9193334193539202,0.20196332200230072,nan
1740794355.3139136,0.06568747293401542,0.37743451266786504,0.6003890830283204,0.11178287972770715,nan
1740794355.3178189,-0.0690455228078302,0.3187424253936071,0.1854998944864066,-0.04768165718913188,nan
1740794355.3217244,-0.1524652982795203,-0.09150097373534435,-0.02937407224652985,-0.10327599810583038,nan
1740794355.3256297,-0.10077735141903792,-0.6439271292929184,-0.12113221570908599,0.008406344173712233,nan
1740794355.329535,0.020875818945330263,-0.8419741012310243,-0.26473422727344137,0.1525741565656325,nan
1740794355.3334403,0.07964482125605292,-0.4101676772292878,-0.42210586651463705,0.14953841410384403,nan
1740794355.3373585,0.03901802312932955,0.34549836681755824,-0.41255165742886674,-0.005562339241626176,nan
1740794355.3412638,-0.007795871063972169,0.7989452793023466,-0.20530002093914101,-0.13915207564607085,nan
1740794355.345169,0.024454998522095123,0.6355061391885034,0.007930133634751656,-0.12448858286247014,nan
1740794355.3490744,0.0920024577799446,0.13797327015716043,0.05526913610175627,-0.041625875524999044,nan
1740794355.35298,0.0818637105314333,-0.18752003728619038,-0.005853999243621196,-0.05335226947236988,nan
1740794355.3568852,-0.028013232600786985,-0.17554316391257185,0.009974036679004695,-0.1585746275216658,nan
1740794355.3607905,-0.12645656797926008,-0.08950212248440692,0.16791071684173725,-0.16629707420419118,nan
1740794355.3646958,-0.10682170680970848,-0.18990373020742027,0.35818387272842633,0.048144667362008065,nan
1740794355.368601,-0.00448293210581497,-0.37541070124975595,0.4659622507106502,0.3339607762097793,nan
1740794355.3725064,0.049853591447961434,-0.3451027148682593,0.47816244386199247,0.40333353259492866,nan
1740794355.3764117,0.0016363542389751537,-0.0294094643467948,0.37729608331649406,0.17404417153843071,nan
1740794355.380317,-0.058184438249322366,0.295974766678586,0.04589721380520452,-0.11665489100068374,nan
1740794355.3842342,-0.019725183042364203,0.35311004986284344,-0.5709512210516527,-0.1932735110141636,nan
1740794355.3881395,0.0900147311879033,0.1934764109342186,-1.2079926749405683,-0.07742455897608208,nan
1740794355.3920448,0.13186311377146642,0.08488649432299267,-1.348414942616673,-0.04453101912541566,nan
1740794355.39595,0.03476968091511403,0.12927625998323072,-0.6974070254597653,-0.23996212491724203,nan
1740794355.3998554,-0.10044770284256477,0.14112335088668626,0.427020579986667,-0.4422247939412556,nan
1740794355.403761,-0.11389125762235199,-0.05463564350370215,1.2935057556354448,-0.3020725430690604,nan
1740794355.4076662,0.018929260270849086,-0.3297068795346054,1.404739533057679,0.20779526563112283,nan
1740794355.4115715,0.1509691432695862,-0.38771699712677166,0.9007650267927655,0.6868161205006907,nan
1740794355.4154768,0.12978263697091938,-0.16085625208020898,0.28963906816260915,0.7036532996025037,nan
1740794355.419382,-0.03514751780021626,0.07670790493951339,-0.13540948958819882,0.249759763887182,nan
1740794355.4232874,-0.1941911294315852,0.060074187480133136,-0.48978509738377185,-0.2691814821842553,nan
1740794355.4271927,-0.2219881136046052,-0.10403144797301567,-0.9259321910856705,-0.47422150767455723,nan
1740794355.431109,-0.12259637187647504,-0.06557020667776,-1.2444608199552165,-0.36313848871973436,nan
1740794355.4350142,0.021213746184396927,0.2838795567606259,-1.0403233759045514,-0.19742520843114,nan
1740794355.4389195,0.14915581470249378,0.600266474564124,-0.2259618523248954,-0.13187999975211923,nan
1740794355.4428248,0.23855949696516734,0.46391202126701137,0.7360601391994506,-0.06903960668646021,nan
1740794355.4467301,0.2514510080507646,-0.09461654056697164,1.2184038534331998,0.11821666513513496,nan
1740794355.4506354,0.13645895869512936,-0.5790806174713,1.0079617459181829,0.33910663212911374,nan
1740794355.4545407,-0.08578095749533977,-0.5665563934371417,0.43409768474919114,0.36482440542917205,nan
1740794355.458446,-0.2775083966184175,-0.1602653300509523,-0.04139206089395024,0.13372939713535484,nan
1740794355.4623516,-0.28340888614018245,0.17417402052629283,-0.25232720888482674,-0.13103029718541223,nan
1740794355.4662569,-0.09314705293806333,0.1598628596819958,-0.3271632070412621,-0.16760756487951084,nan
1740794355.4701622,0.12369972365225222,-0.030044927541273567,-0.39153631175041814,0.01127667588319974,nan
1740794355.4740674,0.1734909109516117,-0.07170227896681415,-0.4141813746577148,0.13197405771120704,nan
1740794355.477983,0.028562458467828945,0.08630931811469791,-0.33615634587733284,-0.007884349326962263,nan
1740794355.4818883,-0.1496393363715757,0.21574123436873405,-0.2072692719191691,-0.2898488690212692,nan
1740794355.4857936,-0.1720188668767845,0.16639894072993616,-0.10195919348268231,-0.4049171598512823,nan
1740794355.489699,0.004785255233001974,0.06364619174780173,0.02692860247577465,-0.201177580112352,nan
1740794355.4936042,0.2528324922032439,0.08092348206368494,0.27888243065576224,0.15833514073876506,nan
1740794355.4975095,0.3863652955985381,0.1367808045715495,0.5819650589174181,0.3861854145035815,nan
1740794355.501415,0.2921792372840222,-0.01656329485415108,0.6660067453426624,0.3596334405552477,nan
1740794355.5053203,-0.008240268582878511,-0.39657162441413046,0.35592999962653843,0.18487187140387545,nan
1740794355.5092256,-0.36627825559658306,-0.6412621054231274,-0.16293380410373592,0.01929662797364243,nan
1740794355.513131,-0.5692021469828195,-0.38779351639541265,-0.4918359181712835,-0.0917451899318304,nan
1740794355.5170362,-0.4597685711790311,0.24356676922920398,-0.4450550041413158,-0.18502871418378336,nan
1740794355.5209415,-0.06658676647920651,0.6898705058264035,-0.22600066564519686,-0.2545070508710465,nan
1740794355.5248563,0.37252974793096444,0.5328642019798651,-0.12144048783368881,-0.23037261357813218,nan
1740794355.5287616,0.5676917929999806,-0.03255273698105537,-0.12206544910687547,-0.08514452704898451,nan
1740794355.532667,0.40996304349243434,-0.4095717625671894,0.007946970158311393,0.09574501348437003,nan
1740794355.5365722,0.05848647774498482,-0.25487599737029915,0.3028347312494759,0.18777617290563442,nan
1740794355.5404775,-0.21764630269719795,0.17681277235791734,0.4330912588983331,0.1540740958959619,nan
1740794355.5443828,-0.282628643321686,0.3691841635323453,0.11703590601012225,0.06606236301671252,nan
1740794355.548288,-0.20800752959002825,0.12916664588067475,-0.3982560000917925,0.005112948893716526,nan
1740794355.5521936,-0.12362708382547753,-0.2579221785036469,-0.49832922356297066,-0.017881902137571567,nan
1740794355.556099,-0.0524573680363623,-0.41572324464992255,0.06500944996831129,-0.03264915191062606,nan
1740794355.5600042,0.06503408848292856,-0.2831447904570191,0.7574675603337475,-0.037975071642583014,nan
1740794355.5639095,0.21374586098330692,-0.07541895355380798,0.7825753744757901,-0.004822199030290664,nan
1740794355.5678148,0.2549120779888459,0.05666576811437022,0.01366527175501532,0.05343914289892912,nan
1740794355.571728,0.08449662325257618,0.17827392446942658,-0.7886638440016202,0.06188319778441193,nan
1740794355.5756333,-0.1933668218934083,0.363067921786966,-0.8110261457800958,-0.03136929227605758,nan
1740794355.5795386,-0.3255427384175642,0.4714459255212382,-0.12280411809585658,-0.16788074490572905,nan
1740794355.5834439,-0.17237269886064738,0.27361771518483513,0.4191809320580794,-0.21507830172019918,nan
1740794355.5873492,0.12606460234168923,-0.2114547341545077,0.20624538173556892,-0.10260745235494372,nan
1740794355.5912545,0.2894914917069741,-0.6193729570545964,-0.39361032762313636,0.09630404219574695,nan
1740794355.5951598,0.19349225371552511,-0.5699497545329093,-0.504304211717283,0.23407457967958986,nan
1740794355.599065,-0.016767900234695546,-0.07387654623514986,0.16488830633392165,0.2277954665474138,nan
1740794355.6029704,-0.11611883339261471,0.450797147360989,0.9402471478772843,0.115710040059455,nan
1740794355.6068757,-0.05401819695533554,0.5771633757906078,0.9746771527634779,-0.00930760238702419,nan
1740794355.610781,0.02459162882880208,0.25011582586489073,0.22992386928802167,-0.08954622470701935,nan
1740794355.6146865,-0.010231557532478938,-0.2247324229024421,-0.5334639959002833,-0.11936087646785978,nan
1740794355.6186066,-0.11186119280942762,-0.5020553840242055,-0.6869025074857126,-0.10830697188924447,nan
1740794355.6225119,-0.13835886176729137,-0.4568657905464736,-0.39670362925184166,-0.06671870508219015,nan
1740794355.6264172,-0.04905329183741445,-0.17741690095744259,-0.24020219193789924,-0.024237501659154972,nan
1740794355.6303225,0.04878919073071802,0.18244597944621405,-0.36258549324739425,-0.02160731559914141,nan
1740794355.6342278,0.056143876797220924,0.4835227495773436,-0.31582749583366515,-0.05741283413364409,nan
1740794355.638133,0.02143815077939596,0.5967167959015015,0.22668966637043475,-0.06295497017746787,nan
1740794355.6420383,0.06849909434052215,0.43410809629121255,0.874299917088116,0.030685647609554667,nan
1740794355.6459439,0.2049549698549996,0.038466784237794954,0.9008603630257361,0.19203737642110108,nan
1740794355.6498492,0.2712815853065353,-0.3940729253645579,0.1702536517124113,0.28618335227033553,nan
1740794355.6537545,0.11820792800153905,-0.6365306257557859,-0.5932548228320678,0.2021940578117977,nan
1740794355.6576598,-0.19446094380809895,-0.5918802042465683,-0.603366966507656,-0.02028917500937577,nan
1740794355.661565,-0.4252806485234789,-0.3281836849332323,0.06508920192250903,-0.21578407592617854,nan
1740794355.6654847,-0.3862951860694152,0.019931560456424594,0.5653964070516776,-0.25227763905138484,nan
1740794355.66939,-0.12402103299758331,0.3406479657715128,0.28059965324105723,-0.15151465295814975,nan
1740794355.6732953,0.14480305077773106,0.541227056812611,-0.4772027288654959,-0.04235113497289247,nan
1740794355.6772006,0.2510338918914855,0.532372988691569,-0.8839795948958613,-0.011933375354232417,nan
1740794355.6811059,0.20249342528618583,0.29574281193323493,-0.567072803805432,-0.02646466168151036,nan
1740794355.6850111,0.11790534487907964,-0.036080252507519346,0.07001650489745724,0.0036689535245182318,nan
1740794355.6889164,0.0815516249141235,-0.24488381883342844,0.4624004122146585,0.10806561357093585,nan
1740794355.6928217,0.081712479495646,-0.2307103170665545,0.5490607234768397,0.2217758589371514,nan
1740794355.696727,0.05882620286007303,-0.12680580077887238,0.6344322420952776,0.2514224074743824,nan
1740794355.7006323,-0.025722476085172353,-0.14900751219355812,0.7426354221969462,0.15561613397562113,nan
1740794355.7045376,-0.16167712809378154,-0.3204528998673165,0.4600304396233449,-0.030737361400433105,nan
1740794355.708443,-0.28895261595855,-0.40661944157482355,-0.4320093772588189,-0.22032578926162996,nan
1740794355.712361,-0.3118843491332286,-0.1786233941908611,-1.3885686381404667,-0.31257235556385876,nan
1740794355.7162664,-0.15767997567898165,0.2814742359381093,-1.4893996104440947,-0.2448064305057143,nan
1740794355.7201717,0.13035595846227382,0.6104182774742863,-0.4653726843109215,-0.0488490205826244,nan
1740794355.724077,0.36786256969181663,0.5327933256201621,0.8702766334853441,0.142518043229156,nan
1740794355.7279823,0.36025910787506565,0.1616608055893188,1.3980854711445116,0.1890843658347422,nan
