timestamps,TP9,AF7,AF8,TP10,Right AUX
1740794595.46268,-27.34375,-35.15625,-36.62109375,-37.59765625,0.0
1740794595.4665856,-21.97265625,-41.50390625,-35.64453125,-35.64453125,0.0
1740794595.4704912,-35.64453125,-58.10546875,-30.2734375,-40.52734375,0.0
1740794595.474397,-41.015625,-51.26953125,-31.25,-34.1796875,0.0
1740794595.4783025,-23.92578125,-35.15625,-26.3671875,-27.34375,0.0
1740794595.4822083,-15.625,-33.203125,-28.3203125,-27.83203125,0.0
1740794595.4861138,-36.1328125,-33.69140625,-39.55078125,-32.71484375,0.0
1740794595.4900196,-46.38671875,-23.92578125,-27.83203125,-34.66796875,0.0
1740794595.493925,-39.55078125,-32.71484375,-21.484375,-25.390625,0.0
1740794595.4978306,-33.203125,-43.45703125,-34.66796875,-21.484375,0.0
1740794595.5017364,-33.203125,-28.3203125,-26.85546875,-27.83203125,0.0
1740794595.505642,-41.50390625,-36.1328125,-21.484375,-34.1796875,0.0
1740794595.5095532,-49.31640625,-40.52734375,-30.76171875,-31.25,0.0
1740794595.513459,-41.50390625,-31.73828125,-38.57421875,-24.4140625,0.0
1740794595.5173645,-29.78515625,-37.109375,-24.90234375,-12.20703125,0.0
1740794595.5212703,-38.0859375,-28.3203125,-16.11328125,-17.08984375,0.0
1740794595.5251758,-41.50390625,-26.3671875,-21.97265625,-30.76171875,0.0
1740794595.5290816,-28.80859375,-45.8984375,-21.97265625,-28.3203125,0.0
1740794595.532987,-30.2734375,-37.109375,-31.73828125,-34.1796875,0.0
1740794595.5368927,-44.43359375,-34.66796875,-31.73828125,-39.55078125,0.0
1740794595.5407984,-46.38671875,-48.828125,-10.7421875,-22.94921875,0.0
1740794595.544704,-38.57421875,-28.80859375,-15.13671875,-45.8984375,0.0
1740794595.5486097,-42.96875,-22.94921875,-30.2734375,-74.70703125,0.0
1740794595.5525153,-80.56640625,-29.296875,-28.3203125,-78.125,0.0
1740794595.5564258,-101.5625,-18.06640625,-35.64453125,-92.28515625,0.0
1740794595.5603313,-98.6328125,-15.13671875,-34.66796875,-107.91015625,0.0
1740794595.564237,-110.3515625,-21.97265625,-24.90234375,-126.46484375,0.0
1740794595.5681427,-125.48828125,-16.6015625,-24.4140625,-149.90234375,0.0
1740794595.5720484,-146.97265625,-3.41796875,-50.29296875,-174.31640625,0.0
1740794595.575954,-148.4375,0.48828125,-60.546875,-185.546875,0.0
1740794595.5798597,-153.3203125,-2.44140625,-57.12890625,-195.80078125,0.0
1740794595.5837653,-155.76171875,0.48828125,-71.2890625,-208.0078125,0.0
1740794595.5876708,-167.96875,1.46484375,-79.58984375,-217.28515625,0.0
1740794595.5915766,-183.10546875,7.32421875,-72.265625,-225.5859375,0.0
1740794595.595482,-173.828125,11.23046875,-75.68359375,-217.28515625,0.0
1740794595.599388,-154.296875,20.99609375,-85.44921875,-212.40234375,0.0
1740794595.6032977,-153.80859375,39.55078125,-90.33203125,-209.9609375,0.0
1740794595.6072035,-168.9453125,28.3203125,-94.7265625,-207.51953125,0.0
1740794595.611109,-150.390625,25.87890625,-95.703125,-201.171875,0.0
1740794595.6150148,-118.1640625,26.85546875,-94.7265625,-183.59375,0.0
1740794595.6189203,-101.5625,39.0625,-88.8671875,-156.25,0.0
1740794595.622826,-87.890625,30.76171875,-91.30859375,-124.0234375,0.0
1740794595.6267316,-69.82421875,24.4140625,-101.07421875,-108.88671875,0.0
1740794595.6306372,-48.828125,37.59765625,-98.6328125,-95.21484375,0.0
1740794595.634543,-32.2265625,44.921875,-101.5625,-77.1484375,0.0
1740794595.6384485,-24.90234375,34.66796875,-104.4921875,-61.5234375,0.0
1740794595.6423542,-7.8125,26.85546875,-96.6796875,-42.48046875,0.0
1740794595.6462598,18.5546875,36.62109375,-101.07421875,-23.92578125,0.0
1740794595.6501696,41.015625,39.55078125,-105.46875,-12.20703125,0.0
1740794595.6540751,57.12890625,23.4375,-96.6796875,4.8828125,0.0
1740794595.6579807,63.4765625,19.53125,-97.16796875,12.6953125,0.0
1740794595.6618865,77.1484375,23.4375,-102.5390625,21.484375,0.0
1740794595.665792,87.890625,12.6953125,-100.09765625,33.69140625,0.0
1740794595.6696978,83.984375,17.578125,-104.98046875,28.80859375,0.0
1740794595.6736033,96.6796875,14.6484375,-97.16796875,49.8046875,0.0
1740794595.677509,110.83984375,10.7421875,-94.23828125,83.0078125,0.0
1740794595.6814146,101.07421875,14.16015625,-93.75,72.265625,0.0
1740794595.6853201,85.44921875,6.34765625,-86.42578125,47.8515625,0.0
1740794595.689226,81.0546875,-6.8359375,-78.61328125,48.828125,0.0
1740794595.6931314,74.70703125,-5.37109375,-76.171875,42.48046875,0.0
1740794595.6970406,72.75390625,1.46484375,-76.171875,41.015625,0.0
1740794595.700946,83.984375,-7.8125,-62.01171875,50.29296875,0.0
1740794595.7048516,79.1015625,-6.8359375,-57.6171875,46.875,0.0
1740794595.7087574,63.4765625,-10.7421875,-58.10546875,39.0625,0.0
1740794595.712663,67.87109375,-29.78515625,-60.05859375,37.109375,0.0
1740794595.7165687,74.70703125,-22.94921875,-57.6171875,31.25,0.0
1740794595.7204742,64.453125,-24.4140625,-54.6875,30.2734375,0.0
1740794595.72438,47.8515625,-26.3671875,-60.546875,26.3671875,0.0
1740794595.7282856,36.62109375,-34.66796875,-68.359375,16.6015625,0.0
1740794595.732191,42.96875,-34.66796875,-64.94140625,10.7421875,0.0
1740794595.7360969,39.55078125,-23.92578125,-43.45703125,10.25390625,0.0
1740794595.7400024,13.671875,-25.390625,-45.41015625,-0.9765625,0.0
1740794595.7439108,12.20703125,-33.203125,-61.5234375,-4.8828125,0.0
1740794595.7478166,30.76171875,-40.52734375,-57.12890625,0.9765625,0.0
1740794595.751722,11.71875,-40.52734375,-44.43359375,-1.953125,0.0
1740794595.7556279,-10.25390625,-37.59765625,-38.0859375,-4.39453125,0.0
1740794595.7595334,1.46484375,-39.0625,-38.57421875,3.90625,0.0
1740794595.7634392,17.578125,-46.38671875,-39.55078125,5.859375,0.0
1740794595.7673447,23.4375,-37.109375,-41.9921875,4.39453125,0.0
1740794595.7712502,14.16015625,-28.3203125,-41.50390625,4.8828125,0.0
1740794595.775156,9.765625,-36.1328125,-37.59765625,5.37109375,0.0
1740794595.7790616,12.6953125,-33.69140625,-39.0625,1.953125,0.0
1740794595.7829673,12.20703125,-32.2265625,-46.875,-0.48828125,0.0
1740794595.7868729,1.953125,-35.64453125,-47.8515625,-2.44140625,0.0
1740794595.790785,-2.9296875,-36.1328125,-40.0390625,-3.90625,0.0
1740794595.7946906,6.8359375,-29.78515625,-42.96875,-1.46484375,0.0
1740794595.7985964,12.6953125,-37.59765625,-42.96875,-4.39453125,0.0
1740794595.802502,-2.44140625,-42.96875,-38.0859375,-8.7890625,0.0
1740794595.8064077,-11.23046875,-36.62109375,-39.0625,-1.46484375,0.0
1740794595.8103132,-1.46484375,-33.69140625,-40.0390625,1.46484375,0.0
1740794595.8142188,8.7890625,-33.69140625,-41.015625,-4.8828125,0.0
1740794595.8181245,2.9296875,-32.2265625,-35.15625,-3.90625,0.0
1740794595.82203,-11.71875,-21.484375,-21.484375,0.0,0.0
1740794595.8259358,2.9296875,-27.34375,-19.04296875,10.25390625,0.0
1740794595.8298414,8.30078125,-42.96875,-31.25,2.44140625,0.0
1740794595.8337471,-0.9765625,-33.69140625,-33.69140625,-9.27734375,0.0
1740794595.8376586,-6.8359375,-19.04296875,-32.71484375,-6.8359375,0.0
1740794595.8415642,-8.7890625,-28.3203125,-28.3203125,-9.27734375,0.0
1740794595.84547,-11.23046875,-31.25,-29.296875,-18.06640625,0.0
1740794595.8493755,-9.765625,-25.87890625,-34.1796875,-23.92578125,0.0
1740794595.8532813,-13.18359375,-30.76171875,-33.203125,-17.578125,0.0
1740794595.8571868,-21.97265625,-33.69140625,-37.59765625,-15.13671875,0.0
1740794595.8610923,-10.7421875,-27.34375,-33.203125,-13.671875,0.0
1740794595.864998,-7.32421875,-35.64453125,-27.34375,-12.20703125,0.0
1740794595.8689036,-25.87890625,-40.0390625,-31.73828125,-18.06640625,0.0
1740794595.8728094,-27.83203125,-29.78515625,-36.62109375,-32.2265625,0.0
1740794595.876715,-17.08984375,-32.71484375,-29.296875,-32.71484375,0.0
1740794595.8806207,-18.5546875,-43.45703125,-29.296875,-29.296875,0.0
1740794595.8845317,-38.0859375,-46.38671875,-34.1796875,-44.921875,0.0
1740794595.8884373,-55.6640625,-44.43359375,-36.1328125,-58.10546875,0.0
1740794595.8923428,-50.78125,-45.8984375,-37.59765625,-52.24609375,0.0
1740794595.8962486,-32.71484375,-40.0390625,-34.66796875,-45.8984375,0.0
1740794595.900154,-24.4140625,-39.55078125,-30.2734375,-41.50390625,0.0
1740794595.90406,-40.0390625,-47.8515625,-33.203125,-37.109375,0.0
1740794595.9079654,-50.29296875,-43.9453125,-41.015625,-41.50390625,0.0
1740794595.9118712,-41.9921875,-43.9453125,-34.66796875,-42.48046875,0.0
1740794595.9157767,-30.76171875,-48.33984375,-27.34375,-41.015625,0.0
1740794595.9196823,-30.76171875,-38.0859375,-29.296875,-45.8984375,0.0
1740794595.923588,-38.0859375,-40.0390625,-34.66796875,-56.15234375,0.0
1740794595.9274936,-49.31640625,-44.43359375,-41.50390625,-68.84765625,0.0
1740794595.931404,-41.9921875,-41.015625,-36.62109375,-70.3125,0.0
1740794595.93531,-43.9453125,-33.203125,-34.66796875,-56.15234375,0.0
1740794595.9392154,-52.24609375,-31.73828125,-32.71484375,-47.8515625,0.0
1740794595.943121,-52.24609375,-44.921875,-38.0859375,-42.48046875,0.0
1740794595.9470267,-47.36328125,-53.22265625,-42.48046875,-44.43359375,0.0
1740794595.9509323,-35.64453125,-50.78125,-30.76171875,-49.8046875,0.0
1740794595.954838,-44.43359375,-45.8984375,-31.25,-47.36328125,0.0
1740794595.9587436,-48.828125,-53.7109375,-33.69140625,-46.875,0.0
1740794595.9626493,-39.55078125,-53.22265625,-36.62109375,-53.22265625,0.0
1740794595.9665549,-33.69140625,-39.55078125,-41.9921875,-50.78125,0.0
1740794595.9704604,-40.52734375,-37.59765625,-33.69140625,-42.48046875,0.0
1740794595.9743662,-41.50390625,-49.31640625,-26.85546875,-30.76171875,0.0
1740794595.9782763,-30.76171875,-48.828125,-33.69140625,-32.2265625,0.0
1740794595.9821818,-25.87890625,-36.1328125,-33.203125,-34.66796875,0.0
1740794595.9860873,-31.25,-30.76171875,-29.78515625,-28.80859375,0.0
1740794595.989993,-47.36328125,-42.96875,-28.80859375,-27.34375,0.0
1740794595.9938986,-40.0390625,-38.57421875,-28.80859375,-26.85546875,0.0
1740794595.9978044,-17.578125,-26.3671875,-28.3203125,-30.2734375,0.0
1740794596.00171,-20.5078125,-35.64453125,-29.296875,-28.3203125,0.0
1740794596.0056157,-35.64453125,-41.015625,-33.203125,-29.78515625,0.0
1740794596.0095212,-28.80859375,-25.390625,-32.2265625,-33.69140625,0.0
1740794596.0134268,-15.625,-26.3671875,-24.90234375,-27.34375,0.0
1740794596.0173326,-23.92578125,-33.203125,-26.85546875,-28.3203125,0.0
1740794596.021238,-39.0625,-38.0859375,-37.109375,-29.78515625,0.0
1740794596.025148,-43.9453125,-39.0625,-43.9453125,-37.59765625,0.0
1740794596.0290534,-39.55078125,-33.69140625,-37.109375,-41.50390625,0.0
1740794596.0329592,-33.69140625,-32.2265625,-26.3671875,-33.69140625,0.0
1740794596.0368648,-34.66796875,-26.85546875,-22.94921875,-37.109375,0.0
1740794596.0407705,-50.78125,-36.1328125,-28.80859375,-54.6875,0.0
1740794596.044676,-42.96875,-36.62109375,-32.2265625,-57.6171875,0.0
1740794596.0485818,-31.25,-22.4609375,-32.71484375,-55.17578125,0.0
1740794596.0524874,-48.33984375,-24.90234375,-33.203125,-56.640625,0.0
1740794596.056393,-61.03515625,-27.83203125,-40.52734375,-60.546875,0.0
1740794596.0602987,-43.9453125,-29.78515625,-41.015625,-57.12890625,0.0
1740794596.0642042,-35.15625,-26.85546875,-37.59765625,-50.78125,0.0
1740794596.06811,-50.29296875,-25.87890625,-41.015625,-59.5703125,0.0
1740794596.072019,-55.17578125,-24.90234375,-41.015625,-64.453125,0.0
1740794596.0759246,-56.15234375,-30.76171875,-40.52734375,-54.19921875,0.0
1740794596.0798304,-50.78125,-40.0390625,-42.48046875,-51.7578125,0.0
1740794596.083736,-53.7109375,-41.9921875,-41.015625,-62.01171875,0.0
1740794596.0876417,-55.17578125,-41.015625,-40.0390625,-55.6640625,0.0
1740794596.0915473,-53.7109375,-36.1328125,-36.62109375,-41.9921875,0.0
1740794596.0954528,-47.36328125,-38.57421875,-35.15625,-29.78515625,0.0
1740794596.0993586,-41.015625,-36.1328125,-33.69140625,-34.66796875,0.0
1740794596.103264,-57.12890625,-29.78515625,-34.1796875,-40.52734375,0.0
1740794596.1071699,-73.73046875,-28.3203125,-33.69140625,-33.69140625,0.0
1740794596.1110754,-49.8046875,-34.1796875,-31.73828125,-29.78515625,0.0
1740794596.1149812,-28.3203125,-25.390625,-31.25,-34.1796875,0.0
1740794596.1188896,-38.57421875,-20.01953125,-29.296875,-23.4375,0.0
1740794596.122795,-57.6171875,-23.92578125,-37.109375,-33.203125,0.0
1740794596.1267009,-53.22265625,-22.4609375,-42.96875,-45.41015625,0.0
1740794596.1306064,-38.57421875,-30.76171875,-25.87890625,-30.2734375,0.0
1740794596.1345122,-39.55078125,-34.66796875,-18.06640625,-32.71484375,0.0
1740794596.1384177,-34.66796875,-32.2265625,-18.5546875,-39.0625,0.0
1740794596.1423233,-31.25,-26.85546875,-21.97265625,-33.203125,0.0
1740794596.146229,-27.34375,-25.390625,-24.4140625,-31.25,0.0
1740794596.1501346,-27.83203125,-27.34375,-18.5546875,-31.73828125,0.0
1740794596.1540403,-30.76171875,-28.80859375,-21.97265625,-33.203125,0.0
1740794596.1579459,-30.76171875,-27.34375,-22.4609375,-27.83203125,0.0
1740794596.1618516,-28.3203125,-28.3203125,-19.04296875,-33.203125,0.0
1740794596.1657636,-16.6015625,-33.69140625,-25.390625,-32.71484375,0.0
1740794596.1696694,-27.83203125,-32.71484375,-26.3671875,-25.87890625,0.0
1740794596.173575,-46.875,-34.1796875,-28.3203125,-25.390625,0.0
1740794596.1774805,-36.62109375,-32.2265625,-26.3671875,-26.85546875,0.0
1740794596.1813862,-22.94921875,-31.25,-23.4375,-31.25,0.0
1740794596.1852918,-17.08984375,-40.0390625,-28.80859375,-34.66796875,0.0
1740794596.1891975,-37.109375,-35.64453125,-31.25,-34.66796875,0.0
1740794596.193103,-29.78515625,-35.64453125,-28.3203125,-31.73828125,0.0
1740794596.1970088,-15.625,-30.76171875,-18.5546875,-36.1328125,0.0
1740794596.2009144,-36.62109375,-29.78515625,-22.4609375,-44.43359375,0.0
1740794596.20482,-42.48046875,-23.92578125,-28.3203125,-43.9453125,0.0
1740794596.2087257,-40.52734375,-29.78515625,-32.2265625,-43.45703125,0.0
1740794596.2126374,-35.64453125,-39.0625,-33.203125,-35.64453125,0.0
1740794596.216543,-31.73828125,-34.66796875,-37.109375,-36.62109375,0.0
1740794596.2204485,-43.45703125,-35.64453125,-34.1796875,-45.41015625,0.0
1740794596.2243543,-56.640625,-33.69140625,-33.203125,-46.38671875,0.0
1740794596.2282598,-47.36328125,-44.43359375,-38.0859375,-54.19921875,0.0
1740794596.2321656,-35.64453125,-45.8984375,-34.1796875,-55.17578125,0.0
1740794596.236071,-44.921875,-32.71484375,-38.0859375,-59.5703125,0.0
1740794596.239977,-54.19921875,-36.62109375,-31.73828125,-53.7109375,0.0
1740794596.2438824,-47.36328125,-46.875,-21.97265625,-37.109375,0.0
1740794596.247788,-41.50390625,-41.50390625,-22.4609375,-33.69140625,0.0
1740794596.2516937,-41.50390625,-38.57421875,-33.203125,-37.59765625,0.0
1740794596.2555993,-52.734375,-35.15625,-35.64453125,-38.0859375,0.0
1740794596.2595108,-55.6640625,-30.2734375,-31.25,-40.52734375,0.0
1740794596.2634163,-40.52734375,-31.73828125,-29.296875,-36.62109375,0.0
1740794596.2673218,-30.76171875,-24.90234375,-28.3203125,-38.0859375,0.0
1740794596.2712276,-33.69140625,-22.4609375,-26.85546875,-30.2734375,0.0
1740794596.2751331,-42.48046875,-30.76171875,-23.92578125,-33.203125,0.0
1740794596.279039,-39.55078125,-26.85546875,-31.25,-52.24609375,0.0
1740794596.2829444,-26.85546875,-14.6484375,-39.55078125,-44.921875,0.0
1740794596.2868502,-28.3203125,-17.578125,-36.1328125,-26.3671875,0.0
1740794596.2907557,-32.2265625,-33.203125,-37.109375,-24.90234375,0.0
1740794596.2946613,-29.296875,-16.6015625,-42.48046875,-31.25,0.0
1740794596.298567,-20.01953125,-16.11328125,-36.62109375,-28.3203125,0.0
1740794596.3024726,-27.34375,-33.69140625,-32.71484375,-27.83203125,0.0
1740794596.3063831,-47.36328125,-18.06640625,-41.9921875,-39.55078125,0.0
1740794596.310289,-42.48046875,-23.92578125,-35.64453125,-31.73828125,0.0
1740794596.3141944,-39.55078125,-14.16015625,-31.25,-35.64453125,0.0
1740794596.3181002,-47.36328125,-25.87890625,-27.34375,-43.45703125,0.0
1740794596.3220057,-29.78515625,-67.3828125,-15.13671875,-27.34375,0.0
1740794596.3259113,-42.48046875,-22.94921875,-32.2265625,-31.25,0.0
1740794596.329817,-59.5703125,-18.5546875,-24.4140625,-45.41015625,0.0
1740794596.3337226,-24.90234375,-71.77734375,-9.765625,-15.13671875,0.0
1740794596.3376284,-43.9453125,-27.34375,-20.5078125,-20.99609375,0.0
1740794596.341534,-79.58984375,-48.828125,-16.11328125,-34.1796875,0.0
1740794596.3454397,-58.10546875,-18.5546875,-26.3671875,-15.625,0.0
1740794596.3493452,-33.69140625,23.4375,-39.0625,-45.41015625,0.0
1740794596.3532553,-213.37890625,65.91796875,-15.13671875,-165.0390625,0.0
1740794596.3571608,-284.66796875,-31.25,22.94921875,-210.44921875,0.0
1740794596.3610663,-199.70703125,-25.87890625,14.16015625,-188.96484375,0.0
1740794596.364972,-127.44140625,-23.4375,-16.6015625,-117.67578125,0.0
1740794596.3688776,1.46484375,-109.86328125,0.48828125,-39.0625,0.0
1740794596.3727834,-173.828125,-43.45703125,68.84765625,-143.5546875,0.0
1740794596.376689,-183.10546875,-28.80859375,-34.66796875,-124.0234375,0.0
1740794596.3805947,27.34375,-88.8671875,-86.9140625,-5.859375,0.0
1740794596.3845003,-18.06640625,-72.75390625,-41.9921875,4.39453125,0.0
1740794596.388406,-41.50390625,-41.015625,-43.45703125,-19.53125,0.0
1740794596.3923116,-21.484375,24.90234375,-58.10546875,-35.64453125,0.0
1740794596.396217,0.9765625,21.484375,-16.6015625,-90.8203125,0.0
1740794596.4001267,-181.640625,-24.4140625,5.859375,-251.46484375,0.0
1740794596.4040325,-291.015625,-67.87109375,-42.96875,-197.75390625,0.0
1740794596.407938,-127.44140625,-125.48828125,-41.9921875,-114.74609375,0.0
1740794596.4118438,44.43359375,-58.10546875,-49.8046875,-22.4609375,0.0
1740794596.4157493,-26.85546875,33.203125,-71.2890625,44.43359375,0.0
1740794596.4196548,-87.40234375,-27.34375,-41.9921875,34.66796875,0.0
1740794596.4235606,25.390625,-75.1953125,-25.87890625,53.7109375,0.0
1740794596.4274662,-51.7578125,-138.18359375,-27.83203125,6.34765625,0.0
1740794596.431372,-58.10546875,-125.0,-15.13671875,82.51953125,0.0
1740794596.4352775,-57.12890625,17.08984375,-27.34375,15.13671875,0.0
1740794596.4391832,39.0625,14.16015625,-36.1328125,-114.74609375,0.0
1740794596.4430888,-9.765625,-22.4609375,1.46484375,96.19140625,0.0
1740794596.446998,14.6484375,-73.2421875,-20.01953125,169.921875,0.0
1740794596.4509034,139.16015625,-63.96484375,-64.453125,75.68359375,0.0
1740794596.4548092,24.4140625,-60.546875,-40.52734375,23.92578125,0.0
1740794596.4587147,61.03515625,-71.77734375,-38.0859375,147.94921875,0.0
1740794596.4626205,-3.90625,13.671875,-41.015625,81.54296875,0.0
1740794596.466526,-196.2890625,28.3203125,12.20703125,-79.58984375,0.0
1740794596.4704316,96.6796875,-123.53515625,-13.671875,-9.27734375,0.0
1740794596.4743373,103.02734375,-72.75390625,-79.1015625,94.7265625,0.0
1740794596.4782429,49.31640625,-10.7421875,-50.29296875,24.90234375,0.0
1740794596.4821486,0.0,-41.50390625,-4.8828125,-109.86328125,0.0
1740794596.4860542,66.40625,-42.96875,-65.91796875,172.8515625,0.0
1740794596.48996,126.46484375,-58.10546875,-36.62109375,183.10546875,0.0
1740794596.4938684,62.5,-61.5234375,-9.27734375,17.08984375,0.0
1740794596.497774,-64.453125,-24.4140625,-49.8046875,-18.06640625,0.0
1740794596.5016797,-109.86328125,52.24609375,-57.6171875,-91.796875,0.0
1740794596.5055852,24.90234375,-25.87890625,-45.41015625,-17.578125,0.0
1740794596.509491,104.98046875,-93.75,-59.5703125,170.8984375,0.0
1740794596.5133965,30.2734375,-83.0078125,-19.04296875,18.06640625,0.0
1740794596.517302,-56.640625,-46.38671875,-6.34765625,-99.12109375,0.0
1740794596.5212078,83.984375,-82.03125,7.32421875,60.05859375,0.0
1740794596.5251133,3.41796875,-6.34765625,-66.89453125,1.46484375,0.0
1740794596.529019,-20.99609375,4.39453125,-71.77734375,-67.3828125,0.0
1740794596.5329247,42.96875,-68.359375,-16.6015625,-25.87890625,0.0
1740794596.5368304,-19.53125,-61.5234375,-39.55078125,77.1484375,0.0
1740794596.5407426,-17.578125,-79.58984375,-22.94921875,0.48828125,0.0
1740794596.5446482,6.8359375,-38.0859375,-22.94921875,-75.68359375,0.0
1740794596.5485537,-10.7421875,-18.5546875,-58.59375,66.40625,0.0
1740794596.5524595,-46.875,-11.71875,-34.1796875,11.71875,0.0
1740794596.556365,-84.9609375,-1.953125,-30.2734375,-58.10546875,0.0
1740794596.5602708,-69.3359375,-76.66015625,-16.6015625,23.4375,0.0
1740794596.5641763,114.2578125,-75.1953125,-61.03515625,-38.0859375,0.0
1740794596.568082,45.8984375,-62.98828125,-30.2734375,-118.65234375,0.0
1740794596.5719876,-19.04296875,-36.62109375,-1.953125,29.78515625,0.0
1740794596.5758934,-10.25390625,9.765625,-21.97265625,21.484375,0.0
1740794596.579799,38.0859375,-23.4375,-56.640625,16.6015625,0.0
1740794596.5837045,62.98828125,-13.18359375,-68.84765625,26.3671875,0.0
1740794596.5876164,-65.91796875,-16.6015625,-43.9453125,-101.07421875,0.0
1740794596.591522,-169.921875,-77.63671875,-9.27734375,-98.6328125,0.0
1740794596.5954275,38.0859375,-101.5625,-19.53125,0.48828125,0.0
1740794596.5993333,60.546875,-61.03515625,-46.38671875,-30.76171875,0.0
1740794596.6032388,-22.94921875,-23.4375,-7.8125,21.484375,0.0
1740794596.6071446,18.5546875,-20.01953125,-32.2265625,94.23828125,0.0
1740794596.6110501,40.52734375,-44.43359375,-58.10546875,-8.30078125,0.0
1740794596.614956,-49.31640625,-21.97265625,-38.57421875,-85.44921875,0.0
1740794596.6188614,-107.421875,-27.34375,2.9296875,-93.75,0.0
1740794596.622767,-64.453125,-73.73046875,-24.90234375,17.578125,0.0
1740794596.6266727,-123.53515625,-29.78515625,-48.828125,-4.8828125,0.0
1740794596.6305783,-23.4375,-77.1484375,-3.41796875,-100.5859375,0.0
1740794596.6344895,69.82421875,-73.2421875,-37.109375,-42.96875,0.0
1740794596.6383953,-16.6015625,-19.53125,-41.015625,-33.203125,0.0
1740794596.6423008,-142.578125,24.90234375,-34.1796875,-60.546875,0.0
1740794596.6462066,-14.6484375,-21.97265625,-58.59375,-62.5,0.0
1740794596.6501122,20.99609375,-72.75390625,-1.46484375,-73.2421875,0.0
1740794596.6540177,-138.18359375,-13.18359375,16.11328125,-73.2421875,0.0
1740794596.6579235,-121.58203125,-15.13671875,-41.9921875,-26.85546875,0.0
1740794596.661829,-18.5546875,-65.4296875,-44.43359375,-32.71484375,0.0
1740794596.6657348,-33.69140625,-60.05859375,-44.921875,-43.9453125,0.0
1740794596.6696403,-103.515625,-14.16015625,-41.9921875,-16.11328125,0.0
1740794596.673546,-4.39453125,-8.7890625,-47.8515625,-48.33984375,0.0
1740794596.6774516,-15.13671875,-21.97265625,-51.7578125,-101.07421875,0.0
1740794596.6813622,-64.94140625,-64.453125,-14.16015625,2.9296875,0.0
1740794596.6852677,-3.41796875,-39.55078125,-22.94921875,-16.11328125,0.0
1740794596.6891735,2.9296875,-55.17578125,-33.69140625,16.11328125,0.0
1740794596.693079,-10.25390625,-48.828125,-40.0390625,3.41796875,0.0
1740794596.6969848,-13.18359375,-36.1328125,-58.59375,-56.640625,0.0
1740794596.7008903,-48.828125,29.78515625,-44.921875,-124.0234375,0.0
1740794596.7047958,-101.07421875,22.4609375,-28.3203125,-96.6796875,0.0
1740794596.7087016,-85.9375,-39.0625,-25.390625,-4.8828125,0.0
1740794596.7126071,-15.13671875,-54.19921875,-40.0390625,28.3203125,0.0
1740794596.716513,-51.7578125,-70.3125,-29.78515625,-22.4609375,0.0
1740794596.7204185,27.34375,-71.77734375,-0.9765625,-32.71484375,0.0
1740794596.7243242,-56.640625,-3.41796875,-48.828125,-101.07421875,0.0
1740794596.7282343,-145.99609375,18.06640625,-44.43359375,-83.0078125,0.0
1740794596.7321398,86.9140625,-65.4296875,-50.29296875,62.01171875,0.0
1740794596.7360456,93.26171875,-57.6171875,-40.0390625,-12.6953125,0.0
1740794596.7399511,-146.97265625,-3.90625,-43.45703125,-63.4765625,0.0
1740794596.7438567,-118.65234375,-30.76171875,-41.015625,-43.45703125,0.0
1740794596.7477624,-16.11328125,-70.80078125,-0.9765625,-78.125,0.0
1740794596.751668,-76.66015625,-42.48046875,-26.3671875,-71.77734375,0.0
1740794596.7555737,-61.5234375,-24.90234375,-30.76171875,-41.50390625,0.0
1740794596.7594793,30.76171875,-42.96875,-22.4609375,-6.8359375,0.0
1740794596.763385,-92.7734375,8.30078125,-39.0625,-169.43359375,0.0
1740794596.7672906,-35.64453125,-39.0625,-37.59765625,-86.42578125,0.0
1740794596.7711961,-93.26171875,-41.50390625,-41.9921875,-45.41015625,0.0
1740794596.775106,-101.5625,4.39453125,-31.25,-38.57421875,0.0
1740794596.7790115,21.484375,-14.16015625,-30.2734375,60.05859375,0.0
1740794596.7829173,-6.8359375,-58.59375,-42.96875,-62.5,0.0
1740794596.7868228,-10.25390625,-38.57421875,-18.5546875,-103.02734375,0.0
1740794596.7907283,-79.1015625,24.90234375,-46.875,-42.48046875,0.0
1740794596.794634,-82.03125,-46.875,-43.9453125,-10.7421875,0.0
1740794596.7985396,-56.640625,-60.05859375,-43.45703125,4.39453125,0.0
1740794596.8024454,-32.71484375,-28.3203125,-45.41015625,13.18359375,0.0
1740794596.806351,-65.4296875,11.23046875,-11.71875,-18.06640625,0.0
1740794596.8102567,-95.21484375,-5.859375,-18.5546875,-139.16015625,0.0
1740794596.8141623,-18.06640625,-21.97265625,-28.3203125,-91.796875,0.0
1740794596.818068,70.3125,-49.31640625,-33.203125,63.96484375,0.0
1740794596.8219771,-15.625,-64.94140625,-64.94140625,-34.66796875,0.0
1740794596.8258827,-21.97265625,-62.98828125,-52.734375,-111.81640625,0.0
1740794596.8297882,5.37109375,-43.9453125,-25.87890625,0.0,0.0
1740794596.833694,-56.15234375,-43.45703125,-17.08984375,50.78125,0.0
1740794596.8375995,-178.22265625,8.30078125,-13.671875,-98.6328125,0.0
1740794596.8415053,-216.796875,15.13671875,5.37109375,-189.453125,0.0
1740794596.8454108,-108.88671875,-80.078125,-28.3203125,-129.8828125,0.0
1740794596.8493166,33.203125,-46.875,-73.73046875,-22.4609375,0.0
1740794596.8532221,35.15625,-73.2421875,-22.4609375,4.8828125,0.0
1740794596.8571277,9.27734375,-46.38671875,-12.6953125,15.13671875,0.0
1740794596.8610334,75.1953125,50.78125,-54.19921875,0.48828125,0.0
1740794596.864939,-131.8359375,23.92578125,-15.625,-83.49609375,0.0
1740794596.8688517,-185.05859375,-62.5,-28.3203125,-90.33203125,0.0
1740794596.8727572,38.0859375,-86.42578125,-37.59765625,79.1015625,0.0
1740794596.876663,48.828125,-68.84765625,-46.38671875,47.8515625,0.0
1740794596.8805685,-213.8671875,-25.87890625,-6.8359375,-224.609375,0.0
1740794596.8844743,-128.90625,-7.32421875,3.41796875,-88.8671875,0.0
1740794596.8883798,245.60546875,-74.70703125,-69.3359375,105.46875,0.0
1740794596.8922853,27.34375,3.90625,-26.3671875,-11.71875,0.0
1740794596.8961911,-86.9140625,-16.11328125,-20.5078125,-65.4296875,0.0
1740794596.9000967,-22.94921875,-111.328125,-31.25,9.27734375,0.0
1740794596.9040024,6.34765625,-44.921875,-17.08984375,-5.859375,0.0
1740794596.907908,22.94921875,8.7890625,-50.29296875,-4.39453125,0.0
1740794596.9118137,-124.51171875,-60.05859375,-19.04296875,-97.65625,0.0
1740794596.9157262,-5.859375,-39.0625,-18.5546875,-132.8125,0.0
1740794596.9196317,44.921875,-35.15625,-47.36328125,6.34765625,0.0
1740794596.9235375,-99.609375,-4.39453125,11.71875,59.08203125,0.0
1740794596.927443,-82.03125,-5.37109375,-10.7421875,-35.15625,0.0
1740794596.9313488,65.4296875,-31.25,-40.52734375,108.88671875,0.0
1740794596.9352543,-60.546875,-11.23046875,-36.62109375,60.546875,0.0
1740794596.9391599,-270.5078125,-61.5234375,-50.29296875,-139.6484375,0.0
1740794596.9430656,-117.1875,-21.484375,-8.7890625,-40.52734375,0.0
1740794596.9469712,47.8515625,-24.90234375,-66.89453125,-191.89453125,0.0
1740794596.950877,104.98046875,-46.875,-50.78125,-106.93359375,0.0
1740794596.9547825,-20.01953125,-11.23046875,-14.6484375,100.5859375,0.0
1740794596.9586883,-141.6015625,-22.4609375,-51.7578125,-18.06640625,0.0
1740794596.9626,-43.45703125,-32.2265625,-49.8046875,-18.5546875,0.0
1740794596.9665055,-171.875,-41.9921875,-22.4609375,-27.34375,0.0
1740794596.970411,-47.8515625,-27.83203125,-49.8046875,-116.69921875,0.0
1740794596.9743168,11.71875,-44.43359375,-64.94140625,-126.953125,0.0
1740794596.9782224,-45.8984375,-70.80078125,-75.1953125,32.2265625,0.0
1740794596.9821281,0.48828125,13.671875,-52.734375,-40.52734375,0.0
1740794596.9860337,-3.90625,-18.06640625,2.9296875,-9.765625,0.0
1740794596.9899395,-36.1328125,-44.921875,-57.12890625,136.71875,0.0
1740794596.993845,-132.32421875,-68.84765625,-34.66796875,10.7421875,0.0
1740794596.9977505,44.43359375,-85.9375,-15.13671875,-29.78515625,0.0
1740794597.0016563,45.41015625,-3.41796875,-49.31640625,-61.03515625,0.0
1740794597.0055618,-150.87890625,-20.99609375,24.4140625,-225.5859375,0.0
1740794597.009473,-38.57421875,-32.71484375,-69.82421875,-114.74609375,0.0
1740794597.0133786,107.421875,-9.27734375,-84.9609375,166.50390625,0.0
1740794597.0172844,-72.265625,-15.625,-17.578125,-73.2421875,0.0
1740794597.02119,-141.11328125,-52.24609375,-13.671875,-167.48046875,0.0
1740794597.0250957,34.1796875,-42.48046875,-5.37109375,-44.43359375,0.0
1740794597.0290012,8.30078125,-38.0859375,-37.59765625,54.6875,0.0
1740794597.032907,-87.890625,2.44140625,-100.09765625,-41.50390625,0.0
1740794597.0368125,-116.2109375,-9.765625,-71.2890625,-218.26171875,0.0
1740794597.040718,30.2734375,-39.55078125,-11.23046875,82.51953125,0.0
1740794597.0446239,45.8984375,-2.44140625,0.0,155.76171875,0.0
1740794597.0485294,-97.16796875,-49.8046875,19.04296875,-9.765625,0.0
1740794597.0524352,-79.1015625,-69.3359375,-22.4609375,-51.26953125,0.0
1740794597.0563457,65.4296875,-26.3671875,-87.40234375,70.3125,0.0
1740794597.0602515,13.671875,-29.296875,-32.2265625,-1.46484375,0.0
1740794597.064157,-188.4765625,-4.39453125,-46.38671875,-174.31640625,0.0
1740794597.0680625,-91.30859375,2.9296875,-55.6640625,-16.6015625,0.0
1740794597.0719683,-17.578125,13.18359375,-3.90625,0.0,0.0
1740794597.0758739,46.875,-20.01953125,-26.3671875,17.578125,0.0
1740794597.0797796,121.58203125,-51.26953125,-75.1953125,2.9296875,0.0
1740794597.0836852,-90.33203125,-16.6015625,-53.7109375,-106.4453125,0.0
1740794597.087591,-113.28125,16.11328125,-45.8984375,-145.01953125,0.0
1740794597.0914965,41.015625,-65.91796875,-26.85546875,27.34375,0.0
1740794597.0954022,49.31640625,-41.9921875,-39.0625,-25.87890625,0.0
1740794597.0993078,-53.22265625,66.89453125,-23.92578125,-161.62109375,0.0
1740794597.1032178,-164.55078125,10.25390625,-16.6015625,-35.15625,0.0
1740794597.1071236,-27.83203125,-112.79296875,-26.85546875,-24.4140625,0.0
1740794597.1110291,32.71484375,-61.03515625,-31.73828125,-116.69921875,0.0
1740794597.114935,1.953125,-15.13671875,-69.82421875,28.80859375,0.0
1740794597.1188405,-4.8828125,-47.8515625,-33.69140625,-21.484375,0.0
1740794597.1227462,-121.58203125,10.7421875,-41.50390625,-134.27734375,0.0
1740794597.1266518,-44.43359375,0.9765625,-95.21484375,41.50390625,0.0
1740794597.1305573,-21.97265625,-66.89453125,-58.10546875,-59.5703125,0.0
1740794597.134463,-45.8984375,-61.5234375,-38.0859375,-70.80078125,0.0
1740794597.1383686,11.23046875,-38.0859375,-51.26953125,57.12890625,0.0
1740794597.1422744,-4.39453125,-52.734375,-38.0859375,46.38671875,0.0
1740794597.14618,-9.27734375,1.46484375,-39.55078125,-82.03125,0.0
1740794597.1500897,-20.99609375,13.671875,-48.33984375,-80.56640625,0.0
1740794597.1539953,41.015625,-57.12890625,-13.671875,18.5546875,0.0
1740794597.157901,-152.34375,-15.13671875,-5.859375,-165.52734375,0.0
1740794597.1618066,-248.046875,-15.625,-46.875,-138.18359375,0.0
1740794597.165712,36.62109375,-22.94921875,-71.2890625,69.3359375,0.0
1740794597.169618,-23.92578125,-25.87890625,-47.36328125,56.640625,0.0
1740794597.1735234,-197.75390625,-21.484375,-21.484375,-54.19921875,0.0
1740794597.1774292,51.26953125,-14.16015625,-7.8125,-78.61328125,0.0
1740794597.1813347,196.77734375,-79.1015625,-13.18359375,91.796875,0.0
1740794597.1852405,6.8359375,-18.5546875,-17.08984375,10.25390625,0.0
1740794597.189146,-190.91796875,-6.34765625,-61.03515625,-125.0,0.0
1740794597.1930516,-77.1484375,-82.51953125,-17.08984375,-28.80859375,0.0
1740794597.196961,20.5078125,-9.765625,-9.765625,48.33984375,0.0
1740794597.2008665,-92.7734375,38.57421875,-44.43359375,-18.5546875,0.0
1740794597.2047722,-6.8359375,-62.5,-6.8359375,-65.91796875,0.0
1740794597.2086778,48.828125,-52.734375,-17.08984375,-34.66796875,0.0
1740794597.2125835,-57.6171875,-5.859375,-37.109375,-32.71484375,0.0
1740794597.216489,-101.07421875,7.8125,-20.99609375,-83.0078125,0.0
1740794597.2203948,-78.61328125,-30.76171875,-35.64453125,1.46484375,0.0
1740794597.2243004,-59.5703125,-94.23828125,6.34765625,23.92578125,0.0
1740794597.228206,-125.9765625,5.37109375,-49.8046875,9.765625,0.0
1740794597.2321117,-31.25,19.04296875,-43.9453125,-16.6015625,0.0
1740794597.2360172,27.83203125,-46.875,4.8828125,-59.5703125,0.0
1740794597.239923,-52.734375,-3.90625,-44.43359375,-96.6796875,0.0
1740794597.2438314,-63.4765625,-54.19921875,-62.5,-77.63671875,0.0
1740794597.247737,-85.44921875,-85.9375,-79.58984375,14.6484375,0.0
1740794597.2516427,-49.31640625,-22.4609375,-35.64453125,-87.40234375,0.0
1740794597.2555482,-10.25390625,-31.25,-30.2734375,-59.08203125,0.0
1740794597.259454,-62.01171875,8.30078125,-59.5703125,36.62109375,0.0
1740794597.2633595,-82.51953125,-8.7890625,-34.1796875,-143.06640625,0.0
1740794597.2672653,40.0390625,-69.3359375,-77.1484375,-217.7734375,0.0
1740794597.2711709,12.6953125,-79.1015625,-34.66796875,75.1953125,0.0
1740794597.2750764,-90.8203125,-70.80078125,-17.578125,98.6328125,0.0
1740794597.2789822,-135.7421875,28.80859375,-59.08203125,-86.42578125,0.0
1740794597.2828877,9.27734375,-24.4140625,-30.76171875,18.06640625,0.0
1740794597.2867935,82.51953125,-97.65625,-17.08984375,37.109375,0.0
1740794597.2907057,-37.59765625,-54.19921875,-31.25,-106.93359375,0.0
1740794597.2946112,-141.11328125,-48.828125,-62.01171875,-1.46484375,0.0
1740794597.298517,24.4140625,-69.3359375,-41.50390625,192.87109375,0.0
1740794597.3024225,80.078125,2.44140625,-25.390625,80.078125,0.0
1740794597.306328,39.0625,-23.4375,-68.359375,-60.05859375,0.0
1740794597.3102338,33.69140625,-46.875,-47.36328125,-59.08203125,0.0
1740794597.3141394,17.08984375,-33.69140625,-7.32421875,-7.8125,0.0
1740794597.3180451,47.8515625,-40.0390625,-36.1328125,-61.03515625,0.0
1740794597.3219507,23.92578125,-60.05859375,-48.828125,-13.18359375,0.0
1740794597.3258564,-32.71484375,-55.17578125,-42.48046875,14.16015625,0.0
1740794597.329762,-24.4140625,-22.94921875,-50.78125,-101.07421875,0.0
1740794597.3336678,-27.34375,-33.203125,-31.73828125,-15.625,0.0
1740794597.3375797,0.0,-45.8984375,-23.4375,40.0390625,0.0
1740794597.3414853,0.0,-1.46484375,-28.80859375,-28.80859375,0.0
1740794597.3453908,0.0,-60.05859375,-25.87890625,-20.5078125,0.0
1740794597.3492966,0.0,-97.65625,-41.015625,48.828125,0.0
1740794597.353202,0.0,-57.6171875,-42.96875,52.24609375,0.0
1740794597.3571079,0.0,-30.2734375,-42.48046875,-2.44140625,0.0
1740794597.3610134,0.0,-36.62109375,-24.90234375,-42.48046875,0.0
1740794597.3649192,0.0,-28.3203125,-42.96875,1.953125,0.0
1740794597.3688247,0.0,-29.78515625,-40.52734375,23.92578125,0.0
1740794597.3727303,0.0,-36.1328125,-28.80859375,13.18359375,0.0
1740794597.376636,0.0,-38.0859375,-33.69140625,-0.9765625,0.0
1740794597.3805416,0.0,-20.5078125,-31.73828125,-15.13671875,0.0
1740794597.3844414,-7.8125,-6.8359375,-45.41015625,-11.71875,0.0
1740794597.3883471,7.8125,-30.76171875,-49.31640625,-26.85546875,0.0
1740794597.3922527,20.5078125,-27.83203125,-48.828125,-24.90234375,0.0
1740794597.3961585,24.90234375,-38.57421875,-33.203125,-11.23046875,0.0
1740794597.400064,0.0,-41.9921875,-38.57421875,-22.94921875,0.0
1740794597.4039698,5.859375,-25.87890625,-48.828125,-15.625,0.0
1740794597.4078753,-3.41796875,-22.94921875,-41.50390625,-16.11328125,0.0
1740794597.411781,1.46484375,-31.73828125,-43.9453125,-41.50390625,0.0
1740794597.4156866,6.8359375,-44.43359375,-48.828125,-45.8984375,0.0
1740794597.4195921,5.37109375,-37.59765625,-41.50390625,-61.5234375,0.0
1740794597.423498,1.46484375,-35.64453125,-40.0390625,-75.1953125,0.0
1740794597.4274035,3.90625,-38.0859375,-38.0859375,-65.91796875,0.0
1740794597.431314,-53.22265625,-40.0390625,-36.62109375,-68.359375,0.0
1740794597.4352198,-62.5,-43.45703125,-40.0390625,-73.73046875,0.0
1740794597.4391253,-74.21875,-41.50390625,-41.50390625,-75.68359375,0.0
1740794597.443031,-75.68359375,-36.62109375,-41.9921875,-72.75390625,0.0
1740794597.4469366,-66.40625,-35.15625,-42.96875,-63.96484375,0.0
1740794597.4508421,-66.89453125,-41.015625,-38.0859375,-63.4765625,0.0
1740794597.454748,-82.03125,-39.0625,-30.2734375,-66.89453125,0.0
1740794597.4586535,-80.078125,-46.875,-35.15625,-68.84765625,0.0
1740794597.4625592,-62.01171875,-46.875,-31.73828125,-61.03515625,0.0
1740794597.4664648,-55.6640625,-32.2265625,-24.4140625,-67.3828125,0.0
1740794597.4703705,-71.77734375,-29.296875,-26.3671875,-64.94140625,0.0
1740794597.474276,-80.56640625,-36.1328125,-23.92578125,-55.17578125,0.0
1740794597.4781861,-64.94140625,-35.64453125,-25.390625,-55.6640625,0.0
1740794597.4820917,-54.19921875,-33.69140625,-29.296875,-57.6171875,0.0
1740794597.4859974,-69.3359375,-39.55078125,-32.71484375,-68.359375,0.0
1740794597.489903,-76.171875,-34.1796875,-31.25,-70.3125,0.0
1740794597.4938087,-64.94140625,-30.76171875,-33.69140625,-59.5703125,0.0
1740794597.4977143,-53.22265625,-30.76171875,-44.43359375,-55.6640625,0.0
1740794597.5016198,-54.6875,-29.296875,-39.0625,-59.08203125,0.0
1740794597.5055256,-63.4765625,-35.15625,-28.80859375,-53.7109375,0.0
1740794597.5094311,-55.17578125,-29.296875,-26.3671875,-47.8515625,0.0
1740794597.513337,-38.57421875,-23.92578125,-27.34375,-50.29296875,0.0
1740794597.5172424,-29.78515625,-20.99609375,-25.87890625,-55.17578125,0.0
1740794597.5211482,-38.0859375,-17.578125,-23.92578125,-53.7109375,0.0
1740794597.5250578,-44.921875,-12.20703125,-26.85546875,-49.31640625,0.0
1740794597.5289633,-28.80859375,-5.37109375,-34.66796875,-52.24609375,0.0
1740794597.532869,-18.5546875,-9.27734375,-24.90234375,-56.640625,0.0
1740794597.5367746,-29.78515625,-7.8125,-23.4375,-55.6640625,0.0
1740794597.5406804,-47.8515625,-12.6953125,-36.1328125,-50.29296875,0.0
1740794597.544586,-37.109375,-13.18359375,-30.2734375,-52.24609375,0.0
1740794597.5484917,-24.90234375,-12.20703125,-23.4375,-59.08203125,0.0
1740794597.5523973,-44.921875,-20.5078125,-24.90234375,-57.12890625,0.0
1740794597.556303,-67.87109375,-8.30078125,-23.4375,-62.5,0.0
1740794597.5602086,-58.59375,-6.8359375,-27.83203125,-68.359375,0.0
1740794597.564114,-45.41015625,-15.625,-29.78515625,-64.453125,0.0
1740794597.5680199,-61.03515625,-20.01953125,-27.83203125,-75.68359375,0.0
1740794597.5719333,-74.70703125,-20.01953125,-25.390625,-79.1015625,0.0
1740794597.5758388,-78.61328125,-19.53125,-20.99609375,-72.265625,0.0
1740794597.5797446,-73.2421875,-28.3203125,-28.3203125,-71.2890625,0.0
1740794597.58365,-74.21875,-37.109375,-33.203125,-76.171875,0.0
1740794597.587556,-77.1484375,-35.15625,-33.69140625,-81.54296875,0.0
1740794597.5914614,-81.54296875,-31.25,-39.0625,-85.44921875,0.0
1740794597.595367,-79.1015625,-46.38671875,-40.52734375,-82.51953125,0.0
1740794597.5992727,-80.078125,-44.43359375,-36.62109375,-87.40234375,0.0
1740794597.6031783,-89.84375,-27.83203125,-25.390625,-83.0078125,0.0
1740794597.607084,-90.8203125,-30.76171875,-21.97265625,-78.61328125,0.0
1740794597.6109896,-83.0078125,-38.57421875,-31.25,-82.51953125,0.0
1740794597.6148953,-83.0078125,-44.43359375,-38.0859375,-87.890625,0.0
1740794597.6188037,-91.30859375,-47.8515625,-40.0390625,-87.40234375,0.0
1740794597.6227095,-77.1484375,-49.31640625,-35.64453125,-71.77734375,0.0
1740794597.626615,-63.96484375,-45.8984375,-28.80859375,-68.359375,0.0
1740794597.6305206,-58.10546875,-33.69140625,-35.15625,-66.40625,0.0
1740794597.6344264,-46.38671875,-39.0625,-33.203125,-47.36328125,0.0
1740794597.638332,-53.7109375,-33.203125,-22.4609375,-43.45703125,0.0
1740794597.6422377,-53.7109375,-28.80859375,-25.87890625,-46.875,0.0
1740794597.6461432,-39.0625,-31.25,-34.1796875,-40.0390625,0.0
1740794597.650049,-39.0625,-27.83203125,-23.92578125,-36.1328125,0.0
1740794597.6539545,-43.45703125,-25.390625,-18.06640625,-35.64453125,0.0
1740794597.6578603,-43.45703125,-25.390625,-22.4609375,-30.76171875,0.0
1740794597.6617658,-37.109375,-26.3671875,-24.90234375,-33.69140625,0.0
1740794597.6656778,-32.71484375,-29.296875,-29.78515625,-37.109375,0.0
1740794597.6695836,-50.78125,-33.69140625,-32.71484375,-38.0859375,0.0
1740794597.673489,-54.19921875,-33.69140625,-33.69140625,-33.203125,0.0
1740794597.6773949,-39.55078125,-31.25,-38.57421875,-27.83203125,0.0
1740794597.6813004,-29.78515625,-31.73828125,-38.0859375,-26.3671875,0.0
1740794597.6852062,-28.3203125,-38.0859375,-36.1328125,-25.87890625,0.0
1740794597.6891117,-42.48046875,-33.69140625,-39.55078125,-30.76171875,0.0
1740794597.6930172,-36.62109375,-27.34375,-41.50390625,-26.3671875,0.0
1740794597.696923,-19.04296875,-19.53125,-32.2265625,-23.4375,0.0
1740794597.7008286,-26.85546875,-23.4375,-28.80859375,-27.83203125,0.0
1740794597.7047343,-44.43359375,-25.87890625,-28.3203125,-33.203125,0.0
1740794597.7086399,-42.48046875,-16.6015625,-22.4609375,-35.64453125,0.0
1740794597.7125516,-29.78515625,-17.08984375,-18.06640625,-39.55078125,0.0
1740794597.7164571,-20.99609375,-25.390625,-29.78515625,-42.48046875,0.0
1740794597.720363,-41.50390625,-29.78515625,-39.55078125,-47.36328125,0.0
1740794597.7242684,-59.08203125,-29.296875,-24.4140625,-55.17578125,0.0
1740794597.7281742,-41.015625,-30.2734375,-20.99609375,-60.546875,0.0
1740794597.7320797,-37.109375,-35.15625,-30.2734375,-60.546875,0.0
1740794597.7359853,-55.6640625,-41.015625,-32.71484375,-59.5703125,0.0
1740794597.739891,-61.5234375,-39.0625,-32.2265625,-62.5,0.0
1740794597.7437966,-55.17578125,-43.45703125,-33.69140625,-66.89453125,0.0
1740794597.7477024,-58.10546875,-41.015625,-36.1328125,-64.453125,0.0
1740794597.751608,-69.82421875,-39.0625,-35.15625,-69.82421875,0.0
1740794597.7555137,-80.56640625,-41.9921875,-37.109375,-78.125,0.0
1740794597.7594247,-80.078125,-46.38671875,-36.1328125,-72.265625,0.0
1740794597.7633302,-67.87109375,-47.36328125,-42.96875,-70.3125,0.0
1740794597.767236,-63.4765625,-45.41015625,-47.8515625,-67.3828125,0.0
1740794597.7711415,-78.125,-47.36328125,-40.52734375,-72.75390625,0.0
1740794597.7750473,-83.984375,-51.26953125,-36.1328125,-71.77734375,0.0
1740794597.7789528,-60.05859375,-45.41015625,-28.3203125,-63.96484375,0.0
1740794597.7828586,-62.01171875,-36.62109375,-35.64453125,-68.84765625,0.0
1740794597.7867641,-71.77734375,-41.50390625,-48.828125,-68.359375,0.0
1740794597.79067,-60.05859375,-46.38671875,-31.25,-50.29296875,0.0
1740794597.7945755,-47.36328125,-45.41015625,-31.25,-40.52734375,0.0
1740794597.798481,-32.2265625,-40.0390625,-31.73828125,-39.55078125,0.0
1740794597.8023868,-45.8984375,-43.9453125,-27.83203125,-43.9453125,0.0
1740794597.8062973,-58.10546875,-43.45703125,-29.296875,-40.52734375,0.0
1740794597.8102028,-46.875,-39.0625,-30.2734375,-33.203125,0.0
1740794597.8141086,-38.57421875,-47.36328125,-39.55078125,-37.59765625,0.0
1740794597.8180141,-37.59765625,-50.78125,-41.9921875,-37.109375,0.0
1740794597.82192,-44.43359375,-33.203125,-37.59765625,-37.59765625,0.0
1740794597.8258255,-44.43359375,-37.59765625,-35.15625,-31.25,0.0
1740794597.8297312,-28.3203125,-43.45703125,-30.76171875,-24.4140625,0.0
1740794597.8336368,-28.3203125,-33.69140625,-35.64453125,-28.80859375,0.0
1740794597.8375423,-36.1328125,-31.25,-41.9921875,-27.34375,0.0
1740794597.841448,-32.2265625,-25.87890625,-40.52734375,-26.85546875,0.0
1740794597.8453536,-28.80859375,-25.390625,-43.45703125,-26.3671875,0.0
1740794597.8492594,-29.296875,-29.78515625,-38.57421875,-32.71484375,0.0
1740794597.8531694,-41.015625,-30.2734375,-32.2265625,-40.0390625,0.0
1740794597.8570752,-44.921875,-28.80859375,-33.69140625,-36.1328125,0.0
1740794597.8609807,-30.2734375,-35.15625,-35.64453125,-42.48046875,0.0
1740794597.8648863,-33.203125,-41.50390625,-33.203125,-44.921875,0.0
1740794597.868792,-39.55078125,-40.0390625,-26.85546875,-38.57421875,0.0
1740794597.8726976,-49.31640625,-43.9453125,-32.2265625,-47.36328125,0.0
1740794597.8766034,-49.8046875,-47.36328125,-31.73828125,-50.29296875,0.0
1740794597.880509,-38.0859375,-51.26953125,-33.203125,-41.015625,0.0
1740794597.8844147,-50.29296875,-51.7578125,-43.45703125,-45.8984375,0.0
1740794597.8883202,-62.5,-50.78125,-37.59765625,-46.38671875,0.0
1740794597.892226,-62.5,-39.55078125,-35.64453125,-39.55078125,0.0
1740794597.8961315,-54.6875,-35.64453125,-30.2734375,-46.38671875,0.0
1740794597.9000413,0.0,-34.1796875,-22.94921875,-54.6875,0.0
1740794597.903947,0.0,-38.0859375,-35.64453125,-54.19921875,0.0
1740794597.9078526,0.0,-43.9453125,-41.9921875,-61.03515625,0.0
1740794597.9117584,0.0,-42.96875,-41.015625,-66.40625,0.0
1740794597.915664,0.0,-43.45703125,-37.59765625,-60.546875,0.0
1740794597.9195697,0.0,-47.8515625,-30.76171875,-62.01171875,0.0
1740794597.9234753,0.0,-47.36328125,-39.55078125,-58.59375,0.0
1740794597.9273808,0.0,-42.48046875,-41.9921875,-52.24609375,0.0
1740794597.9312866,0.0,-35.15625,-44.921875,-50.29296875,0.0
1740794597.935192,0.0,-40.52734375,-39.0625,-47.8515625,0.0
1740794597.939098,0.0,-45.8984375,-29.296875,-38.0859375,0.0
1740794597.9430034,0.0,-32.2265625,-31.73828125,-31.73828125,0.0
1740794597.9469128,-37.59765625,-25.87890625,-35.15625,-40.0390625,0.0
1740794597.9508183,-37.59765625,-35.15625,-33.203125,-37.109375,0.0
1740794597.954724,-39.55078125,-36.1328125,-38.57421875,-23.92578125,0.0
1740794597.9586296,-40.0390625,-34.1796875,-48.828125,-29.296875,0.0
1740794597.9625354,-23.92578125,-32.71484375,-41.9921875,-35.64453125,0.0
1740794597.966441,-18.06640625,-35.15625,-36.1328125,-24.4140625,0.0
