timestamps,TP9,AF7,AF8,TP10,Right AUX
1740790108.0773304,-13.18359375,-33.69140625,-35.15625,-49.8046875,0.0
1740790108.0812364,-12.6953125,-42.48046875,-40.52734375,-48.828125,0.0
1740790108.0851424,-14.6484375,-43.9453125,-38.57421875,-46.38671875,0.0
1740790108.0890484,-13.671875,-34.66796875,-34.1796875,-40.52734375,0.0
1740790108.0929542,-14.6484375,-41.9921875,-36.1328125,-33.203125,0.0
1740790108.0968602,-14.6484375,-48.828125,-40.52734375,-27.34375,0.0
1740790108.1007662,-15.625,-38.57421875,-41.015625,-40.0390625,0.0
1740790108.1046722,-17.08984375,-36.62109375,-41.50390625,-52.24609375,0.0
1740790108.108578,-20.5078125,-52.24609375,-45.8984375,-52.24609375,0.0
1740790108.112484,-21.484375,-51.7578125,-47.8515625,-51.7578125,0.0
1740790108.11639,-18.06640625,-30.76171875,-33.69140625,-46.875,0.0
1740790108.120296,-26.3671875,-37.59765625,-27.34375,-41.015625,0.0
1740790108.1242027,-30.76171875,-51.7578125,-35.15625,-34.66796875,0.0
1740790108.1281087,-21.484375,-49.8046875,-32.2265625,-34.66796875,0.0
1740790108.1320148,-15.625,-38.0859375,-27.83203125,-32.2265625,0.0
1740790108.1359208,-18.5546875,-39.55078125,-30.2734375,-33.203125,0.0
1740790108.1398265,-19.04296875,-47.36328125,-32.71484375,-29.296875,0.0
1740790108.1437325,-15.625,-48.33984375,-39.55078125,-33.203125,0.0
1740790108.1476386,-18.06640625,-44.43359375,-45.41015625,-43.45703125,0.0
1740790108.1515446,-19.04296875,-41.9921875,-41.50390625,-36.1328125,0.0
1740790108.1554503,-16.6015625,-52.734375,-45.41015625,-32.2265625,0.0
1740790108.1593564,-18.5546875,-44.43359375,-41.015625,-35.15625,0.0
1740790108.1632624,-17.578125,-32.71484375,-35.15625,-36.1328125,0.0
1740790108.1671684,-9.27734375,-34.66796875,-37.109375,-34.1796875,0.0
1740790108.171075,-5.37109375,-31.73828125,-32.71484375,-38.0859375,0.0
1740790108.1749809,-16.11328125,-39.0625,-39.55078125,-44.921875,0.0
1740790108.178887,-20.5078125,-45.41015625,-42.48046875,-41.50390625,0.0
1740790108.182793,-20.99609375,-46.38671875,-40.0390625,-41.015625,0.0
1740790108.1866987,-20.99609375,-45.41015625,-38.0859375,-40.52734375,0.0
1740790108.1906047,-18.06640625,-41.50390625,-37.59765625,-39.0625,0.0
1740790108.1945107,-20.5078125,-35.15625,-35.64453125,-41.015625,0.0
1740790108.1984167,-17.08984375,-45.41015625,-34.66796875,-38.57421875,0.0
1740790108.2023225,-20.01953125,-50.78125,-38.57421875,-29.78515625,0.0
1740790108.2062285,-20.5078125,-28.80859375,-31.73828125,-32.2265625,0.0
1740790108.2101345,-15.625,-31.25,-31.25,-38.57421875,0.0
1740790108.2140405,-11.71875,-36.62109375,-33.69140625,-30.76171875,0.0
1740790108.217947,0.0,-28.80859375,-30.2734375,-25.390625,0.0
1740790108.221853,0.0,-28.3203125,-33.69140625,-30.76171875,0.0
1740790108.225759,0.0,-27.34375,-33.69140625,-27.83203125,0.0
1740790108.229665,0.0,-30.76171875,-29.78515625,-25.87890625,0.0
1740790108.2335708,0.0,-35.15625,-31.25,-30.76171875,0.0
1740790108.2374768,0.0,-33.203125,-32.2265625,-31.25,0.0
1740790108.2413828,0.0,-28.80859375,-32.71484375,-37.59765625,0.0
1740790108.2452888,0.0,-39.0625,-37.59765625,-41.015625,0.0
1740790108.2491946,0.0,-34.66796875,-34.66796875,-37.59765625,0.0
1740790108.2531006,0.0,-12.6953125,-23.4375,-38.0859375,0.0
1740790108.2570066,0.0,-18.5546875,-29.78515625,-40.0390625,0.0
1740790108.2609127,0.0,-27.34375,-34.1796875,-44.43359375,0.0
1740790108.264819,-8.30078125,-23.92578125,-29.78515625,-41.015625,0.0
1740790108.268725,-3.90625,-27.34375,-31.73828125,-33.203125,0.0
1740790108.272631,0.9765625,-31.73828125,-29.78515625,-27.83203125,0.0
1740790108.276537,0.9765625,-28.3203125,-25.87890625,-28.3203125,0.0
1740790108.2804427,-5.37109375,-29.78515625,-29.296875,-28.80859375,0.0
1740790108.2843487,-4.8828125,-26.85546875,-33.203125,-21.484375,0.0
1740790108.2882547,0.9765625,-23.92578125,-34.1796875,-17.08984375,0.0
1740790108.2921607,-2.44140625,-31.25,-37.109375,-23.92578125,0.0
1740790108.2960665,-11.23046875,-27.83203125,-26.3671875,-31.73828125,0.0
1740790108.2999725,-8.7890625,-28.3203125,-19.53125,-31.73828125,0.0
1740790108.3038785,-5.859375,-39.0625,-29.296875,-29.78515625,0.0
1740790108.3077846,-9.27734375,-34.1796875,-32.2265625,-24.90234375,0.0
1740790108.3116906,-5.37109375,-25.390625,-24.90234375,-17.578125,0.0
1740790108.3155966,-10.25390625,-27.34375,-30.2734375,-20.01953125,0.0
1740790108.3195026,-18.06640625,-38.0859375,-39.55078125,-24.4140625,0.0
1740790108.3234086,-13.671875,-40.0390625,-36.62109375,-32.2265625,0.0
1740790108.3273144,-16.11328125,-36.62109375,-37.109375,-40.52734375,0.0
1740790108.3312204,-10.7421875,-32.71484375,-37.59765625,-38.57421875,0.0
1740790108.3351264,-6.8359375,-37.59765625,-34.66796875,-29.78515625,0.0
1740790108.3390324,-13.18359375,-36.62109375,-33.203125,-32.2265625,0.0
1740790108.3429382,-14.16015625,-24.90234375,-30.76171875,-42.96875,0.0
1740790108.3468442,-10.7421875,-28.3203125,-35.15625,-39.0625,0.0
1740790108.3507502,-10.25390625,-30.76171875,-38.57421875,-38.0859375,0.0
1740790108.3546562,-7.32421875,-32.2265625,-39.55078125,-32.71484375,0.0
1740790108.3585622,-3.90625,-31.73828125,-41.015625,-31.73828125,0.0
1740790108.362468,-10.25390625,-36.1328125,-43.9453125,-29.78515625,0.0
1740790108.366374,-6.8359375,-31.25,-45.41015625,-19.04296875,0.0
1740790108.37028,0.48828125,-22.94921875,-40.52734375,-23.92578125,0.0
1740790108.374186,-0.48828125,-25.87890625,-41.50390625,-28.3203125,0.0
1740790108.3780918,-3.41796875,-27.83203125,-43.9453125,-28.80859375,0.0
1740790108.3819978,-6.34765625,-45.41015625,-40.0390625,-27.34375,0.0
1740790108.3859038,-7.8125,-42.96875,-34.1796875,-26.85546875,0.0
1740790108.3898098,-17.578125,-31.25,-35.64453125,-35.64453125,0.0
1740790108.3937156,-21.97265625,-41.015625,-44.921875,-34.66796875,0.0
1740790108.3976216,-16.6015625,-40.0390625,-44.921875,-33.203125,0.0
1740790108.4015276,-18.06640625,-34.1796875,-38.57421875,-34.1796875,0.0
1740790108.4054334,-16.6015625,-36.62109375,-38.57421875,-30.76171875,0.0
1740790108.4093394,-6.34765625,-39.0625,-39.55078125,-30.76171875,0.0
1740790108.4132454,-8.7890625,-41.015625,-37.109375,-29.78515625,0.0
1740790108.4171515,-10.25390625,-38.57421875,-34.1796875,-21.484375,0.0
1740790108.4210572,-7.8125,-37.59765625,-34.66796875,-22.4609375,0.0
1740790108.4249632,-15.13671875,-43.9453125,-36.62109375,-25.87890625,0.0
1740790108.4288692,-16.6015625,-41.015625,-35.15625,-25.390625,0.0
1740790108.4327753,-8.7890625,-30.2734375,-29.78515625,-19.04296875,0.0
1740790108.436681,-5.37109375,-34.1796875,-26.85546875,-19.04296875,0.0
1740790108.440587,-7.32421875,-41.50390625,-32.2265625,-16.11328125,0.0
1740790108.444493,-8.30078125,-38.57421875,-30.2734375,-10.7421875,0.0
1740790108.448399,-6.34765625,-34.1796875,-29.296875,-11.71875,0.0
1740790108.4523063,0.48828125,-33.69140625,-36.1328125,-8.7890625,0.0
1740790108.456212,0.0,-34.66796875,-36.1328125,-20.99609375,0.0
1740790108.460118,-4.8828125,-34.1796875,-30.76171875,-25.390625,0.0
1740790108.464024,0.0,-31.25,-25.390625,-17.578125,0.0
1740790108.46793,-1.953125,-40.52734375,-29.78515625,-17.08984375,0.0
1740790108.4718359,-4.8828125,-58.59375,-41.9921875,-21.484375,0.0
1740790108.4757419,2.9296875,-50.29296875,-37.109375,-30.76171875,0.0
1740790108.4796479,5.859375,-35.64453125,-29.296875,-32.71484375,0.0
1740790108.483554,0.0,-46.38671875,-34.66796875,-31.25,0.0
1740790108.4874597,1.46484375,-47.36328125,-35.15625,-24.4140625,0.0
1740790108.4913657,1.46484375,-31.73828125,-30.2734375,-24.4140625,0.0
1740790108.4952717,0.48828125,-37.109375,-30.2734375,-29.296875,0.0
1740790108.4991784,5.859375,-46.38671875,-31.73828125,-28.80859375,0.0
1740790108.5030844,-3.41796875,-46.875,-26.85546875,-20.99609375,0.0
1740790108.5069904,-10.7421875,-44.43359375,-32.2265625,-15.625,0.0
1740790108.5108964,-9.765625,-48.828125,-40.52734375,-20.01953125,0.0
1740790108.5148022,-12.6953125,-54.19921875,-33.203125,-20.5078125,0.0
1740790108.5187082,-11.71875,-49.8046875,-33.203125,-19.53125,0.0
1740790108.5226142,-11.71875,-39.55078125,-35.64453125,-24.4140625,0.0
1740790108.5265203,-17.578125,-38.0859375,-29.296875,-30.2734375,0.0
1740790108.530426,-16.11328125,-53.22265625,-34.1796875,-22.4609375,0.0
1740790108.534332,-11.71875,-48.33984375,-33.203125,-23.92578125,0.0
1740790108.538238,-16.11328125,-40.52734375,-27.83203125,-30.76171875,0.0
1740790108.542144,-18.5546875,-50.29296875,-30.2734375,-38.57421875,0.0
1740790108.5460508,-17.578125,-48.828125,-28.80859375,-47.36328125,0.0
1740790108.5499566,-21.97265625,-42.96875,-38.57421875,-45.8984375,0.0
1740790108.5538626,-32.71484375,-42.96875,-49.31640625,-46.38671875,0.0
1740790108.5577686,-25.390625,-49.31640625,-49.8046875,-36.62109375,0.0
1740790108.5616746,-11.23046875,-50.29296875,-56.15234375,-34.66796875,0.0
1740790108.5655804,-9.765625,-42.96875,-49.8046875,-41.9921875,0.0
1740790108.5694864,-11.23046875,-39.55078125,-42.96875,-37.109375,0.0
1740790108.5733924,-13.18359375,-43.9453125,-51.7578125,-31.25,0.0
1740790108.5772984,-7.32421875,-47.8515625,-51.26953125,-29.78515625,0.0
1740790108.5812042,-9.765625,-37.109375,-41.015625,-35.15625,0.0
1740790108.5851102,-18.5546875,-34.66796875,-40.52734375,-33.203125,0.0
1740790108.5890162,-15.625,-41.015625,-42.96875,-27.34375,0.0
1740790108.592924,-15.625,-39.0625,-41.9921875,-32.71484375,0.0
1740790108.5968301,-13.671875,-33.69140625,-41.9921875,-34.66796875,0.0
1740790108.6007361,-5.859375,-37.59765625,-44.921875,-33.69140625,0.0
1740790108.604642,-8.7890625,-38.0859375,-44.43359375,-29.296875,0.0
1740790108.608548,-7.32421875,-33.203125,-45.41015625,-32.2265625,0.0
1740790108.612454,0.0,-33.69140625,-47.36328125,-31.25,0.0
1740790108.61636,-3.90625,-31.73828125,-47.8515625,-31.73828125,0.0
1740790108.6202657,-4.8828125,-38.0859375,-48.33984375,-34.66796875,0.0
1740790108.6241717,-1.953125,-41.9921875,-46.38671875,-32.71484375,0.0
1740790108.6280777,-2.44140625,-32.2265625,-40.52734375,-33.69140625,0.0
1740790108.6319838,-3.41796875,-31.25,-39.0625,-35.64453125,0.0
1740790108.6358895,1.953125,-30.2734375,-32.71484375,-28.80859375,0.0
1740790108.639796,0.0,-25.390625,-28.3203125,-22.94921875,0.0
1740790108.643702,0.0,-34.66796875,-35.15625,-29.78515625,0.0
1740790108.647608,0.0,-43.9453125,-40.52734375,-38.0859375,0.0
1740790108.651514,0.0,-37.59765625,-39.0625,-40.0390625,0.0
1740790108.6554198,0.0,-34.66796875,-38.0859375,-37.109375,0.0
1740790108.6593258,0.0,-36.1328125,-36.1328125,-36.62109375,0.0
1740790108.6632318,0.0,-34.66796875,-40.0390625,-35.64453125,0.0
1740790108.6671379,0.0,-38.57421875,-38.0859375,-29.78515625,0.0
1740790108.6710436,0.0,-32.71484375,-35.64453125,-30.2734375,0.0
1740790108.6749496,0.0,-28.3203125,-41.9921875,-36.62109375,0.0
1740790108.6788557,0.0,-48.33984375,-42.48046875,-37.59765625,0.0
1740790108.6827617,0.0,-56.15234375,-42.48046875,-29.296875,0.0
1740790108.686669,3.90625,-32.2265625,-34.1796875,-26.85546875,0.0
1740790108.6905751,0.9765625,-30.2734375,-33.69140625,-30.76171875,0.0
1740790108.6944811,-4.8828125,-39.0625,-44.43359375,-33.203125,0.0
1740790108.6983871,-1.953125,-34.66796875,-42.96875,-28.3203125,0.0
1740790108.702293,-6.34765625,-33.69140625,-40.52734375,-30.76171875,0.0
1740790108.706199,-12.20703125,-37.109375,-49.8046875,-34.66796875,0.0
1740790108.710105,-2.44140625,-43.45703125,-56.640625,-28.80859375,0.0
1740790108.714011,1.953125,-38.57421875,-44.921875,-27.34375,0.0
1740790108.7179167,2.44140625,-20.01953125,-28.3203125,-29.78515625,0.0
1740790108.7218227,2.9296875,-26.85546875,-38.57421875,-26.85546875,0.0
1740790108.7257288,-3.41796875,-32.2265625,-41.9921875,-32.2265625,0.0
1740790108.7296348,-11.23046875,-26.85546875,-34.1796875,-38.0859375,0.0
1740790108.733542,-13.18359375,-35.15625,-33.69140625,-32.71484375,0.0
1740790108.737448,-10.7421875,-42.48046875,-40.0390625,-36.1328125,0.0
1740790108.741354,-9.765625,-41.9921875,-46.875,-41.015625,0.0
1740790108.74526,-6.34765625,-45.8984375,-43.45703125,-38.57421875,0.0
1740790108.7491658,0.48828125,-38.57421875,-39.55078125,-37.59765625,0.0
1740790108.7530718,-2.9296875,-33.69140625,-44.43359375,-37.59765625,0.0
1740790108.7569778,-7.8125,-41.9921875,-40.0390625,-33.69140625,0.0
1740790108.7608838,-2.9296875,-48.828125,-41.015625,-29.296875,0.0
1740790108.7647896,-8.30078125,-39.55078125,-42.48046875,-35.15625,0.0
1740790108.7686956,-7.32421875,-37.59765625,-38.57421875,-39.0625,0.0
1740790108.7726016,-5.37109375,-43.9453125,-41.015625,-31.25,0.0
1740790108.7765076,-11.71875,-51.26953125,-39.55078125,-24.90234375,0.0
1740790108.7804148,-5.37109375,-45.8984375,-35.15625,-28.3203125,0.0
1740790108.7843208,-4.39453125,-40.0390625,-32.71484375,-33.69140625,0.0
1740790108.7882268,-8.30078125,-49.8046875,-29.296875,-32.71484375,0.0
1740790108.7921326,-0.9765625,-50.78125,-27.34375,-28.80859375,0.0
1740790108.7960386,1.953125,-46.38671875,-33.203125,-31.73828125,0.0
1740790108.7999446,-1.46484375,-51.26953125,-40.52734375,-31.73828125,0.0
1740790108.8038507,-0.48828125,-48.33984375,-41.50390625,-31.25,0.0
1740790108.8077564,3.90625,-44.921875,-41.015625,-34.1796875,0.0
1740790108.8116624,7.32421875,-30.2734375,-33.203125,-39.55078125,0.0
1740790108.8155684,-3.41796875,-30.76171875,-39.55078125,-48.33984375,0.0
1740790108.8194745,-2.9296875,-40.52734375,-49.31640625,-45.8984375,0.0
1740790108.8233802,-3.41796875,-34.66796875,-46.38671875,-44.921875,0.0
1740790108.8272874,-6.8359375,-26.3671875,-41.015625,-44.43359375,0.0
1740790108.8311934,-7.8125,-28.3203125,-43.45703125,-44.921875,0.0
1740790108.8350995,-12.6953125,-36.62109375,-44.43359375,-42.48046875,0.0
1740790108.8390052,-9.765625,-34.1796875,-43.45703125,-41.015625,0.0
1740790108.8429112,-5.37109375,-30.76171875,-46.875,-42.96875,0.0
1740790108.8468173,-8.7890625,-40.0390625,-42.48046875,-43.45703125,0.0
1740790108.850723,-11.23046875,-51.7578125,-39.0625,-38.0859375,0.0
1740790108.854629,-2.44140625,-41.015625,-37.109375,-35.15625,0.0
1740790108.858535,-6.34765625,-26.85546875,-34.66796875,-39.55078125,0.0
1740790108.862441,-7.8125,-34.1796875,-40.52734375,-41.015625,0.0
1740790108.8663468,3.41796875,-33.203125,-38.0859375,-41.9921875,0.0
1740790108.8702528,-4.8828125,-28.80859375,-29.78515625,-48.828125,0.0
1740790108.8741598,-13.18359375,-31.25,-30.2734375,-45.8984375,0.0
1740790108.8780658,-12.6953125,-32.71484375,-29.78515625,-31.73828125,0.0
1740790108.8819716,-12.20703125,-33.69140625,-23.92578125,-30.2734375,0.0
1740790108.8858776,-8.7890625,-32.2265625,-22.94921875,-41.015625,0.0
1740790108.8897836,-4.39453125,-27.83203125,-23.4375,-33.69140625,0.0
1740790108.8936896,-6.8359375,-41.015625,-25.390625,-27.34375,0.0
1740790108.8975954,-15.13671875,-45.41015625,-32.2265625,-30.76171875,0.0
1740790108.9015014,-13.671875,-33.69140625,-26.3671875,-32.71484375,0.0
1740790108.9054074,-5.859375,-39.55078125,-27.34375,-32.2265625,0.0
1740790108.9093134,-7.8125,-44.43359375,-32.2265625,-33.69140625,0.0
1740790108.9132192,-11.23046875,-46.38671875,-30.76171875,-29.78515625,0.0
1740790108.9171252,-15.625,-43.9453125,-36.1328125,-29.296875,0.0
1740790108.9210334,-14.16015625,-40.0390625,-34.1796875,-34.66796875,0.0
1740790108.9249394,-7.8125,-47.8515625,-28.80859375,-31.73828125,0.0
1740790108.9288452,-8.30078125,-49.8046875,-33.203125,-33.203125,0.0
1740790108.9327512,-7.8125,-47.8515625,-34.66796875,-32.71484375,0.0
1740790108.9366572,-8.30078125,-48.828125,-32.71484375,-26.85546875,0.0
1740790108.9405632,-9.765625,-57.12890625,-34.1796875,-19.04296875,0.0
1740790108.944469,-2.9296875,-52.734375,-30.76171875,-10.25390625,0.0
1740790108.948375,-0.48828125,-38.0859375,-25.87890625,-16.11328125,0.0
1740790108.952281,-3.90625,-42.48046875,-32.71484375,-24.4140625,0.0
1740790108.956187,-3.90625,-53.7109375,-35.15625,-16.11328125,0.0
1740790108.9600928,-1.46484375,-41.50390625,-27.34375,-19.53125,0.0
1740790108.9639988,-5.37109375,-39.0625,-27.34375,-26.3671875,0.0
1740790108.9679084,-7.32421875,-45.8984375,-33.69140625,-20.5078125,0.0
1740790108.9718142,-3.90625,-39.55078125,-40.0390625,-31.73828125,0.0
1740790108.9757202,-7.8125,-36.62109375,-40.52734375,-46.875,0.0
1740790108.9796262,-12.6953125,-39.0625,-37.59765625,-46.38671875,0.0
1740790108.9835322,-10.25390625,-41.015625,-37.59765625,-51.26953125,0.0
1740790108.987438,1.46484375,-31.73828125,-33.69140625,-45.41015625,0.0
1740790108.991344,1.46484375,-21.484375,-21.484375,-33.69140625,0.0
1740790108.99525,1.953125,-29.78515625,-12.20703125,-27.83203125,0.0
1740790108.999156,-0.48828125,-36.62109375,-20.01953125,-36.62109375,0.0
1740790109.0030618,-27.34375,-35.64453125,-31.73828125,-62.5,0.0
1740790109.0069678,-42.96875,-33.203125,-41.015625,-79.1015625,0.0
1740790109.0108738,-67.3828125,-32.2265625,-49.8046875,-96.19140625,0.0
1740790109.0147815,-93.26171875,-23.92578125,-65.91796875,-122.55859375,0.0
1740790109.0186875,-93.26171875,-2.44140625,-51.7578125,-122.0703125,0.0
1740790109.0225935,-123.046875,13.18359375,-42.48046875,-149.4140625,0.0
1740790109.0264995,-173.828125,33.69140625,-76.171875,-205.56640625,0.0
1740790109.0304053,-209.9609375,26.3671875,-103.02734375,-238.28125,0.0
1740790109.0343113,-233.88671875,18.5546875,-110.3515625,-256.34765625,0.0
1740790109.0382173,-255.37109375,39.55078125,-110.3515625,-273.92578125,0.0
1740790109.0421233,-270.01953125,56.640625,-108.88671875,-283.203125,0.0
1740790109.046029,-283.69140625,61.5234375,-109.86328125,-297.8515625,0.0
1740790109.049935,-280.2734375,69.3359375,-110.83984375,-307.6171875,0.0
1740790109.053841,-273.4375,72.265625,-107.421875,-293.9453125,0.0
1740790109.0577471,-273.4375,63.4765625,-105.95703125,-278.80859375,0.0
1740790109.0616546,-253.90625,48.828125,-104.98046875,-250.48828125,0.0
1740790109.0655606,-237.79296875,63.4765625,-92.7734375,-237.79296875,0.0
1740790109.0694666,-228.515625,65.91796875,-88.8671875,-237.3046875,0.0
1740790109.0733724,-202.63671875,49.8046875,-87.40234375,-221.6796875,0.0
1740790109.0772784,-179.6875,42.48046875,-75.1953125,-196.77734375,0.0
1740790109.0811844,-163.0859375,35.64453125,-71.77734375,-180.17578125,0.0
1740790109.0850904,-151.3671875,34.1796875,-72.75390625,-174.31640625,0.0
1740790109.0889962,-121.09375,25.390625,-69.82421875,-151.85546875,0.0
1740790109.0929022,-87.40234375,12.6953125,-61.03515625,-117.67578125,0.0
1740790109.0968082,-81.54296875,12.6953125,-50.78125,-110.3515625,0.0
1740790109.1007142,-60.546875,0.9765625,-46.38671875,-94.23828125,0.0
1740790109.10462,-42.48046875,-2.9296875,-43.45703125,-72.75390625,0.0
1740790109.1085274,-28.3203125,-1.953125,-41.9921875,-60.05859375,0.0
1740790109.1124334,-4.39453125,-9.765625,-34.66796875,-32.71484375,0.0
1740790109.1163394,-6.34765625,-16.6015625,-30.76171875,-24.90234375,0.0
1740790109.1202452,5.37109375,-29.296875,-33.69140625,-22.94921875,0.0
1740790109.1241512,27.34375,-30.2734375,-23.4375,-4.8828125,0.0
1740790109.1280572,32.71484375,-32.71484375,-23.92578125,5.37109375,0.0
1740790109.1319633,31.25,-42.48046875,-25.390625,9.27734375,0.0
1740790109.135869,32.2265625,-55.17578125,-20.5078125,15.625,0.0
1740790109.139775,37.59765625,-52.24609375,-16.6015625,19.04296875,0.0
1740790109.143681,49.31640625,-46.38671875,-11.23046875,21.97265625,0.0
1740790109.147587,52.24609375,-52.734375,-11.23046875,26.3671875,0.0
1740790109.1514928,50.29296875,-59.08203125,-14.16015625,24.90234375,0.0
1740790109.1554003,54.19921875,-59.5703125,-16.11328125,35.15625,0.0
1740790109.159306,58.10546875,-62.5,-14.6484375,49.31640625,0.0
1740790109.163212,63.4765625,-65.91796875,-16.6015625,46.875,0.0
1740790109.167118,72.265625,-67.87109375,-15.13671875,43.9453125,0.0
1740790109.171024,81.0546875,-63.96484375,-12.6953125,54.6875,0.0
1740790109.1749299,87.890625,-63.4765625,-7.32421875,62.5,0.0
1740790109.1788359,85.9375,-80.56640625,-10.25390625,61.03515625,0.0
1740790109.1827419,85.44921875,-88.37890625,-15.13671875,57.6171875,0.0
1740790109.186648,80.56640625,-64.94140625,-13.18359375,51.7578125,0.0
1740790109.1905537,73.2421875,-63.96484375,-14.6484375,52.734375,0.0
1740790109.1944597,69.82421875,-78.125,-17.08984375,47.36328125,0.0
1740790109.1983657,69.3359375,-72.265625,-23.4375,46.38671875,0.0
1740790109.202273,71.2890625,-60.546875,-20.01953125,54.19921875,0.0
1740790109.206179,67.3828125,-59.08203125,-14.6484375,63.4765625,0.0
1740790109.2100847,69.82421875,-69.3359375,-19.53125,59.5703125,0.0
1740790109.2139907,71.77734375,-66.89453125,-20.01953125,52.24609375,0.0
1740790109.2178967,76.66015625,-61.5234375,-14.16015625,53.7109375,0.0
1740790109.2218027,81.0546875,-68.359375,-15.13671875,50.78125,0.0
1740790109.2257085,73.2421875,-78.61328125,-20.5078125,46.38671875,0.0
1740790109.2296145,69.3359375,-70.3125,-18.5546875,47.36328125,0.0
1740790109.2335205,61.5234375,-60.05859375,-12.6953125,40.0390625,0.0
1740790109.2374265,62.5,-66.40625,-10.7421875,35.15625,0.0
1740790109.2413323,72.75390625,-66.40625,-13.18359375,38.57421875,0.0
1740790109.2452383,62.98828125,-55.6640625,-11.23046875,41.9921875,0.0
1740790109.2491453,66.40625,-60.05859375,-9.765625,40.52734375,0.0
1740790109.253051,65.4296875,-77.63671875,-19.04296875,35.64453125,0.0
1740790109.256957,51.7578125,-77.1484375,-20.99609375,31.25,0.0
1740790109.260863,57.6171875,-65.91796875,-14.16015625,40.52734375,0.0
1740790109.264769,57.12890625,-69.3359375,-19.04296875,34.1796875,0.0
1740790109.2686749,52.734375,-77.1484375,-27.34375,21.97265625,0.0
1740790109.2725809,52.24609375,-70.80078125,-28.80859375,25.87890625,0.0
1740790109.2764869,50.78125,-56.640625,-21.484375,23.92578125,0.0
1740790109.280393,49.31640625,-53.22265625,-18.06640625,21.97265625,0.0
1740790109.2842987,52.24609375,-62.98828125,-20.01953125,19.04296875,0.0
1740790109.2882047,45.41015625,-66.89453125,-24.90234375,12.20703125,0.0
1740790109.2921107,37.59765625,-63.96484375,-26.3671875,9.765625,0.0
1740790109.2960188,38.57421875,-68.359375,-22.94921875,12.6953125,0.0
1740790109.2999249,41.9921875,-63.4765625,-22.94921875,14.16015625,0.0
1740790109.3038306,40.0390625,-54.6875,-25.390625,8.7890625,0.0
1740790109.3077366,33.69140625,-63.4765625,-34.1796875,0.9765625,0.0
1740790109.3116426,30.76171875,-69.3359375,-34.66796875,1.953125,0.0
1740790109.3155487,24.4140625,-69.3359375,-31.73828125,-0.9765625,0.0
1740790109.3194544,24.4140625,-61.03515625,-28.80859375,-5.859375,0.0
1740790109.3233604,23.4375,-53.7109375,-22.4609375,-2.44140625,0.0
1740790109.3272665,20.01953125,-61.5234375,-25.390625,1.953125,0.0
1740790109.3311725,20.5078125,-76.66015625,-38.57421875,7.32421875,0.0
1740790109.3350782,18.5546875,-65.4296875,-34.66796875,2.9296875,0.0
1740790109.3389843,20.5078125,-50.78125,-22.94921875,-0.48828125,0.0
1740790109.3428924,0.0,-60.05859375,-22.94921875,0.9765625,0.0
1740790109.3467982,0.0,-65.91796875,-30.2734375,-2.44140625,0.0
1740790109.3507042,0.0,-59.5703125,-33.203125,-7.8125,0.0
1740790109.3546102,0.0,-58.10546875,-27.83203125,-11.71875,0.0
1740790109.3585162,0.0,-61.03515625,-22.94921875,-14.6484375,0.0
1740790109.362422,0.0,-65.4296875,-27.34375,-12.20703125,0.0
1740790109.366328,0.0,-66.89453125,-30.76171875,-17.08984375,0.0
1740790109.370234,0.0,-52.734375,-20.01953125,-20.99609375,0.0
1740790109.37414,0.0,-54.6875,-22.94921875,-17.578125,0.0
1740790109.3780458,0.0,-64.94140625,-33.203125,-18.5546875,0.0
1740790109.3819518,0.0,-53.7109375,-28.80859375,-17.578125,0.0
1740790109.3858578,0.0,-51.7578125,-28.3203125,-17.08984375,0.0
1740790109.3897655,19.53125,-50.78125,-26.85546875,-23.4375,0.0
1740790109.3936715,14.6484375,-42.96875,-20.5078125,-16.11328125,0.0
1740790109.3975775,14.6484375,-41.015625,-17.578125,-11.23046875,0.0
1740790109.4014835,15.13671875,-39.0625,-22.4609375,-25.87890625,0.0
1740790109.4053893,0.48828125,-47.36328125,-25.87890625,-33.69140625,0.0
1740790109.4092953,-12.20703125,-54.19921875,-29.78515625,-27.83203125,0.0
1740790109.4132013,-10.7421875,-54.6875,-33.69140625,-27.83203125,0.0
1740790109.4171073,0.0,-56.15234375,-34.1796875,-31.73828125,0.0
1740790109.421013,-0.48828125,-65.91796875,-38.57421875,-25.87890625,0.0
1740790109.4249191,-3.90625,-57.6171875,-34.66796875,-26.85546875,0.0
1740790109.4288251,-2.9296875,-42.96875,-28.3203125,-40.52734375,0.0
1740790109.4327312,-0.9765625,-47.36328125,-27.83203125,-40.0390625,0.0
1740790109.4366386,0.48828125,-46.875,-30.2734375,-32.2265625,0.0
1740790109.4405446,2.44140625,-39.55078125,-29.296875,-32.2265625,0.0
1740790109.4444506,3.41796875,-42.96875,-31.25,-32.2265625,0.0
1740790109.4483566,0.0,-51.26953125,-31.73828125,-32.71484375,0.0
1740790109.4522624,-4.8828125,-48.33984375,-32.71484375,-37.109375,0.0
1740790109.4561684,-3.90625,-45.8984375,-37.59765625,-29.78515625,0.0
1740790109.4600744,-0.9765625,-53.22265625,-32.71484375,-23.92578125,0.0
1740790109.4639804,-3.41796875,-58.59375,-27.83203125,-33.203125,0.0
1740790109.4678862,-4.39453125,-56.15234375,-31.73828125,-31.73828125,0.0
1740790109.4717922,-6.8359375,-40.0390625,-24.90234375,-31.73828125,0.0
1740790109.4756982,-4.8828125,-40.52734375,-20.01953125,-35.15625,0.0
1740790109.4796042,0.9765625,-47.36328125,-29.78515625,-35.64453125,0.0
1740790109.4835117,0.0,-42.48046875,-33.203125,-39.0625,0.0
1740790109.4874177,0.0,-41.50390625,-28.3203125,-38.0859375,0.0
1740790109.4913235,0.0,-45.41015625,-31.25,-28.3203125,0.0
1740790109.4952295,0.0,-49.31640625,-38.0859375,-27.34375,0.0
1740790109.4991355,0.0,-48.828125,-37.109375,-35.64453125,0.0
1740790109.5030415,0.0,-47.8515625,-39.0625,-33.69140625,0.0
1740790109.5069473,0.0,-48.828125,-40.0390625,-33.69140625,0.0
1740790109.5108533,0.0,-62.98828125,-42.48046875,-38.57421875,0.0
1740790109.5147593,0.0,-56.640625,-44.921875,-41.9921875,0.0
1740790109.5186653,0.0,-46.875,-44.921875,-45.41015625,0.0
1740790109.522571,0.0,-48.828125,-42.48046875,-39.0625,0.0
1740790109.526477,0.0,-41.015625,-36.62109375,-29.78515625,0.0
1740790109.5303845,-2.44140625,-35.15625,-30.76171875,-28.80859375,0.0
1740790109.5342906,-6.8359375,-42.48046875,-29.296875,-31.25,0.0
1740790109.5381966,-2.9296875,-52.734375,-31.73828125,-31.73828125,0.0
1740790109.5421023,-9.27734375,-49.8046875,-30.2734375,-35.64453125,0.0
1740790109.5460083,-15.625,-44.43359375,-29.296875,-34.66796875,0.0
1740790109.5499144,-10.7421875,-47.8515625,-31.73828125,-27.83203125,0.0
1740790109.5538204,-18.5546875,-51.7578125,-34.66796875,-32.2265625,0.0
1740790109.5577261,-20.5078125,-53.7109375,-33.203125,-25.87890625,0.0
1740790109.5616322,-14.6484375,-31.25,-26.3671875,-27.34375,0.0
1740790109.5655382,-15.625,-36.1328125,-29.296875,-33.69140625,0.0
1740790109.5694442,-13.18359375,-52.734375,-31.73828125,-26.85546875,0.0
1740790109.57335,-10.7421875,-44.43359375,-27.83203125,-31.73828125,0.0
1740790109.5772572,-10.7421875,-41.50390625,-26.85546875,-36.62109375,0.0
1740790109.5811632,-10.7421875,-42.96875,-23.4375,-32.2265625,0.0
1740790109.585069,-13.671875,-48.33984375,-24.4140625,-23.4375,0.0
1740790109.588975,-14.6484375,-44.43359375,-26.3671875,-20.99609375,0.0
1740790109.592881,-14.16015625,-40.52734375,-27.34375,-25.390625,0.0
1740790109.596787,-13.671875,-55.17578125,-29.78515625,-33.69140625,0.0
1740790109.6006927,-8.7890625,-64.453125,-34.66796875,-29.296875,0.0
1740790109.6045988,-8.30078125,-52.24609375,-35.64453125,-29.78515625,0.0
1740790109.6085048,-9.27734375,-46.38671875,-30.2734375,-36.1328125,0.0
1740790109.6124108,-6.8359375,-55.17578125,-28.80859375,-28.80859375,0.0
1740790109.6163166,-5.859375,-51.26953125,-31.73828125,-25.87890625,0.0
1740790109.6202226,-2.44140625,-46.38671875,-26.85546875,-28.80859375,0.0
1740790109.6241295,-0.9765625,-53.7109375,-28.80859375,-27.83203125,0.0
1740790109.6280353,-5.37109375,-59.5703125,-37.109375,-27.83203125,0.0
1740790109.6319413,-12.20703125,-65.4296875,-35.15625,-34.1796875,0.0
1740790109.6358473,-13.671875,-68.359375,-32.2265625,-34.1796875,0.0
1740790109.6397533,-8.7890625,-62.98828125,-31.73828125,-35.15625,0.0
1740790109.643659,-3.41796875,-65.91796875,-35.64453125,-38.0859375,0.0
1740790109.6475651,-7.8125,-71.2890625,-39.0625,-41.9921875,0.0
1740790109.6514711,-14.16015625,-54.6875,-33.203125,-47.8515625,0.0
1740790109.6553771,-15.13671875,-54.19921875,-35.64453125,-45.41015625,0.0
1740790109.659283,-20.99609375,-67.87109375,-42.96875,-44.921875,0.0
1740790109.663189,-22.4609375,-63.96484375,-41.9921875,-42.96875,0.0
1740790109.667095,-12.6953125,-60.05859375,-39.55078125,-41.015625,0.0
1740790109.671003,-9.765625,-58.59375,-40.52734375,-41.015625,0.0
1740790109.674909,-6.34765625,-60.546875,-44.921875,-38.57421875,0.0
1740790109.6788151,-1.953125,-59.5703125,-42.48046875,-38.57421875,0.0
1740790109.682721,-9.765625,-62.98828125,-38.57421875,-33.69140625,0.0
1740790109.686627,-12.20703125,-71.2890625,-41.50390625,-27.83203125,0.0
1740790109.690533,-3.41796875,-77.1484375,-46.38671875,-20.99609375,0.0
1740790109.694439,-0.48828125,-63.4765625,-42.96875,-16.11328125,0.0
1740790109.6983447,-2.9296875,-50.29296875,-36.1328125,-16.6015625,0.0
1740790109.7022507,-1.46484375,-45.8984375,-27.83203125,-15.13671875,0.0
1740790109.7061567,3.90625,-60.05859375,-31.73828125,-11.23046875,0.0
1740790109.7100627,-0.48828125,-57.6171875,-39.55078125,-24.4140625,0.0
1740790109.7139685,-2.44140625,-52.734375,-34.1796875,-33.69140625,0.0
1740790109.7178767,0.0,-62.01171875,-32.2265625,-27.34375,0.0
1740790109.7217827,0.0,-55.6640625,-32.2265625,-19.04296875,0.0
1740790109.7256885,0.0,-50.29296875,-30.2734375,-13.18359375,0.0
1740790109.7295945,0.0,-51.26953125,-32.71484375,-19.53125,0.0
1740790109.7335005,0.0,-45.8984375,-29.78515625,-18.06640625,0.0
1740790109.7374065,0.0,-45.8984375,-23.4375,-13.671875,0.0
1740790109.7413123,0.0,-43.45703125,-20.99609375,-16.6015625,0.0
1740790109.7452183,0.0,-33.69140625,-19.53125,-17.578125,0.0
1740790109.7491243,0.0,-42.96875,-29.296875,-10.7421875,0.0
1740790109.7530303,0.0,-52.24609375,-37.59765625,-7.8125,0.0
1740790109.756936,0.0,-37.59765625,-30.76171875,-16.11328125,0.0
1740790109.760842,0.0,-42.48046875,-28.80859375,-16.6015625,0.0
1740790109.76475,3.41796875,-52.24609375,-29.296875,-10.25390625,0.0
1740790109.768656,5.37109375,-45.8984375,-26.85546875,-14.16015625,0.0
1740790109.7725618,2.44140625,-44.921875,-26.3671875,-22.94921875,0.0
1740790109.7764678,-4.39453125,-42.96875,-30.2734375,-24.4140625,0.0
1740790109.7803738,-16.11328125,-43.9453125,-36.62109375,-21.484375,0.0
1740790109.7842798,-14.6484375,-47.8515625,-41.015625,-24.90234375,0.0
1740790109.7881856,-13.18359375,-45.41015625,-39.55078125,-32.2265625,0.0
1740790109.7920916,-17.08984375,-36.62109375,-34.1796875,-24.90234375,0.0
1740790109.7959976,-15.13671875,-46.875,-39.55078125,-19.04296875,0.0
1740790109.7999036,-14.16015625,-43.45703125,-37.59765625,-24.4140625,0.0
1740790109.8038094,-17.08984375,-33.203125,-32.2265625,-34.66796875,0.0
1740790109.8077154,-21.484375,-41.50390625,-36.62109375,-46.875,0.0
1740790109.811623,-20.01953125,-48.828125,-40.52734375,-41.015625,0.0
1740790109.8155289,-20.01953125,-47.36328125,-34.1796875,-41.50390625,0.0
1740790109.819435,-17.578125,-43.9453125,-32.2265625,-46.38671875,0.0
1740790109.823341,-11.23046875,-43.9453125,-36.1328125,-33.69140625,0.0
1740790109.827247,-12.6953125,-44.43359375,-38.0859375,-29.78515625,0.0
1740790109.8311527,-21.484375,-46.38671875,-35.15625,-31.25,0.0
1740790109.8350587,-16.11328125,-46.38671875,-30.2734375,-30.2734375,0.0
1740790109.8389647,-9.27734375,-47.36328125,-37.109375,-31.25,0.0
1740790109.8428707,-8.30078125,-42.96875,-41.015625,-24.4140625,0.0
1740790109.8467765,-6.34765625,-31.73828125,-31.25,-21.97265625,0.0
1740790109.8506825,-3.90625,-38.57421875,-32.2265625,-22.4609375,0.0
1740790109.8545885,-3.90625,-38.57421875,-34.66796875,-24.90234375,0.0
1740790109.858496,-5.859375,-30.2734375,-35.15625,-26.85546875,0.0
1740790109.862402,0.0,-31.25,-34.1796875,-30.76171875,0.0
1740790109.8663077,0.48828125,-35.15625,-34.1796875,-35.64453125,0.0
1740790109.8702137,-0.9765625,-47.36328125,-41.50390625,-31.25,0.0
1740790109.8741198,-1.953125,-42.48046875,-37.59765625,-28.3203125,0.0
1740790109.8780258,-9.27734375,-41.015625,-33.69140625,-38.0859375,0.0
1740790109.8819315,-8.7890625,-46.38671875,-38.57421875,-40.52734375,0.0
1740790109.8858376,-7.32421875,-50.29296875,-39.0625,-29.78515625,0.0
1740790109.8897436,-7.32421875,-36.62109375,-32.71484375,-29.296875,0.0
1740790109.8936496,1.953125,-22.94921875,-24.90234375,-32.2265625,0.0
1740790109.8975554,-3.41796875,-39.0625,-30.2734375,-30.76171875,0.0
1740790109.9014614,-1.46484375,-45.41015625,-41.9921875,-29.296875,0.0
1740790109.9053686,0.0,-40.52734375,-44.921875,-38.0859375,0.0
1740790109.9092746,1.953125,-42.96875,-39.55078125,-38.57421875,0.0
1740790109.9131806,12.6953125,-48.828125,-35.64453125,-35.64453125,0.0
1740790109.9170864,11.71875,-45.41015625,-29.78515625,-31.25,0.0
1740790109.9209924,7.32421875,-39.55078125,-28.3203125,-27.83203125,0.0
1740790109.9248984,4.8828125,-39.0625,-35.15625,-26.85546875,0.0
1740790109.9288044,0.9765625,-46.38671875,-40.0390625,-30.2734375,0.0
1740790109.9327102,-0.9765625,-50.29296875,-44.921875,-34.66796875,0.0
1740790109.9366162,0.0,-32.71484375,-36.1328125,-33.203125,0.0
1740790109.9405222,-0.48828125,-34.1796875,-34.66796875,-31.73828125,0.0
1740790109.9444282,-2.9296875,-44.921875,-37.109375,-31.25,0.0
1740790109.948334,-6.34765625,-47.36328125,-37.109375,-33.203125,0.0
1740790109.9522412,0.48828125,-38.57421875,-35.64453125,-27.34375,0.0
1740790109.9561472,-1.953125,-29.78515625,-34.1796875,-24.90234375,0.0
1740790109.960053,-5.37109375,-37.109375,-34.66796875,-28.3203125,0.0
1740790109.963959,4.39453125,-37.109375,-33.203125,-27.83203125,0.0
1740790109.967865,2.44140625,-34.1796875,-37.109375,-29.78515625,0.0
1740790109.971771,-6.34765625,-43.45703125,-46.875,-39.0625,0.0
1740790109.9756768,-1.953125,-52.734375,-51.26953125,-28.3203125,0.0
1740790109.9795828,0.9765625,-39.55078125,-37.59765625,-22.94921875,0.0
1740790109.9834888,-1.46484375,-28.3203125,-34.1796875,-34.66796875,0.0
1740790109.9873948,0.9765625,-32.2265625,-34.66796875,-37.109375,0.0
1740790109.9913006,-0.9765625,-39.0625,-39.0625,-44.43359375,0.0
1740790109.9952066,-9.765625,-35.64453125,-41.9921875,-50.29296875,0.0
1740790109.9991136,0.0,-34.66796875,-36.1328125,-46.875,0.0
1740790110.0030196,0.0,-38.57421875,-36.62109375,-40.52734375,0.0
1740790110.0069253,0.0,-37.109375,-32.2265625,-30.2734375,0.0
1740790110.0108314,0.0,-37.59765625,-27.83203125,-27.34375,0.0
1740790110.0147374,0.0,-40.0390625,-32.2265625,-35.15625,0.0
1740790110.0186434,0.0,-49.31640625,-35.15625,-32.2265625,0.0
1740790110.0225492,0.0,-58.10546875,-36.1328125,-24.90234375,0.0
1740790110.0264552,0.0,-45.8984375,-35.64453125,-33.203125,0.0
1740790110.0303612,0.0,-42.48046875,-33.69140625,-35.15625,0.0
1740790110.0342672,0.0,-53.7109375,-39.0625,-33.203125,0.0
1740790110.038173,0.0,-51.7578125,-41.9921875,-33.203125,0.0
1740790110.042079,0.0,-42.48046875,-32.2265625,-30.2734375,0.0
1740790110.0459871,-4.39453125,-39.55078125,-30.76171875,-27.34375,0.0
1740790110.0498931,-7.8125,-43.9453125,-37.109375,-25.87890625,0.0
1740790110.0537992,-6.34765625,-39.0625,-41.50390625,-24.90234375,0.0
1740790110.057705,-3.90625,-33.69140625,-38.57421875,-27.34375,0.0
1740790110.061611,-5.859375,-38.0859375,-32.2265625,-28.3203125,0.0
1740790110.065517,-4.39453125,-48.828125,-38.57421875,-26.85546875,0.0
1740790110.069423,-8.30078125,-40.52734375,-41.50390625,-27.83203125,0.0
1740790110.0733287,-15.625,-27.34375,-36.1328125,-35.64453125,0.0
1740790110.0772347,-11.23046875,-42.96875,-42.96875,-39.55078125,0.0
1740790110.0811408,-3.90625,-55.17578125,-44.921875,-30.76171875,0.0
1740790110.0850468,-3.41796875,-41.015625,-36.1328125,-33.69140625,0.0
1740790110.0889525,-10.25390625,-35.64453125,-32.71484375,-35.15625,0.0
1740790110.0928607,-15.13671875,-41.015625,-34.1796875,-32.71484375,0.0
1740790110.0967665,-14.6484375,-38.0859375,-34.1796875,-35.15625,0.0
1740790110.1006725,-12.20703125,-30.2734375,-30.76171875,-29.78515625,0.0
1740790110.1045785,-3.41796875,-31.25,-27.83203125,-30.76171875,0.0
1740790110.1084845,-2.44140625,-40.0390625,-34.1796875,-31.25,0.0
1740790110.1123903,-1.953125,-39.0625,-35.64453125,-24.4140625,0.0
1740790110.1162963,-1.953125,-33.203125,-26.3671875,-18.5546875,0.0
1740790110.1202023,-7.32421875,-34.1796875,-25.87890625,-24.90234375,0.0
1740790110.1241083,-4.8828125,-40.52734375,-34.66796875,-34.66796875,0.0
1740790110.128014,-1.46484375,-44.921875,-35.15625,-43.45703125,0.0
1740790110.13192,2.44140625,-37.59765625,-29.78515625,-42.96875,0.0
1740790110.135826,1.953125,-34.1796875,-32.71484375,-36.62109375,0.0
1740790110.139734,0.0,-37.109375,-33.203125,-32.71484375,0.0
1740790110.1436398,0.0,-37.59765625,-32.2265625,-28.3203125,0.0
1740790110.1475458,0.0,-30.2734375,-34.1796875,-38.57421875,0.0
1740790110.1514518,0.0,-41.015625,-35.15625,-44.921875,0.0
1740790110.1553578,0.0,-54.6875,-34.66796875,-37.109375,0.0
1740790110.1592636,0.0,-58.59375,-33.203125,-27.83203125,0.0
1740790110.1631696,0.0,-52.734375,-30.2734375,-21.97265625,0.0
1740790110.1670756,0.0,-49.8046875,-35.15625,-26.3671875,0.0
1740790110.1709816,0.0,-62.01171875,-41.9921875,-26.3671875,0.0
1740790110.1748874,0.0,-52.734375,-35.15625,-24.4140625,0.0
1740790110.1787934,0.0,-42.48046875,-28.80859375,-26.3671875,0.0
1740790110.1826994,0.0,-41.9921875,-27.34375,-29.78515625,0.0
1740790110.186607,-9.765625,-43.9453125,-31.73828125,-31.73828125,0.0
1740790110.190513,-5.37109375,-42.48046875,-29.78515625,-26.85546875,0.0
1740790110.194419,-7.32421875,-43.9453125,-30.2734375,-27.83203125,0.0
1740790110.198325,-8.30078125,-45.41015625,-39.55078125,-34.1796875,0.0
1740790110.2022307,-5.859375,-48.33984375,-41.50390625,-32.71484375,0.0
1740790110.2061367,-10.7421875,-51.26953125,-39.0625,-32.71484375,0.0
1740790110.2100427,-12.6953125,-42.96875,-32.2265625,-36.62109375,0.0
1740790110.2139487,-3.41796875,-42.48046875,-30.76171875,-28.80859375,0.0
1740790110.2178545,1.953125,-48.33984375,-35.15625,-31.25,0.0
1740790110.2217605,-8.30078125,-33.203125,-31.25,-40.52734375,0.0
1740790110.2256665,-7.32421875,-38.57421875,-31.73828125,-36.1328125,0.0
1740790110.2295725,-7.32421875,-48.828125,-34.66796875,-35.64453125,0.0
1740790110.23348,-18.06640625,-40.52734375,-37.109375,-41.015625,0.0
1740790110.2373857,-19.04296875,-40.52734375,-34.1796875,-33.69140625,0.0
1740790110.2412918,-16.11328125,-45.41015625,-29.296875,-29.296875,0.0
1740790110.2451978,-17.578125,-52.734375,-39.0625,-29.78515625,0.0
1740790110.2491038,-17.08984375,-48.33984375,-41.015625,-32.2265625,0.0
1740790110.2530096,-16.6015625,-41.9921875,-36.1328125,-38.0859375,0.0
1740790110.2569156,-19.04296875,-47.36328125,-35.15625,-37.109375,0.0
1740790110.2608216,-29.78515625,-60.05859375,-40.0390625,-34.66796875,0.0
1740790110.2647276,-32.2265625,-49.31640625,-37.59765625,-36.1328125,0.0
1740790110.2686334,-24.4140625,-37.59765625,-35.64453125,-41.9921875,0.0
1740790110.2725394,-28.3203125,-42.48046875,-40.0390625,-41.9921875,0.0
1740790110.2764454,-25.87890625,-47.36328125,-41.50390625,-38.57421875,0.0
1740790110.2803526,-21.97265625,-45.8984375,-40.52734375,-39.0625,0.0
1740790110.2842586,-19.53125,-41.9921875,-39.0625,-36.62109375,0.0
1740790110.2881646,-16.11328125,-47.8515625,-40.52734375,-33.203125,0.0
1740790110.2920706,-24.90234375,-53.22265625,-43.45703125,-29.78515625,0.0
1740790110.2959764,-27.83203125,-50.29296875,-46.875,-25.390625,0.0
1740790110.2998824,-21.97265625,-50.29296875,-43.45703125,-20.5078125,0.0
1740790110.3037884,-11.71875,-46.875,-41.015625,-28.3203125,0.0
1740790110.3076944,-14.16015625,-57.12890625,-48.828125,-29.296875,0.0
1740790110.3116002,-21.484375,-56.640625,-43.45703125,-37.109375,0.0
1740790110.3155062,-22.4609375,-52.734375,-39.55078125,-43.9453125,0.0
1740790110.3194122,-18.06640625,-54.6875,-41.50390625,-35.15625,0.0
1740790110.3233182,-13.18359375,-48.33984375,-38.57421875,-29.78515625,0.0
1740790110.3272252,0.0,-44.43359375,-36.62109375,-36.1328125,0.0
1740790110.3311312,0.0,-48.828125,-33.69140625,-40.0390625,0.0
1740790110.3350372,0.0,-48.828125,-35.64453125,-33.69140625,0.0
1740790110.3389432,0.0,-41.015625,-36.62109375,-27.83203125,0.0
1740790110.342849,0.0,-41.50390625,-33.69140625,-26.3671875,0.0
1740790110.346755,0.0,-48.828125,-40.0390625,-30.2734375,0.0
1740790110.350661,0.0,-56.640625,-47.36328125,-29.296875,0.0
1740790110.354567,0.0,-50.78125,-37.109375,-31.73828125,0.0
1740790110.3584728,0.0,-38.57421875,-28.80859375,-41.015625,0.0
1740790110.3623788,0.0,-42.48046875,-29.296875,-40.0390625,0.0
1740790110.3662848,0.0,-42.48046875,-32.2265625,-39.0625,0.0
1740790110.3701909,0.0,-44.921875,-28.3203125,-30.76171875,0.0
1740790110.374099,-16.6015625,-55.6640625,-27.83203125,-34.1796875,0.0
1740790110.378005,-14.16015625,-55.17578125,-23.92578125,-32.2265625,0.0
1740790110.381911,-13.18359375,-54.6875,-26.3671875,-33.69140625,0.0
1740790110.385817,-18.5546875,-52.24609375,-33.203125,-41.50390625,0.0
1740790110.3897228,-16.11328125,-42.48046875,-34.1796875,-40.0390625,0.0
1740790110.3936288,-12.6953125,-48.33984375,-41.015625,-30.2734375,0.0
1740790110.3975348,-8.30078125,-52.24609375,-40.52734375,-23.4375,0.0
1740790110.4014409,-1.46484375,-33.69140625,-28.3203125,-29.78515625,0.0
1740790110.4053466,0.48828125,-38.0859375,-32.2265625,-27.34375,0.0
1740790110.4092526,-0.9765625,-51.7578125,-40.0390625,-23.92578125,0.0
1740790110.4131587,-3.41796875,-45.41015625,-38.57421875,-20.5078125,0.0
1740790110.4170647,-0.9765625,-46.38671875,-37.59765625,-20.99609375,0.0
1740790110.4209728,-0.9765625,-45.41015625,-39.55078125,-26.85546875,0.0
1740790110.4248786,0.0,-49.31640625,-43.9453125,-26.85546875,0.0
1740790110.4287846,-0.48828125,-48.828125,-41.015625,-30.2734375,0.0
1740790110.4326906,-2.9296875,-39.55078125,-41.50390625,-37.109375,0.0
1740790110.4365966,-4.39453125,-37.59765625,-39.55078125,-29.296875,0.0
1740790110.4405024,-5.859375,-47.36328125,-40.0390625,-18.5546875,0.0
1740790110.4444084,-6.34765625,-39.55078125,-41.015625,-27.83203125,0.0
1740790110.4483144,-2.9296875,-26.85546875,-34.66796875,-36.1328125,0.0
1740790110.4522204,1.953125,-35.15625,-35.64453125,-31.73828125,0.0
1740790110.4561262,-1.46484375,-54.19921875,-47.8515625,-27.83203125,0.0
1740790110.4600322,-4.8828125,-42.48046875,-45.8984375,-28.80859375,0.0
1740790110.4639382,-4.8828125,-32.2265625,-43.45703125,-32.71484375,0.0
1740790110.4678462,1.46484375,-45.8984375,-48.828125,-31.25,0.0
1740790110.4717522,-2.44140625,-45.8984375,-47.8515625,-31.73828125,0.0
1740790110.4756582,-7.32421875,-37.109375,-44.43359375,-35.15625,0.0
1740790110.4795642,-7.32421875,-40.0390625,-41.015625,-31.73828125,0.0
1740790110.48347,-10.7421875,-44.921875,-38.57421875,-22.94921875,0.0
1740790110.487376,-11.71875,-49.8046875,-40.0390625,-22.4609375,0.0
1740790110.491282,-5.37109375,-47.8515625,-42.96875,-27.83203125,0.0
1740790110.495188,-4.39453125,-36.62109375,-39.55078125,-32.2265625,0.0
1740790110.4990938,-11.71875,-47.8515625,-43.9453125,-34.66796875,0.0
1740790110.5029998,-13.18359375,-51.26953125,-41.50390625,-29.78515625,0.0
1740790110.5069058,-19.04296875,-36.1328125,-36.1328125,-38.57421875,0.0
1740790110.5108118,-13.671875,-37.109375,-41.50390625,-40.52734375,0.0
1740790110.5147195,-6.34765625,-39.55078125,-39.55078125,-29.78515625,0.0
1740790110.5186255,-12.20703125,-39.55078125,-32.2265625,-26.85546875,0.0
1740790110.5225315,-12.6953125,-45.41015625,-32.2265625,-34.66796875,0.0
1740790110.5264375,-5.37109375,-43.9453125,-34.1796875,-39.0625,0.0
1740790110.5303433,3.90625,-41.9921875,-41.015625,-37.59765625,0.0
1740790110.5342493,1.953125,-40.0390625,-41.9921875,-39.0625,0.0
1740790110.5381553,-1.953125,-33.69140625,-34.66796875,-36.62109375,0.0
1740790110.5420613,-6.8359375,-36.62109375,-35.64453125,-36.62109375,0.0
1740790110.545967,-8.30078125,-49.31640625,-42.48046875,-27.34375,0.0
1740790110.549873,-10.25390625,-40.52734375,-39.55078125,-27.83203125,0.0
1740790110.5537791,-10.7421875,-30.2734375,-34.66796875,-41.015625,0.0
1740790110.5576851,-9.765625,-37.109375,-38.57421875,-40.0390625,0.0
1740790110.5615926,-14.6484375,-39.0625,-40.52734375,-35.15625,0.0
1740790110.5654986,-12.20703125,-35.15625,-30.76171875,-27.83203125,0.0
1740790110.5694046,-14.6484375,-32.2265625,-30.76171875,-33.203125,0.0
1740790110.5733104,-20.99609375,-42.96875,-41.015625,-46.38671875,0.0
1740790110.5772164,-19.04296875,-47.36328125,-36.62109375,-43.45703125,0.0
1740790110.5811224,-16.6015625,-44.921875,-35.64453125,-38.0859375,0.0
