timestamps,TP9,AF7,AF8,TP10,Right AUX
1740789290.1029491,-28.3203125,-38.0859375,-47.8515625,-34.1796875,0.0
1740789290.1068552,-19.04296875,-45.8984375,-48.828125,-41.015625,0.0
1740789290.110761,-24.4140625,-46.38671875,-45.8984375,-34.1796875,0.0
1740789290.1146667,-23.92578125,-41.9921875,-46.875,-26.85546875,0.0
1740789290.1185725,-22.4609375,-34.66796875,-47.36328125,-27.34375,0.0
1740789290.1224785,-26.85546875,-32.71484375,-51.7578125,-28.80859375,0.0
1740789290.1263843,-27.83203125,-35.64453125,-54.19921875,-33.203125,0.0
1740789290.13029,-27.83203125,-40.52734375,-45.41015625,-29.78515625,0.0
1740789290.1341958,-24.90234375,-30.2734375,-41.015625,-24.4140625,0.0
1740789290.1381018,-26.3671875,-20.01953125,-44.921875,-29.78515625,0.0
1740789290.1420076,-27.34375,-26.3671875,-42.48046875,-31.73828125,0.0
1740789290.1459134,-18.5546875,-30.2734375,-42.48046875,-26.3671875,0.0
1740789290.1498215,-17.08984375,-28.3203125,-48.33984375,-24.90234375,0.0
1740789290.1537273,-21.484375,-31.73828125,-47.36328125,-27.34375,0.0
1740789290.157633,-18.5546875,-36.62109375,-39.0625,-24.4140625,0.0
1740789290.161539,-12.20703125,-29.296875,-40.0390625,-19.53125,0.0
1740789290.1654449,-14.6484375,-26.85546875,-44.43359375,-24.4140625,0.0
1740789290.1693506,-14.6484375,-36.62109375,-42.48046875,-29.78515625,0.0
1740789290.1732564,-15.13671875,-36.1328125,-41.50390625,-32.71484375,0.0
1740789290.1771624,-20.01953125,-32.71484375,-46.875,-36.1328125,0.0
1740789290.1810682,-20.99609375,-29.78515625,-45.8984375,-35.64453125,0.0
1740789290.184974,-19.53125,-31.25,-43.45703125,-36.62109375,0.0
1740789290.1888797,-21.484375,-35.15625,-40.52734375,-32.2265625,0.0
1740789290.1927857,-38.0859375,-35.64453125,-39.55078125,-32.71484375,0.0
1740789290.1966937,-36.62109375,-32.2265625,-41.50390625,-35.64453125,0.0
1740789290.2005994,-29.78515625,-31.73828125,-36.62109375,-37.59765625,0.0
1740789290.2045052,-37.109375,-36.1328125,-42.48046875,-41.015625,0.0
1740789290.208411,-27.34375,-35.64453125,-48.33984375,-38.0859375,0.0
1740789290.2123168,-25.390625,-31.25,-43.45703125,-34.66796875,0.0
1740789290.2162228,-30.2734375,-36.1328125,-42.48046875,-31.73828125,0.0
1740789290.2201285,-27.83203125,-30.2734375,-41.50390625,-33.69140625,0.0
1740789290.2240343,-25.390625,-22.4609375,-38.57421875,-30.76171875,0.0
1740789290.22794,-26.3671875,-21.97265625,-37.109375,-24.4140625,0.0
1740789290.231846,-23.92578125,-30.76171875,-39.55078125,-22.94921875,0.0
1740789290.2357519,-25.87890625,-36.62109375,-41.015625,-29.296875,0.0
1740789290.2396576,-22.94921875,-24.4140625,-39.55078125,-26.85546875,0.0
1740789290.2435684,-22.4609375,-31.25,-40.0390625,-27.83203125,0.0
1740789290.2474742,-28.80859375,-39.55078125,-42.96875,-27.83203125,0.0
1740789290.25138,-31.73828125,-40.52734375,-45.41015625,-28.3203125,0.0
1740789290.2552857,-22.4609375,-41.9921875,-41.015625,-31.25,0.0
1740789290.2591918,-22.94921875,-41.015625,-40.0390625,-26.3671875,0.0
1740789290.2630975,-26.3671875,-44.43359375,-41.9921875,-23.92578125,0.0
1740789290.2670033,-26.3671875,-41.015625,-41.50390625,-29.296875,0.0
1740789290.270909,-30.2734375,-31.73828125,-42.48046875,-36.62109375,0.0
1740789290.274815,-25.390625,-30.76171875,-46.875,-32.2265625,0.0
1740789290.2787209,-21.97265625,-34.66796875,-49.8046875,-28.3203125,0.0
1740789290.2826266,-24.90234375,-36.1328125,-48.828125,-27.83203125,0.0
1740789290.2865324,-21.97265625,-32.71484375,-44.921875,-24.90234375,0.0
1740789290.2904425,-15.625,-34.66796875,-41.015625,-21.97265625,0.0
1740789290.2943482,-13.671875,-32.2265625,-48.828125,-22.4609375,0.0
1740789290.298254,-18.5546875,-27.83203125,-52.24609375,-28.3203125,0.0
1740789290.30216,-21.484375,-28.3203125,-43.45703125,-27.83203125,0.0
1740789290.3060658,-20.5078125,-31.25,-41.015625,-31.73828125,0.0
1740789290.3099716,-24.4140625,-36.1328125,-41.50390625,-33.69140625,0.0
1740789290.3138773,-27.34375,-37.109375,-44.43359375,-27.83203125,0.0
1740789290.3177834,-24.90234375,-28.3203125,-47.36328125,-30.2734375,0.0
1740789290.3216891,-23.4375,-32.71484375,-44.921875,-31.73828125,0.0
1740789290.325595,-25.390625,-41.50390625,-41.015625,-30.2734375,0.0
1740789290.3295007,-28.80859375,-32.71484375,-39.55078125,-34.1796875,0.0
1740789290.3334067,-26.3671875,-28.80859375,-38.57421875,-29.78515625,0.0
1740789290.3373163,-19.53125,-25.390625,-38.0859375,-20.01953125,0.0
1740789290.341222,-24.4140625,-22.4609375,-36.62109375,-19.53125,0.0
1740789290.3451278,-30.2734375,-25.390625,-36.62109375,-20.5078125,0.0
1740789290.3490336,-28.3203125,-35.15625,-44.921875,-21.484375,0.0
1740789290.3529396,-23.4375,-33.69140625,-41.015625,-22.4609375,0.0
1740789290.3568454,-22.4609375,-32.71484375,-38.57421875,-20.99609375,0.0
1740789290.3607512,-15.625,-32.71484375,-38.0859375,-17.08984375,0.0
1740789290.364657,-20.01953125,-30.76171875,-36.1328125,-21.97265625,0.0
1740789290.368563,-20.99609375,-35.64453125,-37.109375,-22.94921875,0.0
1740789290.3724687,-14.6484375,-34.66796875,-34.66796875,-18.06640625,0.0
1740789290.3763745,-17.578125,-29.78515625,-44.921875,-23.4375,0.0
1740789290.3802803,-22.94921875,-33.69140625,-52.24609375,-33.203125,0.0
1740789290.3841898,0.0,-36.62109375,-45.8984375,-27.34375,0.0
1740789290.3880959,0.0,-28.3203125,-47.36328125,-20.01953125,0.0
1740789290.3920016,0.0,-22.4609375,-48.828125,-23.92578125,0.0
1740789290.3959074,0.0,-22.94921875,-46.38671875,-20.5078125,0.0
1740789290.3998132,0.0,-27.83203125,-46.38671875,-21.484375,0.0
1740789290.4037192,0.0,-31.25,-45.8984375,-27.83203125,0.0
1740789290.407625,0.0,-32.71484375,-51.26953125,-30.2734375,0.0
1740789290.4115307,0.0,-43.45703125,-56.15234375,-35.15625,0.0
1740789290.4154365,0.0,-41.50390625,-54.19921875,-35.64453125,0.0
1740789290.4193425,0.0,-25.390625,-49.8046875,-31.25,0.0
1740789290.4232483,0.0,-25.87890625,-46.38671875,-31.73828125,0.0
1740789290.427154,0.0,-28.3203125,-38.0859375,-28.3203125,0.0
1740789290.4310632,-20.99609375,-28.80859375,-36.1328125,-29.78515625,0.0
1740789290.4349692,-22.4609375,-26.85546875,-40.52734375,-36.1328125,0.0
1740789290.438875,-21.97265625,-29.78515625,-40.52734375,-35.64453125,0.0
1740789290.4427807,-22.4609375,-36.1328125,-38.57421875,-31.73828125,0.0
1740789290.4466865,-27.34375,-36.62109375,-40.52734375,-34.66796875,0.0
1740789290.4505925,-26.85546875,-35.15625,-42.48046875,-38.0859375,0.0
1740789290.4544983,-27.34375,-32.2265625,-41.50390625,-38.57421875,0.0
1740789290.458404,-29.78515625,-38.0859375,-34.1796875,-35.64453125,0.0
1740789290.4623098,-22.4609375,-32.2265625,-33.69140625,-25.390625,0.0
1740789290.4662156,-23.92578125,-17.08984375,-34.66796875,-21.97265625,0.0
1740789290.4701216,-22.4609375,-20.5078125,-33.69140625,-23.92578125,0.0
1740789290.4740274,-20.01953125,-27.83203125,-42.48046875,-33.69140625,0.0
1740789290.4779358,-21.484375,-26.85546875,-41.9921875,-41.9921875,0.0
1740789290.4818418,-28.3203125,-30.2734375,-41.50390625,-41.9921875,0.0
1740789290.4857476,-33.203125,-42.96875,-43.9453125,-38.0859375,0.0
1740789290.4896533,-23.92578125,-36.62109375,-38.57421875,-29.296875,0.0
1740789290.4935591,-19.53125,-28.80859375,-33.203125,-29.78515625,0.0
1740789290.4974651,-22.4609375,-38.57421875,-34.1796875,-33.203125,0.0
1740789290.501371,-22.94921875,-41.50390625,-37.109375,-28.80859375,0.0
1740789290.5052767,-26.3671875,-32.71484375,-44.921875,-31.25,0.0
1740789290.5091825,-27.34375,-21.97265625,-45.41015625,-32.2265625,0.0
1740789290.5130882,-14.16015625,-27.34375,-38.0859375,-26.3671875,0.0
1740789290.5169942,-13.671875,-33.69140625,-40.52734375,-25.390625,0.0
1740789290.5209,-14.16015625,-34.1796875,-41.50390625,-30.2734375,0.0
1740789290.5248082,-17.08984375,-32.71484375,-40.0390625,-29.296875,0.0
1740789290.528714,-25.390625,-31.73828125,-46.38671875,-33.203125,0.0
1740789290.5326197,-22.94921875,-33.203125,-47.8515625,-35.15625,0.0
1740789290.5365257,-24.90234375,-35.64453125,-44.921875,-36.1328125,0.0
1740789290.5404315,-20.01953125,-32.2265625,-39.55078125,-36.62109375,0.0
1740789290.5443373,-21.484375,-36.1328125,-39.55078125,-33.203125,0.0
1740789290.548243,-33.69140625,-50.78125,-45.41015625,-30.76171875,0.0
1740789290.552149,-34.1796875,-46.38671875,-50.29296875,-32.71484375,0.0
1740789290.5560548,-32.71484375,-35.15625,-48.33984375,-34.66796875,0.0
1740789290.5599606,-31.73828125,-35.64453125,-45.8984375,-30.2734375,0.0
1740789290.5638664,-29.78515625,-37.59765625,-44.43359375,-32.71484375,0.0
1740789290.5677724,-41.015625,-40.0390625,-49.31640625,-38.57421875,0.0
1740789290.5716803,-40.0390625,-43.45703125,-48.33984375,-33.203125,0.0
1740789290.575586,-30.2734375,-42.48046875,-43.9453125,-27.34375,0.0
1740789290.5794919,-28.3203125,-41.50390625,-44.921875,-28.80859375,0.0
1740789290.5833979,-27.34375,-40.52734375,-44.43359375,-27.83203125,0.0
1740789290.5873036,-27.34375,-37.109375,-48.828125,-26.85546875,0.0
1740789290.5912094,-31.25,-44.921875,-52.734375,-26.3671875,0.0
1740789290.5951152,-32.71484375,-49.31640625,-55.6640625,-30.2734375,0.0
1740789290.599021,-28.3203125,-39.55078125,-51.26953125,-32.2265625,0.0
1740789290.602927,-20.99609375,-32.71484375,-44.43359375,-23.92578125,0.0
1740789290.6068327,-19.04296875,-30.76171875,-45.41015625,-23.4375,0.0
1740789290.6107385,-24.4140625,-31.25,-42.96875,-25.390625,0.0
1740789290.6146443,-25.87890625,-33.69140625,-41.9921875,-25.390625,0.0
1740789290.618552,-23.4375,-36.62109375,-42.48046875,-22.4609375,0.0
1740789290.6224577,-21.484375,-39.0625,-40.0390625,-20.99609375,0.0
1740789290.6263638,-13.18359375,-33.203125,-41.9921875,-23.4375,0.0
1740789290.6302695,-5.859375,-27.83203125,-44.921875,-24.4140625,0.0
1740789290.6341753,-13.18359375,-32.71484375,-42.48046875,-29.296875,0.0
1740789290.638081,-17.578125,-33.203125,-41.9921875,-28.80859375,0.0
1740789290.641987,-20.01953125,-33.203125,-46.38671875,-29.296875,0.0
1740789290.6458929,-26.3671875,-30.2734375,-47.8515625,-30.2734375,0.0
1740789290.6497986,-32.2265625,-29.296875,-43.9453125,-30.2734375,0.0
1740789290.6537044,-33.69140625,-39.55078125,-41.50390625,-34.1796875,0.0
1740789290.6576104,-28.3203125,-25.87890625,-48.828125,-36.62109375,0.0
1740789290.6615162,-33.69140625,-21.484375,-51.26953125,-38.0859375,0.0
1740789290.6654263,-33.69140625,-41.015625,-46.875,-41.50390625,0.0
1740789290.669332,-29.78515625,-39.55078125,-47.8515625,-37.59765625,0.0
1740789290.6732378,-34.66796875,-30.2734375,-41.50390625,-41.50390625,0.0
1740789290.6771436,-31.25,-32.71484375,-35.64453125,-37.109375,0.0
1740789290.6810496,-19.04296875,-32.71484375,-38.0859375,-24.90234375,0.0
1740789290.6849554,-21.484375,-36.62109375,-36.1328125,-27.83203125,0.0
1740789290.6888611,-18.06640625,-28.3203125,-34.66796875,-26.85546875,0.0
1740789290.692767,-12.6953125,-16.11328125,-39.55078125,-23.4375,0.0
1740789290.696673,-20.99609375,-31.73828125,-38.57421875,-22.4609375,0.0
1740789290.7005787,-22.4609375,-41.9921875,-41.015625,-22.4609375,0.0
1740789290.7044845,-23.92578125,-33.203125,-45.41015625,-23.92578125,0.0
1740789290.7083902,-23.92578125,-37.109375,-40.0390625,-26.85546875,0.0
1740789290.7123,-22.94921875,-42.96875,-41.015625,-25.390625,0.0
1740789290.7162058,-29.78515625,-34.66796875,-47.36328125,-25.390625,0.0
1740789290.7201118,-29.78515625,-30.2734375,-46.38671875,-26.3671875,0.0
1740789290.7240176,-25.87890625,-38.0859375,-48.33984375,-34.66796875,0.0
1740789290.7279234,-20.5078125,-44.43359375,-48.828125,-40.0390625,0.0
1740789290.7318292,-21.484375,-43.9453125,-41.50390625,-35.15625,0.0
1740789290.7357352,-21.484375,-39.55078125,-39.0625,-33.69140625,0.0
1740789290.739641,-19.53125,-37.59765625,-40.52734375,-36.1328125,0.0
1740789290.7435467,-19.04296875,-41.9921875,-42.96875,-28.3203125,0.0
1740789290.7474525,-27.34375,-36.62109375,-38.0859375,-27.83203125,0.0
1740789290.7513585,-34.66796875,-31.73828125,-33.203125,-34.66796875,0.0
1740789290.7552643,-23.92578125,-34.66796875,-35.64453125,-32.71484375,0.0
1740789290.7591736,0.0,-34.1796875,-36.62109375,-28.80859375,0.0
1740789290.7630796,0.0,-35.15625,-34.1796875,-26.85546875,0.0
1740789290.7669854,0.0,-33.203125,-36.1328125,-22.4609375,0.0
1740789290.7708912,0.0,-35.15625,-41.50390625,-24.90234375,0.0
1740789290.774797,0.0,-36.1328125,-39.0625,-32.2265625,0.0
1740789290.778703,0.0,-36.62109375,-39.0625,-34.1796875,0.0
1740789290.7826087,0.0,-33.203125,-39.55078125,-36.1328125,0.0
1740789290.7865145,0.0,-31.73828125,-37.109375,-36.62109375,0.0
1740789290.7904203,0.0,-36.1328125,-30.76171875,-25.87890625,0.0
1740789290.7943263,0.0,-24.4140625,-28.80859375,-23.92578125,0.0
1740789290.798232,0.0,-20.5078125,-33.203125,-25.87890625,0.0
1740789290.8021379,0.0,-28.80859375,-40.0390625,-26.3671875,0.0
1740789290.806047,-23.4375,-31.73828125,-46.38671875,-37.59765625,0.0
1740789290.8099527,-25.390625,-30.2734375,-45.8984375,-42.96875,0.0
1740789290.8138587,-25.87890625,-29.78515625,-46.875,-37.59765625,0.0
1740789290.8177645,-30.76171875,-30.76171875,-48.33984375,-37.59765625,0.0
1740789290.8216703,-32.2265625,-35.64453125,-43.9453125,-40.0390625,0.0
1740789290.825576,-27.34375,-37.109375,-40.0390625,-33.203125,0.0
1740789290.829482,-22.4609375,-34.1796875,-36.62109375,-31.25,0.0
1740789290.8333879,-23.4375,-42.96875,-42.96875,-26.3671875,0.0
1740789290.8372936,-38.57421875,-41.015625,-46.38671875,-26.3671875,0.0
1740789290.8411994,-36.62109375,-29.296875,-45.41015625,-31.73828125,0.0
1740789290.8451054,-25.390625,-37.59765625,-44.43359375,-26.3671875,0.0
1740789290.8490112,-34.1796875,-43.9453125,-42.48046875,-33.203125,0.0
1740789290.8529227,-32.71484375,-34.66796875,-47.8515625,-38.57421875,0.0
1740789290.8568285,-28.3203125,-28.80859375,-48.33984375,-35.64453125,0.0
1740789290.8607345,-31.73828125,-38.57421875,-45.8984375,-27.34375,0.0
1740789290.8646402,-35.15625,-41.015625,-47.36328125,-29.78515625,0.0
1740789290.868546,-32.2265625,-36.62109375,-45.41015625,-38.57421875,0.0
1740789290.8724518,-28.80859375,-33.69140625,-42.48046875,-30.76171875,0.0
1740789290.8763578,-27.83203125,-33.203125,-44.43359375,-30.76171875,0.0
1740789290.8802636,-26.85546875,-40.0390625,-45.8984375,-31.73828125,0.0
1740789290.8841693,-24.90234375,-31.25,-46.875,-31.25,0.0
1740789290.888075,-23.4375,-28.3203125,-47.36328125,-39.0625,0.0
1740789290.8919811,-20.99609375,-29.78515625,-40.52734375,-33.203125,0.0
1740789290.895887,-24.4140625,-24.90234375,-37.109375,-23.4375,0.0
1740789290.899795,-24.90234375,-25.87890625,-40.0390625,-20.99609375,0.0
1740789290.9037008,-19.53125,-29.78515625,-46.38671875,-27.83203125,0.0
1740789290.9076066,-22.94921875,-31.25,-46.38671875,-36.62109375,0.0
1740789290.9115124,-26.85546875,-30.2734375,-44.921875,-34.66796875,0.0
1740789290.9154184,-32.2265625,-29.78515625,-39.55078125,-27.34375,0.0
1740789290.9193242,-31.25,-31.25,-37.59765625,-24.90234375,0.0
1740789290.92323,-23.4375,-28.80859375,-44.43359375,-28.80859375,0.0
1740789290.9271357,-23.92578125,-25.87890625,-41.015625,-27.83203125,0.0
1740789290.9310417,-21.97265625,-23.4375,-41.9921875,-26.3671875,0.0
1740789290.9349475,-18.5546875,-24.90234375,-46.38671875,-23.4375,0.0
1740789290.9388533,-31.25,-40.0390625,-46.38671875,-23.92578125,0.0
1740789290.942759,-36.62109375,-38.0859375,-52.734375,-26.3671875,0.0
1740789290.946667,-39.55078125,-29.296875,-53.22265625,-30.76171875,0.0
1740789290.9505727,-38.0859375,-34.1796875,-50.78125,-38.57421875,0.0
1740789290.9544787,-34.1796875,-35.15625,-52.24609375,-44.43359375,0.0
1740789290.9583845,-32.2265625,-33.69140625,-49.8046875,-43.9453125,0.0
1740789290.9622903,-25.87890625,-27.83203125,-44.921875,-39.0625,0.0
1740789290.966196,-24.90234375,-29.296875,-40.0390625,-39.55078125,0.0
1740789290.9701018,-20.99609375,-31.25,-38.0859375,-36.62109375,0.0
1740789290.9740078,-21.484375,-25.390625,-40.52734375,-33.69140625,0.0
1740789290.9779136,-23.4375,-27.83203125,-41.50390625,-33.203125,0.0
1740789290.9818194,-18.06640625,-30.2734375,-41.9921875,-32.2265625,0.0
1740789290.9857252,-14.16015625,-31.73828125,-41.9921875,-32.71484375,0.0
1740789290.9896312,-19.04296875,-32.2265625,-45.41015625,-35.15625,0.0
1740789290.9935386,-24.90234375,-29.78515625,-49.8046875,-34.66796875,0.0
1740789290.9974446,-23.92578125,-28.80859375,-49.31640625,-31.73828125,0.0
1740789291.0013504,-16.11328125,-26.3671875,-44.43359375,-26.85546875,0.0
1740789291.0052562,-8.30078125,-24.4140625,-41.9921875,-26.3671875,0.0
1740789291.009162,-15.625,-30.2734375,-44.921875,-31.25,0.0
1740789291.013068,-14.16015625,-41.50390625,-46.875,-21.97265625,0.0
1740789291.0169737,-14.6484375,-34.66796875,-44.921875,-21.97265625,0.0
1740789291.0208795,-23.4375,-23.4375,-40.52734375,-39.55078125,0.0
1740789291.0247853,-21.97265625,-28.3203125,-43.9453125,-42.48046875,0.0
1740789291.0286913,-21.97265625,-36.62109375,-47.36328125,-44.43359375,0.0
1740789291.032597,-24.4140625,-29.78515625,-46.875,-46.875,0.0
1740789291.0365028,-19.04296875,-26.3671875,-41.015625,-36.1328125,0.0
1740789291.040413,-19.53125,-39.0625,-46.38671875,-27.83203125,0.0
1740789291.0443187,-22.94921875,-42.48046875,-52.24609375,-32.2265625,0.0
1740789291.0482244,-19.53125,-33.203125,-48.33984375,-32.71484375,0.0
1740789291.0521305,-20.99609375,-29.296875,-48.828125,-32.2265625,0.0
1740789291.0560362,-14.16015625,-36.1328125,-49.31640625,-32.71484375,0.0
1740789291.059942,-13.18359375,-34.1796875,-51.7578125,-28.3203125,0.0
1740789291.0638478,-18.5546875,-20.5078125,-51.7578125,-25.390625,0.0
1740789291.0677538,-20.01953125,-20.01953125,-46.875,-26.3671875,0.0
1740789291.0716596,-21.97265625,-35.15625,-43.9453125,-31.73828125,0.0
1740789291.0755653,-23.4375,-40.52734375,-46.38671875,-28.80859375,0.0
1740789291.079471,-27.83203125,-28.80859375,-49.8046875,-32.71484375,0.0
1740789291.0833771,-26.3671875,-23.4375,-43.45703125,-33.69140625,0.0
1740789291.0872867,-25.87890625,-31.73828125,-47.36328125,-30.2734375,0.0
1740789291.0911925,-24.90234375,-34.1796875,-54.19921875,-31.73828125,0.0
1740789291.0950983,-19.53125,-24.90234375,-51.26953125,-30.2734375,0.0
1740789291.099004,-21.484375,-30.2734375,-49.31640625,-28.3203125,0.0
1740789291.10291,-26.85546875,-38.57421875,-43.9453125,-25.390625,0.0
1740789291.1068158,-30.2734375,-34.66796875,-40.0390625,-21.97265625,0.0
1740789291.1107216,-24.90234375,-34.66796875,-40.0390625,-21.484375,0.0
1740789291.1146274,-18.5546875,-35.15625,-38.57421875,-20.01953125,0.0
1740789291.1185334,-15.625,-42.96875,-42.48046875,-19.04296875,0.0
1740789291.1224391,-20.5078125,-40.0390625,-46.875,-27.83203125,0.0
1740789291.126345,-20.01953125,-33.69140625,-44.921875,-30.2734375,0.0
1740789291.1302507,-20.01953125,-39.0625,-43.45703125,-23.4375,0.0
1740789291.1341631,-23.92578125,-37.59765625,-44.43359375,-24.90234375,0.0
1740789291.138069,-22.4609375,-30.2734375,-44.43359375,-28.80859375,0.0
1740789291.1419747,-27.83203125,-31.25,-45.8984375,-30.2734375,0.0
1740789291.1458805,-29.78515625,-41.50390625,-45.41015625,-29.78515625,0.0
1740789291.1497865,-24.4140625,-41.9921875,-46.38671875,-26.3671875,0.0
1740789291.1536922,-26.3671875,-38.57421875,-50.29296875,-31.25,0.0
1740789291.157598,-27.34375,-39.55078125,-47.8515625,-39.0625,0.0
1740789291.1615038,-30.76171875,-43.45703125,-44.921875,-35.64453125,0.0
1740789291.1654098,-24.90234375,-41.9921875,-45.8984375,-33.69140625,0.0
1740789291.1693156,-20.5078125,-30.2734375,-48.33984375,-42.96875,0.0
1740789291.1732213,-29.296875,-32.2265625,-47.8515625,-43.45703125,0.0
1740789291.1771271,-23.92578125,-38.0859375,-52.24609375,-40.52734375,0.0
1740789291.1810362,0.0,-34.1796875,-47.8515625,-36.62109375,0.0
1740789291.184942,0.0,-28.3203125,-38.57421875,-35.64453125,0.0
1740789291.1888478,0.0,-29.296875,-41.50390625,-34.66796875,0.0
1740789291.1927536,0.0,-30.2734375,-41.9921875,-25.390625,0.0
1740789291.1966596,0.0,-24.90234375,-38.0859375,-24.4140625,0.0
1740789291.2005653,0.0,-25.87890625,-37.109375,-29.78515625,0.0
1740789291.204471,0.0,-31.73828125,-40.0390625,-28.80859375,0.0
1740789291.208377,0.0,-39.0625,-42.48046875,-29.296875,0.0
1740789291.212283,0.0,-37.59765625,-40.52734375,-31.73828125,0.0
1740789291.2161887,0.0,-33.69140625,-39.0625,-29.78515625,0.0
1740789291.2200944,0.0,-38.0859375,-43.9453125,-31.25,0.0
1740789291.2240002,0.0,-42.48046875,-42.96875,-26.3671875,0.0
1740789291.2279088,-13.18359375,-37.59765625,-40.52734375,-27.34375,0.0
1740789291.2318146,-14.16015625,-28.3203125,-41.9921875,-32.71484375,0.0
1740789291.2357206,-17.578125,-24.90234375,-48.33984375,-32.71484375,0.0
1740789291.2396264,-17.578125,-29.78515625,-55.17578125,-36.1328125,0.0
1740789291.2435322,-17.578125,-32.2265625,-52.734375,-30.76171875,0.0
1740789291.247438,-15.625,-31.25,-49.8046875,-24.4140625,0.0
1740789291.251344,-17.08984375,-26.85546875,-44.43359375,-21.484375,0.0
1740789291.2552497,-21.484375,-35.15625,-43.45703125,-23.4375,0.0
1740789291.2591555,-26.3671875,-31.73828125,-44.43359375,-32.71484375,0.0
1740789291.2630613,-26.3671875,-24.90234375,-47.36328125,-40.0390625,0.0
1740789291.2669673,-29.296875,-30.2734375,-55.17578125,-42.48046875,0.0
1740789291.270873,-30.76171875,-24.90234375,-58.10546875,-39.55078125,0.0
1740789291.2747812,-25.390625,-25.390625,-53.7109375,-39.55078125,0.0
1740789291.278687,-23.92578125,-28.3203125,-44.921875,-45.41015625,0.0
1740789291.2825928,-25.390625,-32.71484375,-41.50390625,-43.9453125,0.0
1740789291.2864988,-30.2734375,-33.69140625,-45.8984375,-43.9453125,0.0
1740789291.2904046,-29.78515625,-32.71484375,-47.8515625,-42.48046875,0.0
1740789291.2943103,-29.296875,-33.69140625,-45.8984375,-38.57421875,0.0
1740789291.298216,-31.73828125,-37.59765625,-46.875,-34.1796875,0.0
1740789291.302122,-32.2265625,-36.1328125,-46.875,-35.15625,0.0
1740789291.306028,-25.87890625,-23.92578125,-41.9921875,-33.69140625,0.0
1740789291.3099337,-22.94921875,-25.390625,-46.875,-33.203125,0.0
1740789291.3138394,-23.4375,-29.296875,-46.875,-35.15625,0.0
1740789291.3177454,-27.34375,-26.85546875,-43.45703125,-33.203125,0.0
1740789291.3216531,-30.2734375,-32.2265625,-47.8515625,-31.73828125,0.0
1740789291.325559,-23.4375,-41.50390625,-46.38671875,-29.78515625,0.0
1740789291.329465,-13.671875,-39.55078125,-42.96875,-30.2734375,0.0
1740789291.3333707,-17.08984375,-37.109375,-43.9453125,-28.80859375,0.0
1740789291.3372765,-27.83203125,-41.50390625,-51.26953125,-33.203125,0.0
1740789291.3411822,-21.97265625,-40.0390625,-50.78125,-35.15625,0.0
1740789291.3450882,-19.04296875,-35.64453125,-44.921875,-31.73828125,0.0
1740789291.348994,-30.76171875,-28.80859375,-44.921875,-38.57421875,0.0
1740789291.3528998,-28.3203125,-20.99609375,-46.38671875,-40.0390625,0.0
1740789291.3568056,-24.4140625,-34.66796875,-45.8984375,-39.55078125,0.0
1740789291.3607116,-22.94921875,-40.52734375,-41.50390625,-34.66796875,0.0
1740789291.3646173,-20.99609375,-33.69140625,-40.52734375,-35.64453125,0.0
1740789291.3685248,-22.94921875,-35.64453125,-43.9453125,-41.015625,0.0
1740789291.3724306,-29.296875,-37.59765625,-41.50390625,-36.1328125,0.0
1740789291.3763363,-26.85546875,-34.1796875,-41.015625,-30.76171875,0.0
1740789291.380242,-19.53125,-28.3203125,-40.0390625,-31.73828125,0.0
1740789291.3841481,-22.4609375,-30.76171875,-34.66796875,-26.85546875,0.0
1740789291.388054,-26.3671875,-40.52734375,-37.59765625,-15.625,0.0
1740789291.3919597,-29.78515625,-41.015625,-47.8515625,-21.484375,0.0
1740789291.3958654,-30.2734375,-37.59765625,-45.41015625,-23.92578125,0.0
1740789291.3997715,-27.34375,-37.59765625,-41.015625,-20.01953125,0.0
1740789291.4036772,-27.83203125,-41.9921875,-45.41015625,-21.484375,0.0
1740789291.407583,-28.3203125,-39.55078125,-41.9921875,-21.484375,0.0
1740789291.4114888,-23.92578125,-30.2734375,-40.52734375,-24.90234375,0.0
1740789291.4153988,-24.4140625,-39.0625,-45.8984375,-27.34375,0.0
1740789291.4193048,-25.87890625,-41.015625,-45.41015625,-28.80859375,0.0
1740789291.4232106,-19.53125,-33.203125,-48.33984375,-28.3203125,0.0
1740789291.4271164,-26.3671875,-41.015625,-53.22265625,-25.390625,0.0
1740789291.4310222,-32.71484375,-42.48046875,-51.26953125,-24.4140625,0.0
1740789291.4349282,-32.2265625,-41.50390625,-51.7578125,-33.203125,0.0
1740789291.438834,-26.85546875,-24.4140625,-36.62109375,-33.69140625,0.0
1740789291.4427397,-17.578125,-13.671875,-24.90234375,-23.4375,0.0
1740789291.4466455,-20.01953125,-22.94921875,-41.015625,-27.83203125,0.0
1740789291.4505515,-29.78515625,-37.59765625,-50.29296875,-39.55078125,0.0
1740789291.4544573,-40.52734375,-26.3671875,-49.31640625,-50.78125,0.0
1740789291.458363,-47.36328125,-15.13671875,-49.31640625,-54.19921875,0.0
1740789291.462273,-67.87109375,-25.87890625,-60.05859375,-71.2890625,0.0
1740789291.4661787,-87.890625,-7.8125,-61.5234375,-91.30859375,0.0
1740789291.4700847,-117.1875,-3.90625,-61.5234375,-115.234375,0.0
1740789291.4739904,-154.78515625,-13.671875,-72.75390625,-150.390625,0.0
1740789291.4778962,-187.5,-9.27734375,-92.7734375,-188.96484375,0.0
1740789291.481802,-222.16796875,1.46484375,-101.07421875,-223.14453125,0.0
1740789291.485708,-243.1640625,14.6484375,-102.5390625,-249.51171875,0.0
1740789291.4896138,-263.18359375,30.2734375,-113.76953125,-270.5078125,0.0
1740789291.4935195,-282.2265625,24.4140625,-118.1640625,-274.90234375,0.0
1740789291.4974253,-275.390625,23.92578125,-112.79296875,-272.94921875,0.0
1740789291.5013313,-282.71484375,38.57421875,-104.98046875,-282.71484375,0.0
1740789291.505237,-284.66796875,30.2734375,-104.00390625,-279.296875,0.0
1740789291.5091465,-271.97265625,20.01953125,-105.95703125,-268.5546875,0.0
1740789291.5130525,-253.90625,21.484375,-102.05078125,-253.90625,0.0
1740789291.5169582,-231.93359375,19.04296875,-94.23828125,-231.4453125,0.0
1740789291.520864,-209.47265625,7.8125,-84.9609375,-209.47265625,0.0
1740789291.5247698,-195.80078125,-2.44140625,-80.078125,-188.96484375,0.0
1740789291.5286758,-181.15234375,-9.27734375,-80.078125,-168.9453125,0.0
1740789291.5325816,-153.80859375,-16.6015625,-75.68359375,-149.4140625,0.0
1740789291.5364873,-139.16015625,-26.85546875,-71.2890625,-141.6015625,0.0
1740789291.540393,-123.53515625,-30.76171875,-65.4296875,-122.0703125,0.0
1740789291.5442991,-106.93359375,-32.71484375,-58.10546875,-102.5390625,0.0
1740789291.548205,-91.796875,-38.0859375,-57.12890625,-85.9375,0.0
1740789291.5521107,-73.2421875,-46.875,-54.6875,-68.359375,0.0
1740789291.5560195,-56.15234375,-51.26953125,-46.38671875,-54.19921875,0.0
1740789291.5599256,-41.015625,-51.7578125,-37.59765625,-37.109375,0.0
1740789291.5638313,-33.203125,-65.91796875,-42.96875,-28.80859375,0.0
1740789291.567737,-17.578125,-66.40625,-44.43359375,-16.6015625,0.0
1740789291.5716429,-4.8828125,-59.5703125,-37.109375,-10.25390625,0.0
1740789291.575549,-3.90625,-61.5234375,-41.50390625,-5.859375,0.0
1740789291.5794547,1.953125,-63.96484375,-37.109375,6.34765625,0.0
1740789291.5833604,17.08984375,-63.96484375,-30.76171875,18.06640625,0.0
1740789291.5872662,26.85546875,-57.12890625,-28.80859375,24.90234375,0.0
1740789291.5911722,27.83203125,-61.5234375,-31.73828125,15.625,0.0
1740789291.595078,33.203125,-70.3125,-34.66796875,20.99609375,0.0
1740789291.5989838,37.109375,-67.3828125,-30.76171875,32.71484375,0.0
1740789291.6028922,38.57421875,-67.87109375,-33.203125,31.73828125,0.0
1740789291.6067982,39.55078125,-67.87109375,-33.69140625,32.2265625,0.0
1740789291.610704,50.29296875,-63.4765625,-32.71484375,39.0625,0.0
1740789291.6146097,53.22265625,-58.10546875,-37.59765625,40.52734375,0.0
1740789291.6185155,51.26953125,-62.5,-32.71484375,42.96875,0.0
1740789291.6224215,57.12890625,-65.91796875,-22.94921875,48.33984375,0.0
1740789291.6263273,59.08203125,-60.05859375,-21.484375,47.8515625,0.0
1740789291.630233,54.6875,-51.7578125,-23.92578125,52.24609375,0.0
1740789291.6341388,50.78125,-42.96875,-20.01953125,55.6640625,0.0
1740789291.6380448,55.17578125,-46.875,-15.13671875,52.24609375,0.0
1740789291.6419506,58.59375,-55.6640625,-14.6484375,53.22265625,0.0
1740789291.6458564,55.6640625,-56.15234375,-20.01953125,52.734375,0.0
1740789291.6497645,57.12890625,-46.38671875,-19.04296875,49.8046875,0.0
1740789291.6536703,52.734375,-43.9453125,-16.11328125,53.22265625,0.0
1740789291.657576,47.36328125,-51.26953125,-16.11328125,44.43359375,0.0
1740789291.6614819,46.38671875,-54.19921875,-18.06640625,36.62109375,0.0
1740789291.6653879,37.109375,-50.78125,-22.4609375,36.62109375,0.0
1740789291.6692936,40.52734375,-51.7578125,-23.92578125,32.71484375,0.0
1740789291.6731994,49.8046875,-53.7109375,-26.85546875,33.69140625,0.0
1740789291.6771052,49.8046875,-55.6640625,-31.25,43.45703125,0.0
1740789291.6810112,48.33984375,-45.8984375,-29.296875,38.57421875,0.0
1740789291.684917,48.33984375,-44.43359375,-24.4140625,31.25,0.0
1740789291.6888227,50.29296875,-46.38671875,-26.85546875,34.66796875,0.0
1740789291.6927285,41.50390625,-41.50390625,-28.3203125,30.76171875,0.0
1740789291.6966362,38.57421875,-43.45703125,-27.83203125,27.34375,0.0
1740789291.7005422,43.45703125,-43.9453125,-24.90234375,30.2734375,0.0
1740789291.704448,36.1328125,-41.015625,-24.90234375,26.3671875,0.0
1740789291.7083538,33.69140625,-35.15625,-31.73828125,28.3203125,0.0
1740789291.7122595,30.76171875,-42.96875,-34.1796875,30.2734375,0.0
1740789291.7161655,24.90234375,-55.17578125,-33.203125,29.296875,0.0
1740789291.7200713,23.92578125,-52.734375,-35.15625,25.87890625,0.0
1740789291.723977,17.578125,-42.48046875,-31.25,17.578125,0.0
1740789291.7278829,20.99609375,-42.48046875,-32.2265625,10.25390625,0.0
1740789291.7317889,27.34375,-48.33984375,-28.3203125,13.18359375,0.0
1740789291.7356946,28.80859375,-43.45703125,-20.99609375,10.7421875,0.0
1740789291.7396004,27.83203125,-40.52734375,-25.390625,0.9765625,0.0
1740789291.7435079,16.6015625,-41.9921875,-26.3671875,-1.46484375,0.0
1740789291.7474136,19.04296875,-43.9453125,-25.87890625,4.8828125,0.0
1740789291.7513196,10.25390625,-45.8984375,-33.203125,1.46484375,0.0
1740789291.7552254,2.9296875,-44.43359375,-34.1796875,-1.46484375,0.0
1740789291.7591312,4.8828125,-44.43359375,-34.66796875,2.9296875,0.0
1740789291.763037,3.90625,-48.828125,-38.0859375,2.9296875,0.0
1740789291.766943,8.7890625,-41.50390625,-36.1328125,6.8359375,0.0
1740789291.7708488,9.27734375,-26.85546875,-37.59765625,6.8359375,0.0
1740789291.7747545,3.90625,-31.73828125,-41.015625,-7.32421875,0.0
1740789291.7786603,3.90625,-42.48046875,-40.0390625,-7.8125,0.0
1740789291.7825663,0.0,-37.109375,-39.55078125,-3.41796875,0.0
1740789291.786472,-0.9765625,-31.25,-36.1328125,-8.30078125,0.0
1740789291.7903821,0.48828125,-35.64453125,-36.1328125,-7.32421875,0.0
1740789291.794288,-0.9765625,-37.59765625,-35.15625,-8.7890625,0.0
1740789291.7981937,3.90625,-29.78515625,-34.66796875,-15.625,0.0
1740789291.8020995,4.39453125,-20.5078125,-41.015625,-15.13671875,0.0
1740789291.8060055,-0.9765625,-31.73828125,-41.9921875,-16.11328125,0.0
1740789291.8099113,-2.9296875,-40.0390625,-38.57421875,-18.06640625,0.0
1740789291.813817,-3.41796875,-32.2265625,-35.64453125,-15.625,0.0
1740789291.8177228,-6.34765625,-31.25,-35.64453125,-17.578125,0.0
1740789291.8216288,-13.671875,-41.50390625,-40.0390625,-20.99609375,0.0
1740789291.8255346,-18.06640625,-43.45703125,-41.50390625,-17.578125,0.0
1740789291.8294404,-11.71875,-28.80859375,-39.0625,-11.71875,0.0
1740789291.8333461,-1.46484375,-25.390625,-34.1796875,-5.859375,0.0
1740789291.8372562,-13.18359375,-35.15625,-38.57421875,-18.5546875,0.0
1740789291.841162,-18.5546875,-40.0390625,-43.45703125,-25.390625,0.0
1740789291.8450677,-5.37109375,-36.1328125,-41.9921875,-17.578125,0.0
1740789291.8489735,-13.18359375,-33.203125,-41.50390625,-22.94921875,0.0
1740789291.8528795,-22.94921875,-40.52734375,-45.41015625,-28.80859375,0.0
1740789291.8567853,-20.99609375,-42.48046875,-49.31640625,-28.3203125,0.0
1740789291.860691,-18.06640625,-40.0390625,-44.43359375,-27.83203125,0.0
1740789291.8645968,-13.18359375,-40.0390625,-46.875,-22.4609375,0.0
1740789291.8685029,-10.25390625,-42.48046875,-47.36328125,-16.6015625,0.0
1740789291.8724086,-9.27734375,-39.0625,-42.48046875,-21.97265625,0.0
1740789291.8763144,-8.7890625,-27.83203125,-43.9453125,-23.92578125,0.0
1740789291.8802202,-9.765625,-27.34375,-47.36328125,-23.4375,0.0
1740789291.8841298,-14.6484375,-31.25,-46.875,-23.92578125,0.0
1740789291.8880355,-14.6484375,-31.73828125,-46.875,-27.83203125,0.0
1740789291.8919413,-19.53125,-27.83203125,-47.8515625,-30.76171875,0.0
1740789291.895847,-22.4609375,-24.90234375,-47.8515625,-28.80859375,0.0
1740789291.899753,-15.625,-25.87890625,-52.24609375,-30.2734375,0.0
1740789291.9036589,-20.5078125,-35.64453125,-48.33984375,-32.2265625,0.0
1740789291.9075646,-25.87890625,-35.15625,-45.41015625,-39.55078125,0.0
1740789291.9114704,-28.3203125,-32.71484375,-48.33984375,-44.43359375,0.0
1740789291.9153764,-24.90234375,-34.66796875,-43.9453125,-34.66796875,0.0
1740789291.9192822,-18.06640625,-26.3671875,-41.015625,-23.4375,0.0
1740789291.923188,-23.4375,-28.80859375,-41.015625,-23.4375,0.0
1740789291.9270937,-24.90234375,-30.2734375,-46.38671875,-26.3671875,0.0
1740789291.9310029,-20.5078125,-22.94921875,-41.9921875,-23.92578125,0.0
1740789291.9349089,-21.97265625,-27.83203125,-31.73828125,-24.90234375,0.0
1740789291.9388146,-23.4375,-37.109375,-36.62109375,-31.73828125,0.0
1740789291.9427204,-25.87890625,-38.0859375,-42.48046875,-39.55078125,0.0
1740789291.9466262,-23.4375,-36.62109375,-36.62109375,-38.57421875,0.0
1740789291.9505322,-28.80859375,-41.9921875,-36.62109375,-37.109375,0.0
1740789291.954438,-31.73828125,-40.0390625,-43.9453125,-38.0859375,0.0
1740789291.9583437,-20.01953125,-47.36328125,-43.9453125,-35.64453125,0.0
1740789291.9622495,-18.06640625,-45.41015625,-41.50390625,-25.390625,0.0
1740789291.9661555,-18.5546875,-31.73828125,-42.48046875,-23.92578125,0.0
1740789291.9700613,-19.04296875,-42.96875,-41.50390625,-27.34375,0.0
1740789291.973967,-24.90234375,-47.36328125,-42.48046875,-29.296875,0.0
1740789291.9778757,-30.76171875,-43.45703125,-48.828125,-36.62109375,0.0
1740789291.9817815,-31.25,-44.43359375,-46.875,-36.1328125,0.0
1740789291.9856873,-24.4140625,-41.015625,-45.41015625,-29.296875,0.0
1740789291.989593,-22.94921875,-37.109375,-45.8984375,-30.2734375,0.0
1740789291.993499,-22.94921875,-36.62109375,-36.1328125,-33.203125,0.0
1740789291.9974048,-22.94921875,-45.8984375,-38.0859375,-29.78515625,0.0
1740789292.0013106,-33.203125,-55.17578125,-48.33984375,-29.296875,0.0
1740789292.0052164,-38.57421875,-56.640625,-50.29296875,-31.73828125,0.0
1740789292.0091224,-35.64453125,-47.8515625,-43.45703125,-33.69140625,0.0
1740789292.0130281,-36.1328125,-40.52734375,-43.45703125,-33.203125,0.0
1740789292.016934,-28.80859375,-37.109375,-44.43359375,-30.76171875,0.0
1740789292.0208397,-24.4140625,-31.73828125,-41.50390625,-36.1328125,0.0
1740789292.024748,-29.296875,-37.109375,-42.48046875,-40.0390625,0.0
1740789292.028654,-31.25,-41.015625,-42.48046875,-37.59765625,0.0
1740789292.0325599,-31.73828125,-39.0625,-48.828125,-42.48046875,0.0
1740789292.0364656,-31.73828125,-37.59765625,-51.26953125,-45.8984375,0.0
1740789292.0403714,-34.66796875,-36.62109375,-44.43359375,-43.9453125,0.0
1740789292.0442774,-38.57421875,-43.45703125,-43.9453125,-40.0390625,0.0
1740789292.0481832,-31.73828125,-44.43359375,-45.8984375,-25.87890625,0.0
1740789292.052089,-21.97265625,-32.2265625,-40.0390625,-23.4375,0.0
1740789292.0559947,-25.390625,-20.01953125,-39.55078125,-29.78515625,0.0
1740789292.0599008,-30.76171875,-26.3671875,-45.8984375,-21.97265625,0.0
1740789292.0638065,-25.390625,-32.2265625,-49.8046875,-21.484375,0.0
1740789292.0677123,-18.5546875,-29.296875,-48.33984375,-26.85546875,0.0
1740789292.0716202,-17.08984375,-28.80859375,-45.41015625,-26.3671875,0.0
1740789292.0755262,-21.484375,-28.80859375,-42.48046875,-29.78515625,0.0
1740789292.079432,-21.484375,-26.85546875,-39.55078125,-32.71484375,0.0
1740789292.0833378,-25.390625,-36.1328125,-41.9921875,-34.66796875,0.0
1740789292.0872436,-26.3671875,-36.62109375,-43.9453125,-38.0859375,0.0
1740789292.0911496,-22.4609375,-33.69140625,-43.45703125,-33.69140625,0.0
1740789292.0950553,-20.5078125,-34.66796875,-42.96875,-26.85546875,0.0
1740789292.098961,-23.4375,-23.92578125,-41.9921875,-30.2734375,0.0
1740789292.102867,-28.80859375,-23.4375,-45.41015625,-34.66796875,0.0
1740789292.106773,-21.484375,-33.203125,-41.50390625,-32.71484375,0.0
1740789292.1106787,-25.390625,-36.1328125,-36.62109375,-32.71484375,0.0
1740789292.1145844,-28.3203125,-30.2734375,-38.57421875,-34.1796875,0.0
1740789292.118495,-19.53125,-32.2265625,-41.9921875,-31.73828125,0.0
1740789292.122401,-24.90234375,-38.57421875,-48.33984375,-31.73828125,0.0
1740789292.1263068,-25.87890625,-34.66796875,-47.8515625,-31.25,0.0
1740789292.1302125,-28.80859375,-29.78515625,-45.41015625,-31.25,0.0
1740789292.1341183,-27.83203125,-38.0859375,-50.78125,-35.64453125,0.0
1740789292.1380243,-22.4609375,-44.43359375,-51.26953125,-34.1796875,0.0
1740789292.14193,-20.5078125,-34.1796875,-46.875,-31.73828125,0.0
1740789292.1458359,-20.5078125,-22.94921875,-45.8984375,-31.73828125,0.0
1740789292.1497416,-17.08984375,-25.87890625,-47.36328125,-32.71484375,0.0
1740789292.1536477,-17.08984375,-37.109375,-44.921875,-32.2265625,0.0
1740789292.1575534,-18.5546875,-33.69140625,-43.9453125,-32.71484375,0.0
1740789292.1614592,-14.16015625,-23.92578125,-43.9453125,-32.71484375,0.0
1740789292.1653693,-18.5546875,-27.83203125,-36.62109375,-27.83203125,0.0
1740789292.169275,-17.578125,-23.4375,-33.203125,-25.87890625,0.0
1740789292.1731808,-20.5078125,-17.578125,-37.109375,-28.3203125,0.0
1740789292.1770866,-27.83203125,-25.390625,-40.0390625,-27.83203125,0.0
1740789292.1809926,-25.87890625,-32.71484375,-40.0390625,-26.85546875,0.0
1740789292.1848984,-22.4609375,-37.109375,-35.15625,-29.296875,0.0
1740789292.1888041,-22.4609375,-37.59765625,-35.15625,-31.25,0.0
1740789292.19271,-20.5078125,-28.80859375,-35.15625,-28.80859375,0.0
1740789292.196616,-20.5078125,-32.2265625,-34.1796875,-27.34375,0.0
1740789292.2005217,-24.90234375,-42.48046875,-38.0859375,-28.80859375,0.0
1740789292.2044275,-24.90234375,-27.83203125,-39.0625,-28.3203125,0.0
1740789292.2083333,-22.4609375,-29.296875,-39.55078125,-27.83203125,0.0
1740789292.212243,-17.578125,-41.50390625,-37.109375,-23.4375,0.0
1740789292.2161489,-18.5546875,-41.015625,-35.15625,-21.97265625,0.0
1740789292.2200546,-20.01953125,-40.0390625,-36.62109375,-25.87890625,0.0
1740789292.2239606,-19.04296875,-33.203125,-38.57421875,-20.99609375,0.0
1740789292.2278664,-18.06640625,-32.71484375,-41.9921875,-17.578125,0.0
1740789292.2317722,-18.06640625,-32.71484375,-48.33984375,-27.34375,0.0
1740789292.235678,-19.53125,-27.83203125,-52.734375,-36.1328125,0.0
1740789292.239584,-20.5078125,-26.85546875,-50.29296875,-37.109375,0.0
1740789292.2434897,-20.99609375,-40.0390625,-40.52734375,-32.71484375,0.0
1740789292.2473955,-23.4375,-46.38671875,-33.69140625,-20.99609375,0.0
1740789292.2513013,-21.97265625,-31.73828125,-36.1328125,-19.04296875,0.0
1740789292.2552073,-19.53125,-32.71484375,-35.64453125,-24.90234375,0.0
1740789292.2591164,-17.578125,-32.71484375,-42.48046875,-25.390625,0.0
1740789292.2630224,-21.484375,-25.390625,-49.31640625,-23.92578125,0.0
1740789292.2669282,-17.578125,-26.3671875,-41.50390625,-21.97265625,0.0
1740789292.270834,-15.13671875,-28.80859375,-36.62109375,-19.53125,0.0
1740789292.2747397,-14.16015625,-26.85546875,-38.57421875,-15.625,0.0
1740789292.2786458,-10.7421875,-28.80859375,-38.57421875,-16.6015625,0.0
1740789292.2825515,-19.04296875,-31.73828125,-41.50390625,-28.3203125,0.0
1740789292.2864573,-20.99609375,-32.71484375,-40.52734375,-27.83203125,0.0
1740789292.290363,-22.4609375,-41.015625,-44.921875,-25.390625,0.0
1740789292.294269,-23.92578125,-33.69140625,-45.8984375,-31.73828125,0.0
1740789292.2981749,-27.34375,-25.390625,-42.48046875,-27.83203125,0.0
1740789292.3020806,-33.69140625,-35.64453125,-45.8984375,-26.85546875,0.0
1740789292.3059897,-29.296875,-39.55078125,-51.7578125,-32.2265625,0.0
1740789292.3098958,-27.83203125,-35.64453125,-55.6640625,-39.0625,0.0
1740789292.3138015,-30.2734375,-37.109375,-45.8984375,-36.1328125,0.0
1740789292.3177073,-26.85546875,-37.59765625,-45.41015625,-33.69140625,0.0
1740789292.321613,-26.3671875,-35.15625,-46.38671875,-35.64453125,0.0
1740789292.325519,-24.4140625,-43.45703125,-41.015625,-31.73828125,0.0
1740789292.3294249,-20.99609375,-45.41015625,-42.96875,-34.66796875,0.0
1740789292.3333306,-26.3671875,-50.29296875,-44.921875,-36.62109375,0.0
1740789292.3372364,-28.80859375,-48.33984375,-45.41015625,-31.73828125,0.0
1740789292.3411424,-25.87890625,-35.64453125,-45.41015625,-34.66796875,0.0
1740789292.3450482,-25.390625,-41.015625,-48.33984375,-38.57421875,0.0
1740789292.348954,-24.90234375,-42.48046875,-52.734375,-32.2265625,0.0
1740789292.3528624,-24.90234375,-42.96875,-46.38671875,-25.87890625,0.0
1740789292.3567684,-24.4140625,-44.921875,-43.45703125,-22.94921875,0.0
1740789292.3606741,-17.08984375,-36.62109375,-47.36328125,-20.01953125,0.0
1740789292.36458,-13.18359375,-30.76171875,-39.55078125,-15.625,0.0
1740789292.3684857,-14.16015625,-32.2265625,-35.15625,-15.625,0.0
1740789292.3723917,-22.94921875,-37.109375,-46.875,-20.01953125,0.0
1740789292.3762975,-32.2265625,-43.9453125,-48.33984375,-25.390625,0.0
1740789292.3802032,-27.83203125,-46.38671875,-45.8984375,-29.296875,0.0
1740789292.384109,-31.25,-36.1328125,-49.8046875,-31.73828125,0.0
1740789292.388015,-28.80859375,-33.203125,-45.8984375,-32.2265625,0.0
1740789292.3919208,-25.390625,-36.62109375,-42.48046875,-29.296875,0.0
1740789292.3958266,-27.34375,-35.64453125,-43.45703125,-24.4140625,0.0
1740789292.3997347,-15.625,-30.2734375,-42.48046875,-15.625,0.0
1740789292.4036405,-14.16015625,-24.4140625,-36.1328125,-15.13671875,0.0
1740789292.4075463,-16.11328125,-27.34375,-35.64453125,-25.87890625,0.0
1740789292.4114523,-15.625,-32.71484375,-39.0625,-33.203125,0.0
1740789292.415358,-15.13671875,-28.80859375,-32.2265625,-30.2734375,0.0
1740789292.4192638,-13.18359375,-28.80859375,-32.2265625,-27.83203125,0.0
1740789292.4231696,-23.4375,-37.59765625,-37.109375,-26.85546875,0.0
1740789292.4270756,-25.87890625,-33.203125,-34.66796875,-27.34375,0.0
1740789292.4309814,-20.99609375,-25.87890625,-34.1796875,-31.25,0.0
1740789292.4348872,-20.01953125,-26.85546875,-35.64453125,-32.2265625,0.0
1740789292.438793,-17.578125,-30.2734375,-41.015625,-29.78515625,0.0
1740789292.442699,-16.6015625,-31.25,-42.48046875,-30.2734375,0.0
1740789292.4466069,-15.625,-33.203125,-36.1328125,-30.2734375,0.0
1740789292.4505126,-17.08984375,-39.55078125,-36.1328125,-27.83203125,0.0
1740789292.4544184,-19.53125,-37.59765625,-36.1328125,-22.94921875,0.0
1740789292.4583244,-20.99609375,-31.25,-33.69140625,-18.5546875,0.0
1740789292.4622302,-12.6953125,-30.76171875,-32.71484375,-17.08984375,0.0
1740789292.466136,-8.30078125,-37.109375,-31.73828125,-12.20703125,0.0
1740789292.4700418,-7.8125,-40.52734375,-35.15625,-17.08984375,0.0
1740789292.4739478,-15.625,-34.66796875,-39.0625,-30.2734375,0.0
1740789292.4778535,-19.04296875,-32.2265625,-38.0859375,-28.80859375,0.0
1740789292.4817593,-11.23046875,-37.109375,-37.59765625,-22.94921875,0.0
1740789292.485665,-15.625,-40.0390625,-35.64453125,-23.92578125,0.0
1740789292.489571,-22.94921875,-33.69140625,-40.0390625,-32.2265625,0.0
1740789292.4934785,0.0,-30.2734375,-40.52734375,-37.109375,0.0
1740789292.4973845,0.0,-33.203125,-38.0859375,-27.34375,0.0
1740789292.5012903,0.0,-34.1796875,-44.43359375,-20.01953125,0.0
1740789292.505196,0.0,-34.1796875,-44.921875,-20.99609375,0.0
1740789292.5091019,0.0,-34.66796875,-42.96875,-22.94921875,0.0
1740789292.5130079,0.0,-43.9453125,-39.0625,-18.06640625,0.0
1740789292.5169137,0.0,-43.45703125,-38.57421875,-19.04296875,0.0
1740789292.5208194,0.0,-36.1328125,-39.55078125,-28.3203125,0.0
1740789292.5247252,0.0,-38.57421875,-38.0859375,-30.2734375,0.0
1740789292.5286312,0.0,-41.50390625,-43.45703125,-24.4140625,0.0
1740789292.532537,0.0,-34.1796875,-45.41015625,-18.5546875,0.0
1740789292.5364428,0.0,-32.2265625,-43.9453125,-22.94921875,0.0
1740789292.5403528,-30.76171875,-41.50390625,-42.96875,-22.94921875,0.0
1740789292.5442586,-27.83203125,-36.62109375,-44.43359375,-25.390625,0.0
1740789292.5481644,-27.34375,-33.69140625,-48.828125,-37.109375,0.0
1740789292.5520704,-24.4140625,-28.3203125,-45.8984375,-35.15625,0.0
1740789292.5559762,-24.90234375,-24.90234375,-41.015625,-36.62109375,0.0
1740789292.559882,-30.76171875,-37.109375,-44.43359375,-38.0859375,0.0
1740789292.5637877,-29.78515625,-36.1328125,-42.48046875,-32.2265625,0.0
1740789292.5676937,-34.66796875,-29.78515625,-42.48046875,-32.2265625,0.0
1740789292.5715995,-28.3203125,-39.0625,-42.48046875,-27.83203125,0.0
1740789292.5755053,-15.625,-32.2265625,-37.109375,-16.6015625,0.0
1740789292.579411,-18.06640625,-22.94921875,-37.59765625,-21.97265625,0.0
1740789292.583317,-19.04296875,-35.64453125,-41.015625,-25.87890625,0.0
1740789292.5872266,-25.390625,-44.43359375,-45.8984375,-22.94921875,0.0
1740789292.5911326,-27.34375,-40.52734375,-48.33984375,-27.34375,0.0
1740789292.5950384,-21.484375,-37.109375,-43.9453125,-28.80859375,0.0
1740789292.5989442,-19.53125,-37.59765625,-40.0390625,-27.83203125,0.0
1740789292.60285,-24.4140625,-36.62109375,-37.109375,-37.109375,0.0
1740789292.606756,-33.69140625,-39.0625,-40.0390625,-41.9921875,0.0
