timestamps,TP9,AF7,AF8,TP10,Right AUX
1740447644.804305,-52.734375,-90.33203125,-36.1328125,-49.31640625,0.0
1740447644.8082108,-55.17578125,-81.54296875,-38.57421875,-62.5,0.0
1740447644.8121166,-59.08203125,-83.984375,-40.0390625,-54.6875,0.0
1740447644.8160224,-50.29296875,-87.890625,-43.9453125,-52.734375,0.0
1740447644.8199282,-53.7109375,-78.125,-47.36328125,-63.4765625,0.0
1740447644.823834,-47.8515625,-83.49609375,-43.9453125,-62.01171875,0.0
1740447644.8277397,-41.015625,-84.9609375,-37.59765625,-61.5234375,0.0
1740447644.8316455,-46.38671875,-88.37890625,-40.0390625,-53.22265625,0.0
1740447644.835551,-42.96875,-88.37890625,-39.0625,-55.6640625,0.0
1740447644.8394568,-45.41015625,-81.54296875,-40.52734375,-62.5,0.0
1740447644.8433626,-51.7578125,-83.984375,-44.43359375,-56.15234375,0.0
1740447644.8472683,-61.03515625,-87.890625,-47.8515625,-66.89453125,0.0
1740447644.8511772,-43.9453125,-82.51953125,-45.41015625,-70.3125,0.0
1740447644.855083,-38.0859375,-81.54296875,-44.921875,-62.98828125,0.0
1740447644.8589888,-40.52734375,-82.51953125,-40.0390625,-63.96484375,0.0
1740447644.8628945,-40.0390625,-81.0546875,-37.59765625,-60.05859375,0.0
1740447644.8668003,-49.8046875,-82.51953125,-40.0390625,-59.5703125,0.0
1740447644.870706,-51.7578125,-84.9609375,-39.55078125,-66.89453125,0.0
1740447644.8746119,-60.05859375,-82.03125,-45.41015625,-65.91796875,0.0
1740447644.8785176,-63.96484375,-91.30859375,-44.921875,-56.15234375,0.0
1740447644.8824234,-51.26953125,-75.1953125,-38.57421875,-64.453125,0.0
1740447644.8863292,-47.8515625,-78.61328125,-41.50390625,-66.89453125,0.0
1740447644.890235,-52.734375,-85.44921875,-46.38671875,-57.6171875,0.0
1740447644.8941407,-48.33984375,-72.265625,-42.48046875,-56.640625,0.0
1740447644.898049,-52.734375,-75.1953125,-42.96875,-61.03515625,0.0
1740447644.901955,-56.640625,-81.0546875,-46.38671875,-52.24609375,0.0
1740447644.9058607,-46.38671875,-85.9375,-49.31640625,-55.6640625,0.0
1740447644.9097664,-45.8984375,-86.42578125,-38.57421875,-62.5,0.0
1740447644.9136722,-58.10546875,-90.33203125,-36.1328125,-64.453125,0.0
1740447644.9175777,-59.5703125,-80.56640625,-39.0625,-61.5234375,0.0
1740447644.9214835,-60.546875,-86.42578125,-45.41015625,-67.3828125,0.0
1740447644.9253893,-69.3359375,-97.16796875,-49.8046875,-81.54296875,0.0
1740447644.929295,-69.82421875,-85.9375,-54.6875,-79.1015625,0.0
1740447644.9332008,-60.546875,-83.49609375,-52.24609375,-64.94140625,0.0
1740447644.9371066,-61.03515625,-79.58984375,-48.33984375,-57.6171875,0.0
1740447644.9410124,-55.6640625,-82.51953125,-46.38671875,-56.15234375,0.0
1740447644.9449203,-56.640625,-86.42578125,-46.38671875,-58.59375,0.0
1740447644.948826,-66.89453125,-89.35546875,-48.33984375,-71.2890625,0.0
1740447644.9527318,-53.7109375,-94.7265625,-43.9453125,-72.75390625,0.0
1740447644.9566376,-42.96875,-98.6328125,-41.015625,-61.03515625,0.0
1740447644.9605434,-48.828125,-83.984375,-41.015625,-62.01171875,0.0
1740447644.9644492,-56.15234375,-73.2421875,-52.734375,-65.4296875,0.0
1740447644.968355,-61.5234375,-87.40234375,-57.12890625,-63.96484375,0.0
1740447644.9722607,-59.5703125,-86.9140625,-54.19921875,-79.1015625,0.0
1740447644.9761662,-58.10546875,-84.9609375,-52.24609375,-88.8671875,0.0
1740447644.980072,-50.78125,-82.51953125,-47.36328125,-75.1953125,0.0
1740447644.9839778,-44.921875,-77.63671875,-49.8046875,-80.078125,0.0
1740447644.9878836,-40.52734375,-71.77734375,-47.36328125,-81.54296875,0.0
1740447644.9917989,-51.7578125,-69.3359375,-42.48046875,-76.171875,0.0
1740447644.9957047,-53.22265625,-76.66015625,-43.45703125,-71.77734375,0.0
1740447644.9996104,-42.96875,-75.68359375,-42.48046875,-63.96484375,0.0
1740447645.0035162,-33.69140625,-67.87109375,-36.1328125,-57.6171875,0.0
1740447645.007422,-42.96875,-70.80078125,-34.66796875,-44.921875,0.0
1740447645.0113277,-53.22265625,-76.66015625,-37.59765625,-51.7578125,0.0
1740447645.0152333,-41.015625,-72.265625,-44.921875,-56.15234375,0.0
1740447645.019139,-37.109375,-77.1484375,-44.921875,-49.31640625,0.0
1740447645.0230448,-42.96875,-68.84765625,-34.66796875,-58.10546875,0.0
1740447645.0269506,-48.828125,-58.10546875,-29.296875,-54.6875,0.0
1740447645.0308564,-43.9453125,-73.2421875,-33.203125,-49.31640625,0.0
1740447645.0347621,-39.0625,-74.21875,-41.50390625,-63.4765625,0.0
1740447645.0386734,-38.57421875,-66.89453125,-44.921875,-72.75390625,0.0
1740447645.0425792,-43.45703125,-62.5,-45.41015625,-65.4296875,0.0
1740447645.046485,-51.7578125,-65.4296875,-45.41015625,-70.80078125,0.0
1740447645.0503907,-46.875,-72.265625,-47.8515625,-80.078125,0.0
1740447645.0542965,-50.29296875,-76.171875,-53.7109375,-71.2890625,0.0
1740447645.0582023,-58.59375,-75.1953125,-53.7109375,-66.40625,0.0
1740447645.0621078,-47.8515625,-74.21875,-45.41015625,-65.4296875,0.0
1740447645.0660136,-36.1328125,-72.265625,-47.8515625,-64.94140625,0.0
1740447645.0699193,-44.921875,-78.61328125,-45.41015625,-51.7578125,0.0
1740447645.0738251,-49.8046875,-77.1484375,-43.9453125,-44.921875,0.0
1740447645.077731,-41.015625,-78.125,-42.96875,-48.828125,0.0
1740447645.0816367,-45.8984375,-81.0546875,-42.96875,-48.33984375,0.0
1740447645.0855472,-41.50390625,-82.03125,-46.38671875,-61.03515625,0.0
1740447645.089453,-43.45703125,-76.171875,-44.921875,-65.91796875,0.0
1740447645.0933588,-55.6640625,-72.75390625,-47.36328125,-64.453125,0.0
1740447645.0972643,-58.10546875,-81.54296875,-50.29296875,-63.4765625,0.0
1740447645.10117,-51.26953125,-81.54296875,-45.41015625,-51.26953125,0.0
1740447645.1050758,-48.828125,-76.66015625,-40.52734375,-47.36328125,0.0
1740447645.1089816,-54.6875,-69.82421875,-41.015625,-57.6171875,0.0
1740447645.1128874,-53.22265625,-75.1953125,-43.45703125,-57.6171875,0.0
1740447645.1167932,-50.29296875,-91.796875,-49.31640625,-61.03515625,0.0
1740447645.120699,-49.8046875,-80.56640625,-43.9453125,-53.22265625,0.0
1740447645.1246047,-49.31640625,-68.84765625,-37.109375,-45.41015625,0.0
1740447645.1285105,-47.36328125,-73.2421875,-39.0625,-48.828125,0.0
1740447645.1324203,-36.62109375,-71.77734375,-45.8984375,-49.31640625,0.0
1740447645.136326,-37.59765625,-54.6875,-43.9453125,-57.6171875,0.0
1740447645.1402318,-40.52734375,-70.80078125,-37.109375,-64.453125,0.0
1740447645.1441376,-54.6875,-81.0546875,-42.48046875,-64.94140625,0.0
1740447645.1480434,-61.5234375,-67.87109375,-41.50390625,-58.10546875,0.0
1740447645.1519492,-38.57421875,-72.265625,-38.0859375,-61.5234375,0.0
1740447645.155855,-33.203125,-76.66015625,-47.36328125,-55.17578125,0.0
1740447645.1597607,-39.55078125,-69.3359375,-49.8046875,-53.7109375,0.0
1740447645.1636665,-40.52734375,-69.3359375,-43.45703125,-54.6875,0.0
1740447645.1675723,-37.109375,-71.77734375,-41.50390625,-54.6875,0.0
1740447645.171478,-37.109375,-69.82421875,-43.45703125,-55.6640625,0.0
1740447645.1753838,-41.015625,-74.21875,-42.96875,-47.8515625,0.0
1740447645.1792932,-45.8984375,-72.265625,-45.8984375,-51.26953125,0.0
1740447645.183199,-49.31640625,-66.89453125,-43.45703125,-54.6875,0.0
1740447645.1871047,-51.26953125,-61.5234375,-40.52734375,-63.4765625,0.0
1740447645.1910105,-47.8515625,-69.3359375,-47.8515625,-62.98828125,0.0
1740447645.1949162,-41.9921875,-81.0546875,-41.50390625,-48.33984375,0.0
1740447645.198822,-53.7109375,-76.66015625,-45.41015625,-73.2421875,0.0
1740447645.2027278,-55.17578125,-79.1015625,-54.19921875,-89.84375,0.0
1740447645.2066333,-57.12890625,-83.49609375,-49.8046875,-79.1015625,0.0
1740447645.210539,-54.6875,-75.68359375,-49.31640625,-81.0546875,0.0
1740447645.2144449,-51.7578125,-70.80078125,-50.78125,-89.35546875,0.0
1740447645.2183506,-62.01171875,-69.3359375,-47.36328125,-78.61328125,0.0
1740447645.2222564,-67.3828125,-65.91796875,-44.921875,-73.73046875,0.0
1740447645.2261655,-59.08203125,-74.70703125,-46.875,-74.70703125,0.0
1740447645.230071,-56.15234375,-76.171875,-49.8046875,-74.21875,0.0
1740447645.2339768,-59.08203125,-71.77734375,-44.43359375,-72.75390625,0.0
1740447645.2378826,-45.8984375,-68.84765625,-37.109375,-58.10546875,0.0
1740447645.2417884,-44.43359375,-73.73046875,-38.57421875,-57.6171875,0.0
1740447645.2456942,-64.94140625,-81.0546875,-48.33984375,-73.2421875,0.0
1740447645.2496,-62.01171875,-70.3125,-43.9453125,-73.73046875,0.0
1740447645.2535057,-51.7578125,-77.63671875,-40.0390625,-64.94140625,0.0
1740447645.2574115,-57.12890625,-78.125,-52.24609375,-62.01171875,0.0
1740447645.2613173,-61.5234375,-76.66015625,-50.78125,-62.5,0.0
1740447645.265223,-58.10546875,-84.9609375,-41.9921875,-68.359375,0.0
1740447645.2691288,-47.8515625,-86.42578125,-43.9453125,-67.87109375,0.0
1740447645.2730372,-51.26953125,-81.0546875,-48.33984375,-59.5703125,0.0
1740447645.276943,-64.453125,-79.1015625,-47.36328125,-66.40625,0.0
1740447645.2808487,-58.10546875,-81.54296875,-47.8515625,-64.94140625,0.0
1740447645.2847545,-59.08203125,-79.58984375,-50.29296875,-62.98828125,0.0
1740447645.2886603,-62.5,-80.56640625,-46.38671875,-65.4296875,0.0
1740447645.292566,-63.96484375,-83.0078125,-43.45703125,-53.7109375,0.0
1740447645.2964718,-63.4765625,-85.44921875,-44.921875,-52.24609375,0.0
1740447645.3003776,-44.921875,-83.0078125,-43.9453125,-62.01171875,0.0
1740447645.3042834,-44.43359375,-73.73046875,-43.9453125,-56.15234375,0.0
1740447645.3081892,-45.41015625,-76.66015625,-46.38671875,-51.7578125,0.0
1740447645.312095,-48.828125,-83.49609375,-49.31640625,-49.8046875,0.0
1740447645.3160007,-54.19921875,-75.1953125,-51.26953125,-52.734375,0.0
1740447645.3199124,-60.546875,-56.15234375,-49.8046875,-67.3828125,0.0
1740447645.3238182,-62.01171875,-72.75390625,-41.9921875,-68.359375,0.0
1740447645.327724,-42.48046875,-82.51953125,-42.48046875,-63.96484375,0.0
1740447645.3316298,-46.38671875,-68.359375,-45.41015625,-53.22265625,0.0
1740447645.3355355,-63.4765625,-68.84765625,-36.62109375,-49.31640625,0.0
1740447645.3394413,-54.19921875,-70.3125,-33.203125,-52.24609375,0.0
1740447645.343347,-41.015625,-67.87109375,-39.0625,-47.8515625,0.0
1740447645.3472526,-52.734375,-73.73046875,-41.9921875,-56.640625,0.0
1740447645.3511584,-57.12890625,-76.171875,-43.9453125,-55.17578125,0.0
1740447645.3550642,-56.15234375,-71.77734375,-45.8984375,-54.6875,0.0
1740447645.35897,-60.05859375,-67.87109375,-41.50390625,-56.640625,0.0
1740447645.3628757,-61.03515625,-64.94140625,-34.1796875,-50.78125,0.0
1740447645.3667872,-52.24609375,-62.5,-33.203125,-51.26953125,0.0
1740447645.370693,-40.52734375,-69.3359375,-41.015625,-54.6875,0.0
1740447645.3745987,-38.0859375,-68.84765625,-45.41015625,-76.171875,0.0
1740447645.3785045,-49.31640625,-63.4765625,-43.9453125,-77.1484375,0.0
1740447645.3824103,-49.31640625,-64.453125,-48.828125,-66.40625,0.0
1740447645.386316,-48.828125,-65.91796875,-56.15234375,-68.84765625,0.0
1740447645.3902218,-60.05859375,-57.12890625,-52.24609375,-68.84765625,0.0
1740447645.3941276,-54.6875,-62.98828125,-48.33984375,-64.453125,0.0
1740447645.3980331,-53.22265625,-66.89453125,-44.43359375,-69.82421875,0.0
1740447645.401939,-43.45703125,-62.5,-41.015625,-55.17578125,0.0
1740447645.4058447,-43.9453125,-59.08203125,-43.45703125,-51.26953125,0.0
1740447645.4097505,-57.12890625,-59.08203125,-47.36328125,-60.546875,0.0
1740447645.4136617,-46.38671875,-65.4296875,-43.45703125,-54.6875,0.0
1740447645.4175675,-35.15625,-58.10546875,-40.0390625,-60.546875,0.0
1740447645.4214733,-41.015625,-53.22265625,-36.1328125,-57.6171875,0.0
1740447645.4253788,-48.33984375,-58.10546875,-37.109375,-59.08203125,0.0
1740447645.4292846,-48.828125,-63.96484375,-39.0625,-62.01171875,0.0
1740447645.4331903,-43.9453125,-64.94140625,-42.96875,-58.10546875,0.0
1740447645.437096,-36.62109375,-62.01171875,-42.96875,-55.6640625,0.0
1740447645.441002,-37.59765625,-61.5234375,-39.0625,-55.6640625,0.0
1740447645.4449077,-52.24609375,-56.15234375,-38.57421875,-52.734375,0.0
1740447645.4488134,-44.921875,-63.4765625,-35.64453125,-50.29296875,0.0
1740447645.4527192,-39.0625,-59.08203125,-36.1328125,-54.6875,0.0
1740447645.456625,-35.15625,-52.734375,-39.0625,-46.875,0.0
1740447645.460539,-31.73828125,-53.22265625,-41.015625,-45.41015625,0.0
1740447645.4644449,-31.73828125,-50.78125,-39.55078125,-57.12890625,0.0
1740447645.4683506,-38.57421875,-56.15234375,-35.15625,-59.5703125,0.0
1740447645.4722564,-43.9453125,-58.59375,-35.15625,-56.15234375,0.0
1740447645.4761622,-45.8984375,-54.19921875,-42.96875,-66.89453125,0.0
1740447645.480068,-40.52734375,-65.91796875,-48.828125,-63.96484375,0.0
1740447645.4839737,-46.38671875,-61.03515625,-49.8046875,-66.40625,0.0
1740447645.4878795,-47.8515625,-58.10546875,-45.8984375,-65.4296875,0.0
1740447645.4917853,-48.33984375,-76.66015625,-42.48046875,-54.19921875,0.0
1740447645.495691,-50.29296875,-67.3828125,-39.55078125,-60.546875,0.0
1740447645.4995968,-45.41015625,-59.5703125,-41.50390625,-57.6171875,0.0
1740447645.5035026,-33.203125,-56.640625,-39.55078125,-47.36328125,0.0
1740447645.5074124,-39.0625,-59.08203125,-37.109375,-47.8515625,0.0
1740447645.5113182,-51.7578125,-61.03515625,-40.52734375,-55.6640625,0.0
1740447645.515224,-42.96875,-57.6171875,-41.015625,-47.36328125,0.0
1740447645.5191298,-37.109375,-62.98828125,-39.0625,-47.8515625,0.0
1740447645.5230355,-32.2265625,-63.4765625,-41.015625,-46.38671875,0.0
1740447645.526941,-38.57421875,-64.94140625,-45.8984375,-43.45703125,0.0
1740447645.5308468,-50.78125,-69.82421875,-39.0625,-61.03515625,0.0
1740447645.5347526,-36.1328125,-67.3828125,-39.55078125,-56.15234375,0.0
1740447645.5386584,-42.96875,-59.5703125,-52.734375,-63.4765625,0.0
1740447645.5425642,-53.22265625,-54.19921875,-48.828125,-69.82421875,0.0
1740447645.54647,-43.45703125,-58.59375,-43.9453125,-57.6171875,0.0
1740447645.5503757,-53.7109375,-66.40625,-50.78125,-67.3828125,0.0
1740447645.554285,-54.19921875,-56.640625,-50.29296875,-62.5,0.0
1740447645.5581908,-47.36328125,-57.6171875,-42.96875,-55.6640625,0.0
1740447645.5620966,-60.05859375,-65.91796875,-47.36328125,-62.5,0.0
1740447645.5660024,-57.12890625,-70.80078125,-51.7578125,-67.87109375,0.0
1740447645.5699081,-48.828125,-71.2890625,-45.8984375,-64.94140625,0.0
1740447645.573814,-46.875,-64.453125,-42.48046875,-60.546875,0.0
1740447645.5777197,-48.33984375,-66.40625,-38.0859375,-59.5703125,0.0
1740447645.5816255,-50.29296875,-69.82421875,-40.52734375,-53.22265625,0.0
1740447645.5855312,-49.8046875,-65.4296875,-43.45703125,-53.22265625,0.0
1740447645.589437,-44.43359375,-63.96484375,-36.62109375,-47.36328125,0.0
1740447645.5933428,-47.8515625,-68.359375,-36.62109375,-46.875,0.0
1740447645.5972483,-54.19921875,-64.453125,-42.48046875,-50.78125,0.0
1740447645.6011574,-50.78125,-58.59375,-47.8515625,-60.05859375,0.0
1740447645.6050632,-38.57421875,-58.10546875,-37.109375,-55.17578125,0.0
1740447645.608969,-39.0625,-50.78125,-31.25,-54.6875,0.0
1740447645.6128747,-49.31640625,-55.17578125,-43.9453125,-65.4296875,0.0
1740447645.6167803,-43.9453125,-61.5234375,-44.921875,-67.87109375,0.0
1740447645.620686,-48.33984375,-62.5,-35.15625,-74.21875,0.0
1740447645.6245918,-62.01171875,-63.4765625,-37.59765625,-71.77734375,0.0
1740447645.6284976,-60.05859375,-63.4765625,-47.8515625,-68.84765625,0.0
1740447645.6324034,-52.24609375,-64.94140625,-42.96875,-73.2421875,0.0
1740447645.6363091,-62.98828125,-58.10546875,-41.9921875,-75.68359375,0.0
1740447645.640215,-57.6171875,-62.01171875,-42.48046875,-71.2890625,0.0
1740447645.6441207,-50.78125,-64.94140625,-38.0859375,-76.171875,0.0
1740447645.648029,-48.33984375,-62.01171875,-41.9921875,-67.87109375,0.0
1740447645.6519349,-43.45703125,-60.05859375,-44.921875,-58.59375,0.0
1740447645.6558406,-49.8046875,-64.94140625,-45.8984375,-66.40625,0.0
1740447645.6597464,-49.8046875,-57.6171875,-45.41015625,-64.94140625,0.0
1740447645.6636522,-49.31640625,-59.5703125,-41.015625,-53.7109375,0.0
1740447645.667558,-48.33984375,-63.4765625,-41.9921875,-47.36328125,0.0
1740447645.6714637,-49.31640625,-64.453125,-39.55078125,-54.19921875,0.0
1740447645.6753695,-41.9921875,-59.08203125,-39.55078125,-45.8984375,0.0
1740447645.6792753,-50.29296875,-51.7578125,-45.8984375,-57.12890625,0.0
1740447645.6831808,-52.24609375,-59.5703125,-42.96875,-56.15234375,0.0
1740447645.6870866,-44.43359375,-58.59375,-45.41015625,-51.7578125,0.0
1740447645.6909924,-39.55078125,-58.59375,-46.38671875,-61.5234375,0.0
1740447645.6949008,-43.45703125,-65.91796875,-42.96875,-55.6640625,0.0
1740447645.6988065,-47.8515625,-64.94140625,-45.8984375,-54.6875,0.0
1740447645.7027123,-45.8984375,-67.3828125,-45.41015625,-46.875,0.0
1740447645.706618,-45.41015625,-65.91796875,-42.48046875,-49.31640625,0.0
1740447645.7105236,-48.828125,-59.5703125,-45.41015625,-55.6640625,0.0
1740447645.7144294,-43.45703125,-60.546875,-47.8515625,-54.6875,0.0
1740447645.7183352,-39.55078125,-57.6171875,-42.96875,-59.5703125,0.0
1740447645.722241,-34.1796875,-48.828125,-40.52734375,-63.4765625,0.0
1740447645.7261467,-27.34375,-51.7578125,-38.57421875,-56.15234375,0.0
1740447645.7300525,-46.875,-57.6171875,-40.52734375,-52.734375,0.0
1740447645.7339582,-56.15234375,-60.05859375,-43.9453125,-57.6171875,0.0
1740447645.737864,-37.109375,-66.40625,-40.0390625,-57.12890625,0.0
1740447645.7417793,-37.59765625,-65.4296875,-38.0859375,-54.19921875,0.0
1740447645.745685,-34.1796875,-67.87109375,-43.45703125,-53.22265625,0.0
1740447645.7495909,-32.2265625,-64.94140625,-47.36328125,-41.9921875,0.0
1740447645.7534966,-54.6875,-56.640625,-51.26953125,-50.78125,0.0
1740447645.7574024,-61.03515625,-65.4296875,-56.640625,-72.265625,0.0
1740447645.7613082,-59.08203125,-73.2421875,-53.7109375,-66.40625,0.0
1740447645.765214,-56.15234375,-67.87109375,-44.43359375,-66.40625,0.0
1740447645.7691195,-56.15234375,-50.78125,-45.41015625,-62.98828125,0.0
1740447645.7730253,-53.7109375,-51.26953125,-45.41015625,-44.921875,0.0
1740447645.776931,-41.9921875,-64.94140625,-40.52734375,-45.41015625,0.0
1740447645.7808368,-39.55078125,-56.640625,-41.9921875,-52.24609375,0.0
1740447645.7847426,-42.48046875,-64.453125,-48.33984375,-53.22265625,0.0
1740447645.7886574,-43.45703125,-78.125,-49.8046875,-58.10546875,0.0
1740447645.7925632,-59.5703125,-69.82421875,-41.9921875,-62.01171875,0.0
1740447645.796469,-54.19921875,-60.546875,-40.52734375,-62.98828125,0.0
1740447645.8003747,-34.66796875,-62.01171875,-45.41015625,-58.10546875,0.0
1740447645.8042805,-42.96875,-66.89453125,-46.875,-59.08203125,0.0
1740447645.8081863,-44.43359375,-61.5234375,-48.33984375,-58.10546875,0.0
1740447645.812092,-41.9921875,-54.6875,-47.36328125,-62.01171875,0.0
1740447645.8159976,-39.0625,-62.5,-49.8046875,-63.96484375,0.0
1740447645.8199034,-34.1796875,-66.40625,-50.29296875,-54.19921875,0.0
1740447645.8238091,-42.96875,-53.22265625,-44.921875,-52.734375,0.0
1740447645.827715,-61.03515625,-47.8515625,-47.36328125,-67.3828125,0.0
1740447645.8316207,-50.29296875,-57.12890625,-51.7578125,-60.05859375,0.0
1740447645.8355312,-31.73828125,-64.453125,-50.78125,-44.921875,0.0
1740447645.839437,-43.9453125,-56.640625,-45.41015625,-57.6171875,0.0
1740447645.8433428,-56.15234375,-56.15234375,-45.41015625,-52.734375,0.0
1740447645.8472486,-52.24609375,-62.98828125,-47.36328125,-52.734375,0.0
1740447645.8511543,-50.78125,-64.94140625,-40.52734375,-53.7109375,0.0
1740447645.85506,-63.4765625,-52.24609375,-42.96875,-55.6640625,0.0
1740447645.8589659,-68.359375,-36.62109375,-49.8046875,-61.5234375,0.0
1740447645.8628716,-61.03515625,-56.640625,-44.43359375,-51.26953125,0.0
1740447645.8667772,-60.05859375,-62.98828125,-44.921875,-58.59375,0.0
1740447645.870683,-54.6875,-59.08203125,-46.38671875,-64.94140625,0.0
1740447645.8745887,-52.734375,-65.91796875,-42.48046875,-61.5234375,0.0
1740447645.8784945,-67.87109375,-66.89453125,-48.33984375,-70.80078125,0.0
1740447645.8824046,-76.171875,-72.75390625,-54.6875,-68.359375,0.0
1740447645.88631,-63.4765625,-62.5,-50.78125,-63.4765625,0.0
1740447645.8902159,-50.78125,-57.6171875,-51.26953125,-68.359375,0.0
1740447645.8941216,-62.5,-58.10546875,-53.7109375,-72.75390625,0.0
1740447645.8980274,-58.59375,-52.24609375,-47.8515625,-56.640625,0.0
1740447645.9019332,-52.24609375,-56.640625,-43.9453125,-50.29296875,0.0
1740447645.905839,-56.640625,-61.03515625,-42.48046875,-57.12890625,0.0
1740447645.9097447,-48.33984375,-61.03515625,-40.52734375,-48.828125,0.0
1740447645.9136505,-47.8515625,-64.94140625,-43.45703125,-39.55078125,0.0
1740447645.9175563,-55.17578125,-60.546875,-45.8984375,-53.22265625,0.0
1740447645.921462,-41.015625,-52.24609375,-38.57421875,-56.640625,0.0
1740447645.9253678,-41.50390625,-58.10546875,-38.0859375,-60.05859375,0.0
1740447645.9292772,-55.17578125,-64.453125,-46.38671875,-66.89453125,0.0
1740447645.933183,-51.7578125,-62.98828125,-48.33984375,-68.359375,0.0
1740447645.9370887,-47.8515625,-60.546875,-48.33984375,-68.84765625,0.0
1740447645.9409945,-48.828125,-60.05859375,-49.8046875,-62.98828125,0.0
1740447645.9449003,-51.26953125,-51.7578125,-53.7109375,-62.01171875,0.0
1740447645.948806,-52.24609375,-44.921875,-48.828125,-64.94140625,0.0
1740447645.9527118,-52.24609375,-52.24609375,-44.921875,-68.84765625,0.0
1740447645.9566176,-47.36328125,-54.6875,-52.24609375,-64.453125,0.0
1740447645.9605234,-46.875,-56.640625,-56.15234375,-63.96484375,0.0
1740447645.9644291,-54.6875,-48.828125,-53.7109375,-59.5703125,0.0
1740447645.968335,-62.5,-48.828125,-52.734375,-56.640625,0.0
1740447645.9722407,-57.12890625,-50.29296875,-52.734375,-72.75390625,0.0
1740447645.9761496,-51.7578125,-42.48046875,-49.31640625,-72.265625,0.0
1740447645.9800553,-52.734375,-62.5,-41.50390625,-56.640625,0.0
1740447645.983961,-46.875,-72.265625,-38.0859375,-58.10546875,0.0
1740447645.9878669,-34.66796875,-67.87109375,-41.50390625,-55.6640625,0.0
1740447645.9917724,-33.203125,-67.87109375,-43.45703125,-51.26953125,0.0
1740447645.9956782,-44.921875,-69.3359375,-47.36328125,-60.546875,0.0
1740447645.999584,-38.57421875,-65.4296875,-41.015625,-53.22265625,0.0
1740447646.0034897,-37.59765625,-58.59375,-38.57421875,-49.8046875,0.0
1740447646.0073955,-36.62109375,-41.9921875,-43.45703125,-64.94140625,0.0
1740447646.0113013,-32.71484375,-45.8984375,-36.1328125,-59.08203125,0.0
1740447646.015207,-37.109375,-57.12890625,-37.59765625,-47.36328125,0.0
1740447646.0191128,-42.96875,-56.640625,-45.8984375,-57.6171875,0.0
1740447646.0230212,-42.48046875,-44.921875,-50.29296875,-54.6875,0.0
1740447646.026927,-43.45703125,-45.41015625,-47.8515625,-56.640625,0.0
1740447646.0308328,-33.69140625,-52.734375,-40.52734375,-62.98828125,0.0
1740447646.0347385,-27.34375,-50.78125,-34.1796875,-54.19921875,0.0
1740447646.0386443,-25.87890625,-51.26953125,-34.1796875,-44.43359375,0.0
1740447646.04255,-26.85546875,-55.6640625,-35.64453125,-51.7578125,0.0
1740447646.0464559,-38.0859375,-63.4765625,-41.015625,-51.7578125,0.0
1740447646.0503616,-54.6875,-54.6875,-41.9921875,-51.26953125,0.0
1740447646.0542674,-53.7109375,-53.7109375,-43.45703125,-60.05859375,0.0
1740447646.0581732,-37.59765625,-62.98828125,-45.8984375,-60.546875,0.0
1740447646.0620787,-42.48046875,-59.08203125,-46.38671875,-54.6875,0.0
1740447646.0659845,-49.8046875,-49.31640625,-42.48046875,-40.52734375,0.0
1740447646.069893,-40.52734375,-40.52734375,-47.8515625,-47.8515625,0.0
1740447646.0737987,-22.94921875,-57.6171875,-53.7109375,-52.24609375,0.0
1740447646.0777044,-25.390625,-65.91796875,-44.43359375,-48.828125,0.0
1740447646.08161,-38.0859375,-52.24609375,-41.015625,-48.33984375,0.0
1740447646.0855157,-45.41015625,-50.29296875,-39.0625,-49.8046875,0.0
1740447646.0894215,-49.8046875,-51.26953125,-33.69140625,-47.8515625,0.0
1740447646.0933273,-51.7578125,-49.8046875,-38.0859375,-44.43359375,0.0
1740447646.097233,-56.15234375,-49.8046875,-40.0390625,-58.10546875,0.0
1740447646.1011388,-45.8984375,-47.36328125,-37.109375,-53.22265625,0.0
1740447646.1050446,-39.55078125,-50.78125,-38.0859375,-43.9453125,0.0
1740447646.1089504,-46.875,-48.33984375,-41.50390625,-55.17578125,0.0
1740447646.1128561,-47.8515625,-50.29296875,-38.57421875,-52.734375,0.0
1740447646.1167676,-38.0859375,-64.453125,-37.59765625,-48.828125,0.0
1740447646.1206734,-38.57421875,-53.7109375,-44.43359375,-45.41015625,0.0
1740447646.1245792,-45.8984375,-41.50390625,-43.45703125,-48.33984375,0.0
1740447646.1284847,-44.921875,-51.26953125,-39.0625,-46.875,0.0
1740447646.1323905,-43.9453125,-53.7109375,-39.55078125,-46.38671875,0.0
1740447646.1362963,-46.38671875,-50.78125,-46.38671875,-46.38671875,0.0
1740447646.140202,-42.96875,-50.29296875,-46.875,-39.55078125,0.0
1740447646.1441078,-41.50390625,-41.015625,-39.0625,-41.9921875,0.0
1740447646.1480136,-51.7578125,-37.109375,-38.0859375,-46.38671875,0.0
1740447646.1519194,-49.31640625,-54.19921875,-50.78125,-43.9453125,0.0
1740447646.1558251,-32.2265625,-55.17578125,-46.38671875,-39.0625,0.0
1740447646.159731,-47.8515625,-41.9921875,-44.43359375,-54.6875,0.0
1740447646.163642,-63.96484375,-46.875,-43.45703125,-68.84765625,0.0
1740447646.1675477,-66.89453125,-50.29296875,-45.8984375,-73.73046875,0.0
1740447646.1714535,-72.265625,-45.8984375,-50.29296875,-79.58984375,0.0
1740447646.1753592,-97.16796875,-45.41015625,-53.7109375,-109.86328125,0.0
1740447646.179265,-123.53515625,-48.828125,-59.5703125,-138.18359375,0.0
1740447646.1831708,-136.71875,-46.875,-63.4765625,-144.53125,0.0
1740447646.1870766,-162.109375,-43.9453125,-73.2421875,-166.9921875,0.0
1740447646.1909823,-184.08203125,-32.71484375,-82.51953125,-190.4296875,0.0
1740447646.194888,-201.66015625,-41.50390625,-92.28515625,-204.1015625,0.0
1740447646.198794,-213.37890625,-51.26953125,-96.19140625,-205.56640625,0.0
1740447646.2026994,-210.44921875,-36.1328125,-101.5625,-219.7265625,0.0
1740447646.2066052,-217.7734375,-40.0390625,-111.81640625,-225.5859375,0.0
1740447646.2105157,-234.86328125,-48.33984375,-109.86328125,-217.7734375,0.0
1740447646.2144215,-223.14453125,-44.43359375,-105.46875,-207.51953125,0.0
1740447646.218327,-210.9375,-57.12890625,-111.81640625,-196.2890625,0.0
1740447646.2222328,-199.21875,-68.84765625,-107.91015625,-195.80078125,0.0
1740447646.2261386,-180.17578125,-55.17578125,-87.890625,-179.19921875,0.0
1740447646.2300444,-179.19921875,-40.52734375,-80.078125,-160.64453125,0.0
1740447646.2339501,-157.2265625,-49.31640625,-78.61328125,-154.296875,0.0
1740447646.237856,-123.53515625,-60.05859375,-73.73046875,-146.484375,0.0
1740447646.2417617,-126.953125,-75.68359375,-73.2421875,-132.8125,0.0
1740447646.2456675,-108.88671875,-75.1953125,-61.5234375,-100.09765625,0.0
1740447646.2495732,-88.37890625,-66.89453125,-52.734375,-81.54296875,0.0
1740447646.253479,-77.63671875,-70.80078125,-51.26953125,-76.171875,0.0
1740447646.2573888,-66.40625,-75.68359375,-46.38671875,-63.4765625,0.0
1740447646.2612946,-46.875,-73.73046875,-44.43359375,-49.31640625,0.0
1740447646.2652004,-26.85546875,-76.66015625,-43.45703125,-39.55078125,0.0
1740447646.2691061,-17.08984375,-84.47265625,-39.0625,-34.1796875,0.0
1740447646.273012,-16.6015625,-87.890625,-37.59765625,-35.64453125,0.0
1740447646.2769177,-6.8359375,-83.0078125,-40.52734375,-20.5078125,0.0
1740447646.2808235,1.46484375,-80.56640625,-35.64453125,-3.90625,0.0
1740447646.2847292,2.9296875,-76.66015625,-31.25,1.953125,0.0
1740447646.288635,9.765625,-66.89453125,-31.73828125,1.46484375,0.0
1740447646.2925408,12.6953125,-71.77734375,-20.5078125,15.13671875,0.0
1740447646.2964466,9.27734375,-72.75390625,-13.671875,23.4375,0.0
1740447646.300352,17.578125,-80.56640625,-19.04296875,14.6484375,0.0
1740447646.3042617,18.06640625,-78.61328125,-22.4609375,17.08984375,0.0
1740447646.3081675,22.4609375,-74.21875,-25.87890625,11.71875,0.0
1740447646.3120732,24.90234375,-71.77734375,-27.34375,0.48828125,0.0
1740447646.315979,24.4140625,-65.4296875,-20.99609375,2.9296875,0.0
1740447646.3198848,22.94921875,-65.91796875,-23.4375,8.7890625,0.0
1740447646.3237906,18.06640625,-66.40625,-23.4375,6.8359375,0.0
1740447646.3276963,23.4375,-62.98828125,-18.06640625,14.6484375,0.0
1740447646.331602,26.3671875,-61.03515625,-25.390625,23.4375,0.0
1740447646.3355079,41.015625,-52.734375,-22.94921875,9.27734375,0.0
1740447646.3394136,44.921875,-49.8046875,-17.578125,3.41796875,0.0
1740447646.3433194,26.3671875,-47.36328125,-18.5546875,6.34765625,0.0
1740447646.347225,6.8359375,-49.31640625,-24.4140625,3.90625,0.0
1740447646.351134,12.20703125,-53.7109375,-24.90234375,5.859375,0.0
1740447646.3550398,20.5078125,-48.828125,-18.5546875,9.765625,0.0
1740447646.3589456,8.30078125,-50.78125,-14.6484375,9.27734375,0.0
1740447646.3628511,7.8125,-57.6171875,-15.625,3.90625,0.0
1740447646.366757,13.18359375,-46.38671875,-21.97265625,1.953125,0.0
1740447646.3706627,16.11328125,-45.8984375,-21.484375,16.6015625,0.0
1740447646.3745685,13.671875,-59.08203125,-17.578125,22.94921875,0.0
1740447646.3784742,9.27734375,-59.08203125,-22.4609375,1.46484375,0.0
1740447646.38238,5.859375,-52.24609375,-25.390625,-6.34765625,0.0
1740447646.3862858,0.0,-49.8046875,-18.06640625,-8.7890625,0.0
1740447646.3901916,2.44140625,-52.734375,-19.53125,-7.32421875,0.0
1740447646.3940973,8.30078125,-47.36328125,-29.296875,-9.765625,0.0
1740447646.3980057,0.0,-40.52734375,-26.3671875,-20.99609375,0.0
1740447646.4019115,-6.8359375,-45.41015625,-20.5078125,-11.23046875,0.0
1740447646.4058173,-4.8828125,-52.734375,-24.90234375,-7.32421875,0.0
1740447646.409723,-3.90625,-54.19921875,-28.3203125,-21.484375,0.0
1740447646.4136288,-5.37109375,-51.7578125,-26.3671875,-8.30078125,0.0
1740447646.4175346,-2.9296875,-45.41015625,-27.34375,-11.23046875,0.0
1740447646.4214404,0.9765625,-51.26953125,-28.3203125,-10.7421875,0.0
1740447646.4253461,-1.953125,-48.33984375,-29.78515625,-9.27734375,0.0
1740447646.429252,-13.18359375,-40.0390625,-35.15625,-20.01953125,0.0
1740447646.4331577,-10.25390625,-45.41015625,-33.69140625,-14.6484375,0.0
1740447646.4370632,-5.37109375,-48.828125,-30.76171875,-16.6015625,0.0
1740447646.440969,-7.32421875,-44.43359375,-24.90234375,-21.97265625,0.0
1740447646.4448771,-7.32421875,-42.96875,-23.4375,-19.04296875,0.0
1740447646.4487827,-3.41796875,-40.52734375,-28.80859375,-10.7421875,0.0
1740447646.4526885,-6.8359375,-42.48046875,-25.390625,-20.5078125,0.0
1740447646.4565942,-13.18359375,-48.33984375,-27.34375,-27.34375,0.0
1740447646.4605,-20.01953125,-46.38671875,-33.69140625,-32.71484375,0.0
1740447646.4644058,-29.296875,-48.33984375,-31.73828125,-39.0625,0.0
1740447646.4683115,-29.78515625,-54.6875,-26.3671875,-34.66796875,0.0
1740447646.4722173,-21.484375,-52.24609375,-28.80859375,-36.1328125,0.0
1740447646.476123,-22.94921875,-46.38671875,-29.296875,-32.2265625,0.0
1740447646.4800289,-26.3671875,-49.31640625,-28.3203125,-35.15625,0.0
1740447646.4839346,-23.92578125,-57.6171875,-30.76171875,-47.36328125,0.0
1740447646.4878404,-13.671875,-49.31640625,-27.34375,-37.59765625,0.0
1740447646.4917555,-24.90234375,-33.203125,-38.57421875,-32.71484375,0.0
1740447646.4956613,-30.76171875,-53.22265625,-36.62109375,-28.80859375,0.0
1740447646.499567,-17.578125,-63.96484375,-32.71484375,-27.34375,0.0
1740447646.5034728,-18.5546875,-54.19921875,-38.0859375,-31.73828125,0.0
1740447646.5073786,-27.34375,-54.19921875,-37.59765625,-38.0859375,0.0
1740447646.5112844,-31.73828125,-52.24609375,-42.96875,-41.015625,0.0
1740447646.5151901,-38.57421875,-47.8515625,-36.62109375,-37.109375,0.0
1740447646.519096,-27.83203125,-44.43359375,-31.73828125,-40.52734375,0.0
1740447646.5230017,-18.5546875,-48.828125,-32.71484375,-46.38671875,0.0
1740447646.5269074,-34.66796875,-51.7578125,-29.296875,-33.69140625,0.0
1740447646.5308132,-30.2734375,-41.015625,-32.2265625,-29.78515625,0.0
1740447646.534719,-26.85546875,-41.9921875,-32.2265625,-33.69140625,0.0
1740447646.53863,-17.578125,-57.6171875,-26.3671875,-32.71484375,0.0
1740447646.5425358,-27.83203125,-52.734375,-26.85546875,-30.76171875,0.0
1740447646.5464416,-52.24609375,-43.45703125,-29.78515625,-42.96875,0.0
1740447646.550347,-30.2734375,-46.875,-28.80859375,-44.43359375,0.0
1740447646.5542529,-20.01953125,-49.31640625,-33.69140625,-33.203125,0.0
1740447646.5581586,-33.203125,-49.31640625,-27.34375,-38.0859375,0.0
1740447646.5620644,-38.0859375,-41.9921875,-22.94921875,-42.48046875,0.0
1740447646.5659702,-39.55078125,-43.45703125,-27.34375,-40.0390625,0.0
1740447646.569876,-30.76171875,-48.828125,-26.85546875,-31.25,0.0
1740447646.5737817,-27.34375,-50.78125,-31.73828125,-35.15625,0.0
1740447646.5776875,-36.62109375,-48.33984375,-28.3203125,-44.921875,0.0
1740447646.5815933,-35.15625,-44.43359375,-18.5546875,-35.64453125,0.0
1740447646.5855036,-33.69140625,-57.6171875,-28.80859375,-23.92578125,0.0
1740447646.5894094,-40.52734375,-53.22265625,-26.3671875,-29.296875,0.0
1740447646.5933151,-24.90234375,-44.921875,-18.06640625,-34.1796875,0.0
1740447646.597221,-18.5546875,-51.26953125,-23.4375,-36.1328125,0.0
1740447646.6011267,-33.69140625,-40.0390625,-32.2265625,-35.15625,0.0
1740447646.6050324,-28.3203125,-56.640625,-37.109375,-37.109375,0.0
1740447646.6089382,-20.5078125,-58.10546875,-32.2265625,-37.109375,0.0
1740447646.612844,-29.296875,-41.015625,-32.2265625,-38.57421875,0.0
1740447646.6167498,-32.71484375,-42.96875,-39.0625,-35.15625,0.0
1740447646.6206555,-33.203125,-42.48046875,-28.3203125,-27.83203125,0.0
1740447646.6245613,-24.4140625,-43.9453125,-19.04296875,-36.62109375,0.0
1740447646.628467,-28.3203125,-41.9921875,-19.04296875,-55.6640625,0.0
1740447646.632377,-31.25,-33.203125,-18.06640625,-42.96875,0.0
1740447646.6362827,-25.87890625,-38.57421875,-20.01953125,-42.96875,0.0
1740447646.6401885,-32.2265625,-49.31640625,-23.4375,-36.62109375,0.0
1740447646.6440942,-38.0859375,-42.96875,-22.4609375,-40.0390625,0.0
1740447646.648,-35.64453125,-45.41015625,-21.484375,-45.8984375,0.0
1740447646.6519058,-31.25,-53.22265625,-22.4609375,-43.9453125,0.0
1740447646.6558115,-25.87890625,-46.38671875,-22.4609375,-51.26953125,0.0
1740447646.6597173,-20.5078125,-50.29296875,-23.4375,-42.96875,0.0
1740447646.663623,-35.15625,-56.15234375,-27.83203125,-46.38671875,0.0
1740447646.6675286,-33.69140625,-42.48046875,-30.2734375,-50.29296875,0.0
1740447646.6714344,-30.76171875,-44.43359375,-31.73828125,-37.109375,0.0
1740447646.6753402,-41.015625,-43.9453125,-31.25,-41.015625,0.0
1740447646.6792498,-42.48046875,-36.62109375,-35.64453125,-58.59375,0.0
1740447646.6831553,-34.66796875,-56.15234375,-32.71484375,-57.6171875,0.0
1740447646.687061,-22.94921875,-57.12890625,-30.76171875,-42.96875,0.0
1740447646.6909668,-31.73828125,-50.29296875,-30.2734375,-27.34375,0.0
1740447646.6948726,-42.48046875,-47.36328125,-26.85546875,-32.2265625,0.0
1740447646.6987784,-31.25,-50.29296875,-28.3203125,-42.96875,0.0
1740447646.7026842,-37.59765625,-54.6875,-30.76171875,-39.55078125,0.0
1740447646.70659,-46.875,-53.7109375,-31.25,-39.0625,0.0
1740447646.7104957,-43.45703125,-48.33984375,-28.3203125,-45.41015625,0.0
1740447646.7144015,-36.1328125,-40.0390625,-27.34375,-50.29296875,0.0
1740447646.7183073,-34.1796875,-43.45703125,-28.80859375,-33.203125,0.0
1740447646.722213,-30.76171875,-44.921875,-26.85546875,-28.3203125,0.0
1740447646.726122,-26.3671875,-46.875,-21.97265625,-35.15625,0.0
1740447646.7300277,-37.109375,-51.7578125,-25.87890625,-42.48046875,0.0
1740447646.7339334,-40.52734375,-47.8515625,-35.64453125,-53.7109375,0.0
1740447646.7378392,-41.9921875,-53.22265625,-35.15625,-51.26953125,0.0
1740447646.741745,-40.0390625,-48.828125,-24.90234375,-41.015625,0.0
1740447646.7456508,-31.25,-53.7109375,-21.97265625,-33.69140625,0.0
1740447646.7495565,-39.55078125,-56.640625,-24.4140625,-41.50390625,0.0
1740447646.753462,-43.45703125,-44.43359375,-23.4375,-46.38671875,0.0
1740447646.7573678,-35.15625,-39.55078125,-14.6484375,-36.62109375,0.0
1740447646.7612736,-29.296875,-44.921875,-23.4375,-35.15625,0.0
1740447646.7651794,-35.64453125,-46.38671875,-36.62109375,-53.22265625,0.0
1740447646.7690852,-36.1328125,-38.0859375,-27.83203125,-48.33984375,0.0
1740447646.7729936,-24.4140625,-42.48046875,-21.97265625,-38.57421875,0.0
1740447646.7768993,-38.0859375,-52.24609375,-23.92578125,-48.33984375,0.0
1740447646.780805,-39.55078125,-46.38671875,-34.1796875,-45.41015625,0.0
1740447646.784711,-36.1328125,-44.43359375,-41.015625,-50.29296875,0.0
1740447646.7886167,-30.2734375,-52.24609375,-35.64453125,-58.10546875,0.0
1740447646.7925224,-27.34375,-51.7578125,-26.85546875,-50.29296875,0.0
1740447646.7964282,-35.64453125,-47.8515625,-26.85546875,-43.9453125,0.0
1740447646.800334,-37.59765625,-39.0625,-32.71484375,-40.0390625,0.0
1740447646.8042397,-42.96875,-39.0625,-24.90234375,-43.9453125,0.0
1740447646.8081455,-46.38671875,-46.875,-26.85546875,-56.15234375,0.0
1740447646.8120513,-48.33984375,-50.29296875,-32.2265625,-56.15234375,0.0
1740447646.815957,-42.96875,-48.33984375,-23.4375,-47.36328125,0.0
1740447646.819865,-37.59765625,-41.50390625,-20.01953125,-43.9453125,0.0
1740447646.8237708,-44.921875,-45.41015625,-22.4609375,-44.43359375,0.0
1740447646.8276765,-59.5703125,-52.24609375,-27.34375,-46.38671875,0.0
1740447646.8315823,-60.546875,-53.7109375,-31.73828125,-51.7578125,0.0
1740447646.8354878,-57.6171875,-53.7109375,-39.0625,-47.8515625,0.0
1740447646.8393936,-54.19921875,-51.7578125,-42.96875,-56.640625,0.0
1740447646.8432994,-51.26953125,-52.734375,-41.50390625,-58.59375,0.0
1740447646.8472052,-56.640625,-55.17578125,-41.50390625,-47.8515625,0.0
1740447646.851111,-42.96875,-46.875,-38.57421875,-36.1328125,0.0
1740447646.8550167,-40.52734375,-45.41015625,-37.109375,-37.59765625,0.0
1740447646.8589225,-57.6171875,-59.08203125,-33.203125,-39.0625,0.0
1740447646.8628283,-58.59375,-61.5234375,-21.484375,-42.48046875,0.0
1740447646.8667397,-49.8046875,-47.8515625,-26.3671875,-39.55078125,0.0
1740447646.8706455,-41.50390625,-44.921875,-37.109375,-30.2734375,0.0
1740447646.8745513,-51.7578125,-46.38671875,-31.73828125,-40.0390625,0.0
1740447646.878457,-45.41015625,-48.828125,-25.87890625,-52.734375,0.0
1740447646.8823628,-38.0859375,-59.5703125,-28.80859375,-42.48046875,0.0
1740447646.8862686,-34.1796875,-50.78125,-24.90234375,-30.2734375,0.0
1740447646.8901744,-45.8984375,-44.43359375,-35.64453125,-43.9453125,0.0
1740447646.89408,-64.94140625,-65.4296875,-48.33984375,-62.5,0.0
1740447646.8979857,-59.5703125,-56.640625,-48.828125,-54.19921875,0.0
1740447646.9018915,-52.734375,-56.15234375,-46.875,-46.38671875,0.0
1740447646.9057972,-41.015625,-48.828125,-30.2734375,-47.36328125,0.0
1740447646.909703,-30.76171875,-38.0859375,-24.90234375,-37.59765625,0.0
1740447646.913614,-40.0390625,-55.17578125,-43.9453125,-41.50390625,0.0
1740447646.9175198,-38.0859375,-58.10546875,-40.0390625,-56.15234375,0.0
1740447646.9214256,-41.9921875,-42.96875,-29.296875,-56.15234375,0.0
1740447646.9253314,-46.875,-48.33984375,-30.76171875,-44.921875,0.0
1740447646.9292371,-43.45703125,-54.6875,-27.34375,-48.828125,0.0
1740447646.933143,-41.50390625,-53.22265625,-25.87890625,-39.55078125,0.0
1740447646.9370487,-37.59765625,-44.43359375,-29.78515625,-30.76171875,0.0
1740447646.9409544,-42.48046875,-34.66796875,-42.96875,-42.96875,0.0
1740447646.94486,-45.41015625,-61.5234375,-47.36328125,-54.6875,0.0
1740447646.9487658,-48.33984375,-75.1953125,-36.1328125,-50.78125,0.0
1740447646.9526715,-42.96875,-55.6640625,-30.2734375,-39.55078125,0.0
1740447646.9565773,-33.203125,-57.12890625,-32.2265625,-41.9921875,0.0
1740447646.9604878,-36.1328125,-61.5234375,-33.69140625,-47.36328125,0.0
1740447646.9643936,-36.1328125,-49.8046875,-41.50390625,-47.8515625,0.0
1740447646.9682992,-30.76171875,-48.828125,-45.8984375,-54.19921875,0.0
1740447646.972205,-35.64453125,-52.24609375,-40.0390625,-48.33984375,0.0
1740447646.9761107,-42.48046875,-42.48046875,-36.1328125,-41.015625,0.0
1740447646.9800165,-40.0390625,-56.640625,-33.203125,-46.38671875,0.0
1740447646.9839222,-42.96875,-61.03515625,-36.62109375,-50.29296875,0.0
1740447646.987828,-36.1328125,-55.17578125,-41.015625,-49.8046875,0.0
1740447646.9917338,-34.66796875,-66.40625,-40.52734375,-52.734375,0.0
1740447646.9956396,-41.9921875,-50.78125,-47.8515625,-49.31640625,0.0
1740447646.9995453,-47.36328125,-44.43359375,-44.43359375,-54.6875,0.0
1740447647.003451,-40.52734375,-59.5703125,-33.69140625,-54.19921875,0.0
1740447647.007361,-37.109375,-63.96484375,-39.55078125,-54.19921875,0.0
1740447647.0112667,-32.2265625,-54.6875,-37.59765625,-49.31640625,0.0
1740447647.0151725,-33.203125,-45.41015625,-29.296875,-41.50390625,0.0
1740447647.0190783,-38.57421875,-40.52734375,-33.69140625,-44.43359375,0.0
1740447647.022984,-47.36328125,-41.50390625,-41.015625,-49.31640625,0.0
1740447647.0268898,-41.015625,-42.48046875,-35.15625,-42.96875,0.0
1740447647.0307956,-31.73828125,-36.62109375,-31.25,-38.0859375,0.0
1740447647.0347013,-37.59765625,-36.1328125,-34.1796875,-42.48046875,0.0
1740447647.0386071,-35.15625,-43.45703125,-33.203125,-30.2734375,0.0
1740447647.0425127,-32.71484375,-43.45703125,-33.203125,-36.1328125,0.0
1740447647.0464184,-39.0625,-44.43359375,-40.0390625,-46.38671875,0.0
1740447647.0503242,-29.78515625,-45.41015625,-35.15625,-46.875,0.0
1740447647.0542338,-31.73828125,-43.9453125,-26.85546875,-43.9453125,0.0
1740447647.0581396,-31.73828125,-39.0625,-30.76171875,-31.73828125,0.0
1740447647.062045,-21.97265625,-41.50390625,-33.69140625,-30.76171875,0.0
1740447647.0659509,-28.3203125,-48.33984375,-34.1796875,-26.85546875,0.0
1740447647.0698566,-31.25,-40.0390625,-36.62109375,-30.76171875,0.0
1740447647.0737624,-25.390625,-40.0390625,-35.15625,-41.9921875,0.0
1740447647.0776682,-32.71484375,-48.33984375,-38.0859375,-50.29296875,0.0
1740447647.081574,-53.22265625,-59.08203125,-38.0859375,-51.26953125,0.0
1740447647.0854797,-45.41015625,-60.05859375,-33.203125,-43.45703125,0.0
1740447647.0893855,-36.62109375,-43.45703125,-37.109375,-50.78125,0.0
1740447647.0932913,-41.015625,-44.921875,-41.015625,-57.6171875,0.0
1740447647.097197,-46.875,-47.36328125,-37.59765625,-44.43359375,0.0
1740447647.101106,-41.9921875,-31.73828125,-29.78515625,-27.83203125,0.0
1740447647.1050117,-31.73828125,-36.1328125,-37.109375,-33.69140625,0.0
1740447647.1089175,-37.109375,-41.9921875,-46.38671875,-45.8984375,0.0
1740447647.1128232,-44.921875,-34.66796875,-47.36328125,-39.0625,0.0
1740447647.116729,-37.59765625,-43.9453125,-43.45703125,-36.1328125,0.0
1740447647.1206348,-30.76171875,-49.31640625,-39.55078125,-35.15625,0.0
1740447647.1245406,-25.87890625,-41.9921875,-32.2265625,-23.4375,0.0
1740447647.1284463,-34.1796875,-43.9453125,-36.1328125,-15.13671875,0.0
1740447647.132352,-42.96875,-41.9921875,-45.8984375,-40.0390625,0.0
1740447647.136258,-41.9921875,-38.0859375,-42.48046875,-52.734375,0.0
1740447647.1401637,-40.0390625,-36.62109375,-43.45703125,-60.05859375,0.0
1740447647.1440692,-33.69140625,-41.015625,-41.015625,-56.15234375,0.0
1740447647.1479778,-27.83203125,-44.43359375,-37.109375,-36.62109375,0.0
1740447647.1518836,-30.2734375,-46.38671875,-41.015625,-33.69140625,0.0
1740447647.1557894,-23.92578125,-45.41015625,-42.96875,-39.55078125,0.0
1740447647.1596951,-13.671875,-45.8984375,-34.66796875,-31.73828125,0.0
1740447647.1636007,-37.109375,-39.0625,-30.2734375,-33.203125,0.0
1740447647.1675065,-43.45703125,-31.25,-35.64453125,-36.1328125,0.0
1740447647.1714122,-34.66796875,-58.10546875,-36.62109375,-32.2265625,0.0
1740447647.175318,-44.43359375,-57.12890625,-39.0625,-35.64453125,0.0
1740447647.1792238,-52.734375,-44.921875,-42.96875,-40.52734375,0.0
1740447647.1831295,-46.38671875,-52.24609375,-33.203125,-51.26953125,0.0
1740447647.1870353,-33.69140625,-39.0625,-28.80859375,-38.0859375,0.0
1740447647.190941,-32.2265625,-31.25,-34.1796875,-34.1796875,0.0
1740447647.194849,-37.59765625,-39.55078125,-38.57421875,-49.31640625,0.0
1740447647.1987548,-32.71484375,-40.52734375,-34.1796875,-38.57421875,0.0
1740447647.2026606,-34.1796875,-45.41015625,-36.1328125,-39.55078125,0.0
1740447647.2065663,-41.015625,-42.48046875,-40.0390625,-50.78125,0.0
1740447647.210472,-42.96875,-40.0390625,-39.55078125,-46.38671875,0.0
1740447647.2143779,-42.96875,-47.36328125,-36.62109375,-36.1328125,0.0
1740447647.2182837,-37.109375,-52.24609375,-32.71484375,-44.921875,0.0
1740447647.2221894,-37.109375,-42.48046875,-28.3203125,-41.015625,0.0
1740447647.2260952,-39.0625,-39.0625,-24.90234375,-21.97265625,0.0
1740447647.230001,-41.015625,-46.38671875,-20.99609375,-28.3203125,0.0
1740447647.2339067,-36.1328125,-48.33984375,-27.34375,-45.41015625,0.0
1740447647.2378125,-34.1796875,-44.43359375,-38.57421875,-50.29296875,0.0
1740447647.2417278,-41.015625,-41.50390625,-32.2265625,-35.64453125,0.0
1740447647.2456336,-37.59765625,-41.50390625,-29.78515625,-38.0859375,0.0
1740447647.2495394,-30.2734375,-43.9453125,-33.203125,-41.9921875,0.0
1740447647.2534451,-34.1796875,-53.22265625,-35.15625,-36.62109375,0.0
1740447647.2573507,-36.62109375,-57.6171875,-37.109375,-28.3203125,0.0
1740447647.2612565,-36.62109375,-58.59375,-37.109375,-30.76171875,0.0
1740447647.2651622,-41.015625,-40.52734375,-37.59765625,-40.52734375,0.0
1740447647.269068,-40.0390625,-24.4140625,-37.109375,-32.2265625,0.0
1740447647.2729738,-33.203125,-33.203125,-34.66796875,-29.296875,0.0
1740447647.2768795,-34.66796875,-45.8984375,-33.69140625,-36.1328125,0.0
1740447647.2807853,-29.78515625,-37.59765625,-29.296875,-26.85546875,0.0
1740447647.284691,-20.99609375,-29.78515625,-22.94921875,-14.6484375,0.0
1740447647.2886019,-33.203125,-35.64453125,-27.34375,-49.31640625,0.0
1740447647.2925076,-27.83203125,-33.203125,-31.73828125,-43.9453125,0.0
1740447647.2964134,-22.4609375,-34.1796875,-34.1796875,-25.87890625,0.0
1740447647.3003192,-28.80859375,-44.43359375,-40.52734375,-32.2265625,0.0
1740447647.304225,-19.04296875,-38.0859375,-37.59765625,-24.4140625,0.0
1740447647.3081307,-24.4140625,-35.64453125,-30.76171875,-29.78515625,0.0
