timestamps,TP9,AF7,AF8,TP10,Right AUX
1740447653.850861,-50.78125,-42.96875,-44.43359375,-48.828125,0.0
1740447653.8547668,-47.36328125,-48.828125,-44.921875,-55.6640625,0.0
1740447653.8586726,-53.7109375,-55.17578125,-43.9453125,-58.59375,0.0
1740447653.8625784,-63.96484375,-49.8046875,-35.64453125,-51.26953125,0.0
1740447653.8664842,-56.640625,-45.41015625,-34.66796875,-57.12890625,0.0
1740447653.87039,-46.38671875,-47.8515625,-35.64453125,-55.6640625,0.0
1740447653.8742957,-43.45703125,-44.43359375,-35.15625,-46.875,0.0
1740447653.8782015,-48.828125,-44.921875,-36.62109375,-42.48046875,0.0
1740447653.8821073,-58.59375,-38.57421875,-36.62109375,-51.26953125,0.0
1740447653.886013,-53.22265625,-37.59765625,-36.62109375,-42.96875,0.0
1740447653.8899188,-41.50390625,-44.921875,-34.66796875,-40.52734375,0.0
1740447653.8938246,-39.55078125,-38.57421875,-31.25,-44.921875,0.0
1740447653.897733,-45.41015625,-40.0390625,-36.1328125,-47.8515625,0.0
1740447653.9016387,-51.7578125,-43.45703125,-42.48046875,-52.24609375,0.0
1740447653.9055445,-45.8984375,-45.8984375,-41.015625,-51.7578125,0.0
1740447653.9094503,-54.6875,-52.734375,-39.0625,-52.734375,0.0
1740447653.913356,-54.19921875,-53.22265625,-39.0625,-47.36328125,0.0
1740447653.9172618,-39.0625,-47.36328125,-41.015625,-43.9453125,0.0
1740447653.9211676,-41.015625,-37.109375,-41.9921875,-41.9921875,0.0
1740447653.9250734,-37.59765625,-43.45703125,-37.109375,-37.59765625,0.0
1740447653.9289792,-36.1328125,-44.921875,-36.1328125,-39.55078125,0.0
1740447653.932885,-53.22265625,-47.8515625,-40.52734375,-35.15625,0.0
1740447653.9367907,-44.921875,-59.5703125,-42.96875,-37.59765625,0.0
1740447653.9406965,-39.0625,-54.6875,-45.41015625,-44.43359375,0.0
1740447653.9446046,-38.0859375,-44.921875,-43.9453125,-39.55078125,0.0
1740447653.9485104,-28.80859375,-41.9921875,-39.0625,-35.15625,0.0
1740447653.9524162,-30.76171875,-44.43359375,-39.0625,-31.25,0.0
1740447653.956322,-35.64453125,-41.9921875,-40.0390625,-26.3671875,0.0
1740447653.9602277,-34.66796875,-44.43359375,-41.50390625,-27.83203125,0.0
1740447653.9641335,-41.50390625,-54.19921875,-43.45703125,-38.0859375,0.0
1740447653.9680393,-46.38671875,-52.24609375,-44.921875,-35.15625,0.0
1740447653.971945,-41.50390625,-41.015625,-41.015625,-39.0625,0.0
1740447653.9758508,-44.921875,-38.0859375,-35.64453125,-41.9921875,0.0
1740447653.9797566,-42.96875,-44.43359375,-39.0625,-35.64453125,0.0
1740447653.9836624,-27.83203125,-44.43359375,-40.52734375,-31.73828125,0.0
1740447653.9875681,-33.69140625,-40.52734375,-38.0859375,-33.69140625,0.0
1740447653.9914794,-35.64453125,-46.875,-38.57421875,-38.0859375,0.0
1740447653.9953852,-35.15625,-46.875,-40.52734375,-38.0859375,0.0
1740447653.999291,-38.57421875,-43.45703125,-40.52734375,-31.25,0.0
1740447654.0031967,-36.62109375,-36.1328125,-37.59765625,-30.76171875,0.0
1740447654.0071025,-43.45703125,-22.94921875,-44.921875,-41.9921875,0.0
1740447654.0110083,-45.8984375,-43.9453125,-43.9453125,-41.9921875,0.0
1740447654.014914,-40.52734375,-50.29296875,-40.0390625,-39.0625,0.0
1740447654.0188198,-38.57421875,-40.52734375,-38.57421875,-39.0625,0.0
1740447654.0227256,-34.66796875,-46.38671875,-41.015625,-44.43359375,0.0
1740447654.0266314,-37.59765625,-51.26953125,-43.45703125,-45.8984375,0.0
1740447654.0305371,-38.57421875,-43.45703125,-39.55078125,-44.921875,0.0
1740447654.034443,-36.62109375,-42.96875,-39.55078125,-42.96875,0.0
1740447654.0383537,-36.1328125,-44.921875,-38.57421875,-40.52734375,0.0
1740447654.0422595,-31.25,-46.875,-42.48046875,-42.48046875,0.0
1740447654.0461652,-42.48046875,-38.0859375,-50.78125,-44.43359375,0.0
1740447654.050071,-49.8046875,-38.57421875,-48.828125,-48.828125,0.0
1740447654.0539768,-36.62109375,-45.8984375,-44.43359375,-44.921875,0.0
1740447654.0578825,-41.015625,-47.8515625,-48.828125,-41.50390625,0.0
1740447654.0617883,-52.24609375,-51.7578125,-52.24609375,-49.31640625,0.0
1740447654.065694,-39.0625,-46.38671875,-47.36328125,-47.8515625,0.0
1740447654.0695999,-38.57421875,-46.38671875,-45.41015625,-39.0625,0.0
1740447654.0735056,-42.96875,-49.8046875,-43.45703125,-42.48046875,0.0
1740447654.0774114,-41.015625,-41.9921875,-44.43359375,-53.7109375,0.0
1740447654.0813172,-51.26953125,-37.59765625,-48.828125,-60.546875,0.0
1740447654.0852275,-50.78125,-54.19921875,-43.45703125,-51.26953125,0.0
1740447654.0891333,-42.48046875,-52.734375,-42.96875,-51.26953125,0.0
1740447654.093039,-38.0859375,-49.8046875,-44.921875,-55.6640625,0.0
1740447654.0969448,-43.45703125,-60.546875,-41.50390625,-50.78125,0.0
1740447654.1008506,-47.8515625,-48.828125,-40.52734375,-46.875,0.0
1740447654.1047564,-48.33984375,-39.0625,-41.9921875,-47.36328125,0.0
1740447654.1086621,-43.9453125,-46.38671875,-41.9921875,-50.78125,0.0
1740447654.112568,-33.69140625,-41.9921875,-44.43359375,-46.38671875,0.0
1740447654.1164737,-28.80859375,-42.48046875,-45.41015625,-51.7578125,0.0
1740447654.1203794,-31.25,-47.36328125,-41.015625,-49.31640625,0.0
1740447654.1242852,-44.921875,-41.50390625,-38.0859375,-40.0390625,0.0
1740447654.128191,-42.96875,-44.43359375,-47.8515625,-48.828125,0.0
1740447654.1321008,-44.921875,-50.78125,-52.24609375,-53.7109375,0.0
1740447654.1360066,-50.29296875,-43.9453125,-45.8984375,-52.24609375,0.0
1740447654.1399124,-40.52734375,-37.59765625,-43.9453125,-44.43359375,0.0
1740447654.1438181,-43.9453125,-38.0859375,-45.8984375,-45.8984375,0.0
1740447654.147724,-45.41015625,-39.55078125,-48.33984375,-44.921875,0.0
1740447654.1516297,-39.55078125,-32.71484375,-50.29296875,-48.828125,0.0
1740447654.1555355,-41.015625,-45.41015625,-44.43359375,-53.7109375,0.0
1740447654.1594412,-45.41015625,-47.8515625,-39.55078125,-50.29296875,0.0
1740447654.163347,-44.43359375,-43.9453125,-42.96875,-41.50390625,0.0
1740447654.1672528,-42.48046875,-38.57421875,-41.9921875,-37.109375,0.0
1740447654.1711586,-41.015625,-36.62109375,-44.43359375,-61.5234375,0.0
1740447654.1750643,-43.45703125,-47.8515625,-51.26953125,-66.89453125,0.0
1740447654.1789737,-45.8984375,-53.22265625,-51.7578125,-50.78125,0.0
1740447654.1828794,-44.921875,-45.8984375,-43.9453125,-41.9921875,0.0
1740447654.1867852,-38.57421875,-45.41015625,-49.8046875,-42.96875,0.0
1740447654.190691,-35.15625,-49.31640625,-59.08203125,-39.0625,0.0
1740447654.1945968,-49.8046875,-53.7109375,-57.12890625,-45.8984375,0.0
1740447654.1985025,-50.29296875,-54.19921875,-57.6171875,-56.15234375,0.0
1740447654.2024083,-44.43359375,-53.22265625,-57.6171875,-52.24609375,0.0
1740447654.206314,-49.8046875,-52.24609375,-59.08203125,-43.45703125,0.0
1740447654.2102199,-45.41015625,-47.36328125,-55.6640625,-55.17578125,0.0
1740447654.2141256,-59.08203125,-41.50390625,-54.19921875,-62.98828125,0.0
1740447654.2180314,-61.03515625,-43.45703125,-59.08203125,-53.7109375,0.0
1740447654.2219372,-42.48046875,-42.48046875,-53.22265625,-48.828125,0.0
1740447654.225846,-40.0390625,-40.0390625,-45.8984375,-47.8515625,0.0
1740447654.2297518,-53.22265625,-39.55078125,-52.734375,-64.453125,0.0
1740447654.2336576,-52.24609375,-43.9453125,-52.24609375,-61.03515625,0.0
1740447654.2375634,-51.7578125,-41.015625,-51.7578125,-50.78125,0.0
1740447654.2414691,-59.5703125,-38.57421875,-51.26953125,-58.10546875,0.0
1740447654.245375,-63.4765625,-56.640625,-47.36328125,-64.94140625,0.0
1740447654.2492807,-63.4765625,-51.26953125,-48.828125,-65.91796875,0.0
1740447654.2531865,-54.19921875,-48.33984375,-45.8984375,-56.640625,0.0
1740447654.2570922,-54.19921875,-43.9453125,-38.57421875,-46.875,0.0
1740447654.260998,-55.6640625,-40.0390625,-35.15625,-50.78125,0.0
1740447654.2649038,-55.17578125,-43.45703125,-39.0625,-53.22265625,0.0
1740447654.2688096,-43.45703125,-36.62109375,-40.52734375,-46.875,0.0
1740447654.272718,-47.36328125,-34.1796875,-41.9921875,-46.875,0.0
1740447654.2766237,-52.24609375,-39.0625,-43.9453125,-46.38671875,0.0
1740447654.2805295,-51.26953125,-42.48046875,-43.45703125,-61.03515625,0.0
1740447654.2844353,-59.5703125,-37.59765625,-41.9921875,-61.03515625,0.0
1740447654.288341,-52.734375,-43.9453125,-39.55078125,-50.29296875,0.0
1740447654.2922468,-43.45703125,-51.26953125,-43.45703125,-52.24609375,0.0
1740447654.2961526,-56.640625,-51.26953125,-50.29296875,-57.6171875,0.0
1740447654.3000584,-65.91796875,-47.36328125,-48.33984375,-56.640625,0.0
1740447654.3039641,-59.08203125,-46.38671875,-46.875,-55.6640625,0.0
1740447654.30787,-47.8515625,-49.8046875,-48.828125,-53.7109375,0.0
1740447654.3117757,-41.9921875,-52.734375,-48.828125,-55.17578125,0.0
1740447654.3156812,-55.17578125,-48.828125,-51.7578125,-64.94140625,0.0
1740447654.3195894,-55.6640625,-47.36328125,-57.12890625,-64.453125,0.0
1740447654.3234951,-36.62109375,-45.8984375,-50.29296875,-58.10546875,0.0
1740447654.327401,-46.38671875,-31.73828125,-52.734375,-60.05859375,0.0
1740447654.3313067,-50.29296875,-37.59765625,-53.22265625,-62.5,0.0
1740447654.3352125,-53.22265625,-46.875,-47.8515625,-57.6171875,0.0
1740447654.3391182,-51.7578125,-44.43359375,-48.828125,-45.41015625,0.0
1740447654.343024,-41.015625,-50.29296875,-48.828125,-46.875,0.0
1740447654.3469298,-41.015625,-41.015625,-49.8046875,-58.10546875,0.0
1740447654.3508356,-46.875,-41.50390625,-49.8046875,-57.12890625,0.0
1740447654.3547413,-57.12890625,-50.78125,-49.8046875,-50.78125,0.0
1740447654.3586469,-51.26953125,-42.96875,-51.26953125,-43.45703125,0.0
1740447654.3625526,-46.38671875,-43.45703125,-47.36328125,-42.96875,0.0
1740447654.3664606,-60.546875,-51.26953125,-45.8984375,-52.24609375,0.0
1740447654.3703663,-58.59375,-53.7109375,-47.8515625,-51.7578125,0.0
1740447654.374272,-60.05859375,-50.29296875,-47.8515625,-49.8046875,0.0
1740447654.378178,-56.15234375,-51.26953125,-48.33984375,-48.828125,0.0
1740447654.3820837,-63.4765625,-49.31640625,-48.33984375,-51.7578125,0.0
1740447654.3859894,-62.01171875,-50.78125,-46.38671875,-59.08203125,0.0
1740447654.3898952,-47.36328125,-48.33984375,-42.48046875,-50.78125,0.0
1740447654.393801,-47.8515625,-40.0390625,-38.0859375,-49.31640625,0.0
1740447654.3977067,-50.78125,-39.0625,-39.0625,-53.7109375,0.0
1740447654.4016125,-52.24609375,-49.31640625,-41.015625,-42.96875,0.0
1740447654.4055183,-51.7578125,-50.78125,-42.48046875,-40.52734375,0.0
1740447654.409424,-45.41015625,-43.9453125,-43.45703125,-49.31640625,0.0
1740447654.4133348,-54.6875,-51.26953125,-32.71484375,-48.33984375,0.0
1740447654.4172406,-52.24609375,-54.19921875,-35.15625,-49.8046875,0.0
1740447654.4211464,-49.31640625,-47.8515625,-45.41015625,-41.50390625,0.0
1740447654.4250522,-55.17578125,-40.52734375,-45.41015625,-42.48046875,0.0
1740447654.428958,-48.33984375,-50.29296875,-41.9921875,-47.36328125,0.0
1740447654.4328637,-48.33984375,-55.6640625,-41.015625,-41.9921875,0.0
1740447654.4367695,-40.52734375,-45.41015625,-41.015625,-42.48046875,0.0
1740447654.4406753,-31.25,-42.96875,-43.45703125,-50.78125,0.0
1740447654.444581,-33.203125,-47.36328125,-41.9921875,-55.17578125,0.0
1740447654.4484868,-37.59765625,-47.36328125,-39.0625,-45.41015625,0.0
1740447654.4523926,-33.69140625,-44.921875,-37.109375,-40.0390625,0.0
1740447654.4562984,-35.64453125,-46.875,-36.62109375,-39.0625,0.0
1740447654.4602087,-45.41015625,-50.78125,-38.0859375,-31.25,0.0
1740447654.4641144,-34.66796875,-48.33984375,-34.66796875,-26.85546875,0.0
1740447654.4680202,-23.4375,-49.31640625,-36.62109375,-39.55078125,0.0
1740447654.471926,-24.4140625,-51.26953125,-38.0859375,-44.43359375,0.0
1740447654.4758317,-29.78515625,-53.22265625,-39.55078125,-42.48046875,0.0
1740447654.4797375,-37.59765625,-51.26953125,-40.52734375,-48.33984375,0.0
1740447654.4836433,-34.1796875,-49.31640625,-38.57421875,-48.828125,0.0
1740447654.487549,-33.69140625,-52.734375,-38.57421875,-48.828125,0.0
1740447654.4914548,-32.71484375,-64.453125,-42.96875,-41.015625,0.0
1740447654.4953606,-38.57421875,-54.19921875,-45.41015625,-34.66796875,0.0
1740447654.4992664,-40.52734375,-45.8984375,-42.96875,-39.55078125,0.0
1740447654.5031722,-34.66796875,-52.734375,-42.48046875,-41.50390625,0.0
1740447654.507082,-45.41015625,-54.6875,-40.52734375,-42.96875,0.0
1740447654.5109878,-56.15234375,-47.36328125,-41.9921875,-48.828125,0.0
1740447654.5148935,-46.875,-46.38671875,-40.52734375,-49.31640625,0.0
1740447654.5187993,-37.59765625,-53.22265625,-41.50390625,-41.50390625,0.0
1740447654.522705,-26.85546875,-46.875,-43.45703125,-42.96875,0.0
1740447654.5266109,-34.66796875,-37.59765625,-52.24609375,-52.24609375,0.0
1740447654.5305166,-49.8046875,-51.26953125,-58.59375,-58.10546875,0.0
1740447654.5344224,-46.38671875,-59.5703125,-51.26953125,-53.22265625,0.0
1740447654.5383282,-45.41015625,-55.17578125,-48.33984375,-49.8046875,0.0
1740447654.542234,-45.8984375,-53.22265625,-49.31640625,-59.08203125,0.0
1740447654.5461397,-45.8984375,-50.78125,-46.875,-65.91796875,0.0
1740447654.5500455,-39.0625,-51.7578125,-43.45703125,-56.15234375,0.0
1740447654.5539548,-36.62109375,-52.24609375,-47.36328125,-42.48046875,0.0
1740447654.5578606,-41.50390625,-47.8515625,-47.8515625,-43.9453125,0.0
1740447654.5617664,-54.19921875,-43.9453125,-48.33984375,-53.22265625,0.0
1740447654.5656722,-51.7578125,-51.7578125,-51.7578125,-47.36328125,0.0
1740447654.569578,-44.43359375,-51.26953125,-52.734375,-44.43359375,0.0
1740447654.5734837,-41.9921875,-46.38671875,-50.78125,-46.38671875,0.0
1740447654.5773895,-51.7578125,-46.38671875,-49.31640625,-54.6875,0.0
1740447654.5812953,-58.10546875,-45.8984375,-48.828125,-54.6875,0.0
1740447654.585201,-53.7109375,-50.78125,-46.875,-52.734375,0.0
1740447654.5891068,-41.9921875,-51.26953125,-44.921875,-64.453125,0.0
1740447654.5930126,-37.109375,-46.38671875,-49.8046875,-62.98828125,0.0
1740447654.5969183,-42.48046875,-52.24609375,-51.26953125,-50.29296875,0.0
1740447654.6008275,-44.921875,-51.26953125,-43.45703125,-45.41015625,0.0
1740447654.6047332,-48.33984375,-46.875,-44.43359375,-50.29296875,0.0
1740447654.608639,-41.50390625,-46.875,-43.9453125,-45.41015625,0.0
1740447654.6125448,-41.50390625,-47.8515625,-36.1328125,-39.0625,0.0
1740447654.6164505,-43.9453125,-44.43359375,-33.69140625,-48.33984375,0.0
1740447654.6203563,-44.921875,-41.9921875,-35.64453125,-47.8515625,0.0
1740447654.624262,-38.0859375,-40.0390625,-36.62109375,-38.57421875,0.0
1740447654.6281679,-42.48046875,-50.78125,-39.0625,-43.9453125,0.0
1740447654.6320736,-60.546875,-43.45703125,-40.52734375,-54.6875,0.0
1740447654.6359792,-56.640625,-34.66796875,-34.66796875,-52.734375,0.0
1740447654.639885,-33.203125,-47.8515625,-31.25,-37.109375,0.0
1740447654.6437907,-36.1328125,-45.8984375,-31.25,-43.45703125,0.0
1740447654.6476994,-54.6875,-41.50390625,-32.71484375,-48.828125,0.0
1740447654.6516051,-50.78125,-41.50390625,-35.15625,-44.921875,0.0
1740447654.655511,-41.015625,-47.8515625,-32.71484375,-43.45703125,0.0
1740447654.6594167,-42.48046875,-48.828125,-30.2734375,-39.55078125,0.0
1740447654.6633224,-40.52734375,-45.8984375,-29.296875,-44.43359375,0.0
1740447654.6672282,-42.96875,-46.875,-29.296875,-49.8046875,0.0
1740447654.671134,-43.9453125,-45.41015625,-30.2734375,-47.36328125,0.0
1740447654.6750398,-41.9921875,-39.55078125,-31.73828125,-53.7109375,0.0
1740447654.6789453,-48.33984375,-37.109375,-32.2265625,-56.15234375,0.0
1740447654.682851,-47.8515625,-38.0859375,-31.73828125,-47.36328125,0.0
1740447654.6867568,-35.64453125,-37.109375,-34.1796875,-43.45703125,0.0
1740447654.6906626,-46.875,-44.921875,-41.9921875,-54.19921875,0.0
1740447654.6945708,-64.453125,-40.52734375,-42.96875,-62.98828125,0.0
1740447654.6984766,-50.78125,-42.96875,-38.0859375,-53.22265625,0.0
1740447654.7023823,-43.45703125,-47.8515625,-42.48046875,-52.24609375,0.0
1740447654.706288,-38.57421875,-38.0859375,-41.9921875,-46.38671875,0.0
1740447654.7101939,-38.0859375,-38.0859375,-37.59765625,-38.57421875,0.0
1740447654.7140996,-49.8046875,-45.8984375,-39.0625,-39.0625,0.0
1740447654.7180054,-48.828125,-45.8984375,-40.52734375,-38.57421875,0.0
1740447654.7219112,-42.48046875,-44.43359375,-34.1796875,-40.0390625,0.0
1740447654.725817,-44.921875,-36.62109375,-38.0859375,-49.8046875,0.0
1740447654.7297225,-50.29296875,-40.52734375,-43.9453125,-58.59375,0.0
1740447654.7336283,-55.6640625,-52.734375,-39.55078125,-51.7578125,0.0
1740447654.737534,-50.78125,-44.921875,-34.1796875,-43.9453125,0.0
1740447654.7414455,-35.15625,-40.52734375,-30.76171875,-38.57421875,0.0
1740447654.7453513,-39.0625,-48.828125,-35.15625,-37.109375,0.0
1740447654.749257,-46.875,-47.8515625,-33.69140625,-42.48046875,0.0
1740447654.7531629,-34.66796875,-39.55078125,-33.203125,-46.38671875,0.0
1740447654.7570686,-34.1796875,-39.55078125,-39.55078125,-41.50390625,0.0
1740447654.7609744,-35.64453125,-48.828125,-38.0859375,-35.15625,0.0
1740447654.7648802,-34.1796875,-44.921875,-36.1328125,-36.62109375,0.0
1740447654.768786,-36.1328125,-42.96875,-40.0390625,-51.26953125,0.0
1740447654.7726917,-24.90234375,-49.8046875,-44.921875,-48.33984375,0.0
1740447654.7765973,-27.34375,-49.31640625,-42.96875,-40.52734375,0.0
1740447654.780503,-30.2734375,-42.48046875,-38.57421875,-41.015625,0.0
1740447654.7844088,-32.71484375,-40.0390625,-39.0625,-46.875,0.0
1740447654.7883198,-33.69140625,-37.109375,-41.015625,-40.0390625,0.0
1740447654.7922256,-32.71484375,-39.55078125,-41.015625,-34.66796875,0.0
1740447654.7961314,-38.57421875,-43.45703125,-40.0390625,-47.36328125,0.0
1740447654.8000371,-39.55078125,-45.41015625,-41.9921875,-45.41015625,0.0
1740447654.803943,-31.73828125,-47.36328125,-44.921875,-42.48046875,0.0
1740447654.8078487,-36.62109375,-45.41015625,-42.48046875,-34.66796875,0.0
1740447654.8117545,-50.78125,-49.31640625,-38.0859375,-32.71484375,0.0
1740447654.81566,-50.78125,-51.26953125,-35.64453125,-36.62109375,0.0
1740447654.8195658,-48.828125,-42.96875,-40.0390625,-32.71484375,0.0
1740447654.8234715,-37.59765625,-49.31640625,-40.52734375,-26.3671875,0.0
1740447654.8273773,-32.2265625,-56.640625,-33.203125,-36.1328125,0.0
1740447654.831283,-46.38671875,-54.19921875,-33.203125,-41.50390625,0.0
1740447654.8351936,-49.8046875,-54.6875,-38.57421875,-40.52734375,0.0
1740447654.8390994,-34.1796875,-50.78125,-36.62109375,-32.71484375,0.0
1740447654.8430052,-31.73828125,-45.8984375,-32.71484375,-28.80859375,0.0
1740447654.846911,-47.8515625,-46.38671875,-37.109375,-45.41015625,0.0
1740447654.8508167,-45.41015625,-47.8515625,-37.59765625,-39.55078125,0.0
1740447654.8547225,-39.55078125,-50.29296875,-37.59765625,-39.0625,0.0
1740447654.858628,-41.015625,-52.734375,-37.109375,-42.96875,0.0
1740447654.8625338,-42.96875,-45.8984375,-36.62109375,-41.9921875,0.0
1740447654.8664396,-44.921875,-48.828125,-38.57421875,-30.76171875,0.0
1740447654.8703454,-44.921875,-47.8515625,-41.9921875,-27.83203125,0.0
1740447654.8742511,-51.26953125,-43.45703125,-42.48046875,-37.59765625,0.0
1740447654.878157,-56.15234375,-43.9453125,-41.015625,-38.0859375,0.0
1740447654.882067,-45.8984375,-50.29296875,-43.45703125,-37.109375,0.0
1740447654.8859727,-32.71484375,-37.109375,-35.15625,-27.34375,0.0
1740447654.8898785,-31.25,-28.3203125,-34.1796875,-30.2734375,0.0
1740447654.8937843,-36.1328125,-38.0859375,-42.48046875,-36.1328125,0.0
1740447654.89769,-42.96875,-40.0390625,-40.0390625,-33.69140625,0.0
1740447654.9015958,-43.45703125,-37.59765625,-40.52734375,-37.109375,0.0
1740447654.9055016,-39.0625,-45.41015625,-42.96875,-36.62109375,0.0
1740447654.9094071,-40.52734375,-48.828125,-44.43359375,-34.66796875,0.0
1740447654.913313,-49.31640625,-31.73828125,-42.96875,-35.64453125,0.0
1740447654.9172187,-39.0625,-34.66796875,-38.57421875,-38.57421875,0.0
1740447654.9211245,-34.1796875,-51.7578125,-37.59765625,-50.78125,0.0
1740447654.9250302,-36.1328125,-47.36328125,-40.52734375,-54.19921875,0.0
1740447654.9289398,-34.66796875,-38.0859375,-39.0625,-47.36328125,0.0
1740447654.9328456,-31.25,-36.1328125,-39.0625,-46.38671875,0.0
1740447654.9367514,-24.4140625,-37.109375,-41.9921875,-52.24609375,0.0
1740447654.9406571,-42.48046875,-44.43359375,-41.015625,-51.26953125,0.0
1740447654.944563,-45.8984375,-44.921875,-38.57421875,-43.45703125,0.0
1740447654.9484687,-36.62109375,-43.45703125,-38.57421875,-45.8984375,0.0
1740447654.9523742,-40.0390625,-48.33984375,-43.9453125,-55.17578125,0.0
1740447654.95628,-42.48046875,-53.7109375,-46.875,-58.59375,0.0
1740447654.9601858,-36.62109375,-53.22265625,-49.8046875,-43.9453125,0.0
1740447654.9640915,-42.96875,-46.38671875,-54.19921875,-42.48046875,0.0
1740447654.9679973,-48.828125,-44.43359375,-51.7578125,-47.36328125,0.0
1740447654.971903,-36.1328125,-45.41015625,-47.36328125,-38.0859375,0.0
1740447654.9758122,-30.2734375,-44.43359375,-46.38671875,-37.109375,0.0
1740447654.979718,-33.69140625,-48.33984375,-51.26953125,-45.41015625,0.0
1740447654.9836237,-30.76171875,-49.31640625,-52.24609375,-46.875,0.0
1740447654.9875295,-30.76171875,-43.9453125,-46.38671875,-39.0625,0.0
1740447654.991435,-34.1796875,-40.52734375,-48.33984375,-44.921875,0.0
1740447654.9953408,-38.57421875,-44.43359375,-53.22265625,-48.33984375,0.0
1740447654.9992466,-39.55078125,-39.55078125,-52.734375,-37.109375,0.0
1740447655.0031524,-30.76171875,-35.15625,-54.19921875,-39.0625,0.0
1740447655.0070581,-30.76171875,-45.8984375,-45.8984375,-46.38671875,0.0
1740447655.010964,-27.34375,-45.41015625,-47.36328125,-42.96875,0.0
1740447655.0148697,-33.69140625,-39.55078125,-53.22265625,-42.96875,0.0
1740447655.0187755,-39.55078125,-37.109375,-47.36328125,-49.31640625,0.0
1740447655.022684,-39.0625,-39.55078125,-44.43359375,-39.0625,0.0
1740447655.0265899,-47.8515625,-47.36328125,-46.875,-41.50390625,0.0
1740447655.0304956,-44.921875,-49.31640625,-45.8984375,-46.875,0.0
1740447655.0344014,-41.50390625,-50.29296875,-47.36328125,-46.875,0.0
1740447655.0383072,-38.57421875,-52.734375,-44.43359375,-45.41015625,0.0
1740447655.0422127,-41.015625,-50.29296875,-39.55078125,-42.48046875,0.0
1740447655.0461185,-39.55078125,-49.8046875,-36.1328125,-37.59765625,0.0
1740447655.0500243,-41.9921875,-43.9453125,-37.109375,-36.62109375,0.0
1740447655.05393,-48.828125,-41.50390625,-41.015625,-43.9453125,0.0
1740447655.0578358,-47.8515625,-44.43359375,-44.43359375,-43.9453125,0.0
1740447655.0617416,-55.17578125,-56.15234375,-49.31640625,-43.9453125,0.0
1740447655.0656474,-50.78125,-52.734375,-46.875,-43.45703125,0.0
1740447655.0695555,-41.9921875,-39.0625,-40.0390625,-34.66796875,0.0
1740447655.0734613,-40.52734375,-42.48046875,-34.1796875,-36.62109375,0.0
1740447655.077367,-41.9921875,-49.31640625,-37.109375,-41.9921875,0.0
1740447655.0812728,-39.0625,-43.9453125,-38.57421875,-33.69140625,0.0
1740447655.0851786,-43.45703125,-41.015625,-39.55078125,-38.57421875,0.0
1740447655.0890844,-42.48046875,-50.29296875,-43.45703125,-41.9921875,0.0
1740447655.0929902,-39.55078125,-51.26953125,-42.96875,-43.9453125,0.0
1740447655.0968957,-40.0390625,-43.45703125,-39.0625,-45.41015625,0.0
1740447655.1008015,-50.78125,-40.52734375,-38.57421875,-49.31640625,0.0
1740447655.1047072,-54.6875,-46.38671875,-38.0859375,-51.26953125,0.0
1740447655.108613,-51.7578125,-44.43359375,-38.57421875,-54.19921875,0.0
1740447655.1125188,-53.7109375,-41.9921875,-44.921875,-59.5703125,0.0
1740447655.1164267,-43.45703125,-49.31640625,-44.921875,-58.10546875,0.0
1740447655.1203325,-52.24609375,-53.7109375,-43.9453125,-53.7109375,0.0
1740447655.1242383,-44.921875,-31.73828125,-39.55078125,-43.9453125,0.0
1740447655.128144,-39.55078125,-30.2734375,-40.52734375,-41.9921875,0.0
1740447655.1320498,-50.29296875,-51.7578125,-37.59765625,-49.8046875,0.0
1740447655.1359556,-44.43359375,-41.9921875,-33.203125,-48.33984375,0.0
1740447655.1398613,-45.8984375,-38.0859375,-40.0390625,-48.828125,0.0
1740447655.143767,-53.22265625,-38.0859375,-43.9453125,-59.08203125,0.0
1740447655.147673,-49.31640625,-40.0390625,-47.8515625,-64.453125,0.0
1740447655.1515787,-44.43359375,-44.43359375,-48.33984375,-59.08203125,0.0
1740447655.1554844,-53.7109375,-35.15625,-47.8515625,-59.5703125,0.0
1740447655.15939,-60.05859375,-33.203125,-48.828125,-66.40625,0.0
1740447655.163301,-63.4765625,-41.9921875,-49.8046875,-65.4296875,0.0
1740447655.1672068,-62.5,-43.9453125,-49.8046875,-72.75390625,0.0
1740447655.1711125,-51.7578125,-45.41015625,-46.38671875,-68.359375,0.0
1740447655.1750183,-46.38671875,-44.921875,-48.828125,-62.01171875,0.0
1740447655.178924,-52.24609375,-42.96875,-47.8515625,-65.91796875,0.0
1740447655.1828299,-67.3828125,-54.19921875,-51.26953125,-64.94140625,0.0
1740447655.1867356,-56.640625,-54.6875,-53.22265625,-59.5703125,0.0
1740447655.1906414,-41.9921875,-42.48046875,-45.8984375,-53.7109375,0.0
1740447655.1945472,-51.26953125,-43.9453125,-41.9921875,-63.4765625,0.0
1740447655.198453,-63.4765625,-48.33984375,-46.38671875,-64.453125,0.0
1740447655.2023587,-50.29296875,-41.015625,-49.8046875,-59.08203125,0.0
1740447655.2062645,-33.203125,-40.0390625,-49.8046875,-51.7578125,0.0
1740447655.2101748,-41.50390625,-49.8046875,-49.8046875,-50.78125,0.0
1740447655.2140806,-41.9921875,-47.36328125,-49.8046875,-55.6640625,0.0
1740447655.2179863,-48.33984375,-35.64453125,-50.29296875,-54.6875,0.0
1740447655.221892,-49.31640625,-42.48046875,-52.734375,-47.36328125,0.0
1740447655.225798,-35.64453125,-47.8515625,-48.33984375,-54.19921875,0.0
1740447655.2297037,-46.38671875,-41.9921875,-49.8046875,-59.08203125,0.0
1740447655.2336094,-49.8046875,-36.62109375,-50.78125,-48.33984375,0.0
1740447655.2375152,-31.25,-29.296875,-43.45703125,-38.57421875,0.0
1740447655.241421,-36.62109375,-43.9453125,-48.828125,-41.9921875,0.0
1740447655.2453268,-41.50390625,-45.41015625,-55.17578125,-50.29296875,0.0
1740447655.2492325,-28.3203125,-44.921875,-50.29296875,-50.29296875,0.0
1740447655.2531383,-21.97265625,-46.875,-46.875,-41.015625,0.0
1740447655.2570481,-34.1796875,-46.38671875,-46.38671875,-47.8515625,0.0
1740447655.260954,-30.2734375,-41.50390625,-46.38671875,-55.17578125,0.0
1740447655.2648597,-23.4375,-40.52734375,-48.33984375,-47.36328125,0.0
1740447655.2687654,-29.78515625,-41.50390625,-43.45703125,-39.0625,0.0
1740447655.2726712,-34.1796875,-38.57421875,-37.109375,-39.0625,0.0
1740447655.276577,-40.0390625,-39.55078125,-40.0390625,-45.8984375,0.0
1740447655.2804828,-40.52734375,-36.62109375,-41.015625,-44.921875,0.0
1740447655.2843885,-41.015625,-38.0859375,-37.109375,-37.59765625,0.0
1740447655.2882943,-34.1796875,-41.015625,-34.1796875,-32.2265625,0.0
1740447655.2922,-35.64453125,-37.109375,-39.55078125,-40.0390625,0.0
1740447655.2961059,-40.0390625,-35.15625,-47.36328125,-43.9453125,0.0
1740447655.3000116,-42.48046875,-35.15625,-41.50390625,-38.0859375,0.0
1740447655.303921,-50.78125,-45.41015625,-38.0859375,-39.55078125,0.0
1740447655.3078268,-42.48046875,-46.38671875,-39.0625,-40.0390625,0.0
1740447655.3117325,-43.45703125,-43.9453125,-39.0625,-38.57421875,0.0
1740447655.3156383,-57.12890625,-41.50390625,-44.43359375,-35.64453125,0.0
1740447655.319544,-46.38671875,-39.55078125,-47.36328125,-37.109375,0.0
1740447655.3234499,-44.43359375,-42.96875,-51.26953125,-43.45703125,0.0
1740447655.3273556,-56.15234375,-39.55078125,-52.24609375,-45.8984375,0.0
1740447655.3312614,-53.7109375,-42.48046875,-47.8515625,-51.7578125,0.0
1740447655.3351672,-42.48046875,-47.36328125,-46.875,-50.29296875,0.0
1740447655.339073,-37.59765625,-44.43359375,-45.8984375,-50.29296875,0.0
1740447655.3429787,-48.828125,-42.96875,-47.36328125,-44.43359375,0.0
1740447655.3468845,-50.78125,-47.36328125,-48.828125,-43.45703125,0.0
1740447655.3507934,-41.50390625,-42.48046875,-43.9453125,-44.921875,0.0
1740447655.3546991,-36.1328125,-18.5546875,-43.9453125,-41.015625,0.0
1740447655.358605,-48.33984375,-36.62109375,-49.31640625,-48.33984375,0.0
1740447655.3625107,-58.10546875,-51.7578125,-48.828125,-55.17578125,0.0
1740447655.3664165,-44.921875,-45.41015625,-42.96875,-52.734375,0.0
1740447655.3703222,-41.50390625,-40.0390625,-42.96875,-42.48046875,0.0
1740447655.374228,-46.38671875,-44.43359375,-44.921875,-39.55078125,0.0
1740447655.3781338,-47.8515625,-54.19921875,-44.43359375,-42.48046875,0.0
1740447655.3820395,-41.9921875,-44.921875,-44.921875,-42.96875,0.0
1740447655.3859453,-37.59765625,-35.15625,-41.9921875,-42.96875,0.0
1740447655.389851,-31.25,-32.2265625,-41.50390625,-39.55078125,0.0
1740447655.3937569,-30.76171875,-36.62109375,-38.57421875,-40.52734375,0.0
1740447655.3976653,-35.15625,-41.50390625,-36.62109375,-34.1796875,0.0
1740447655.401571,-39.55078125,-38.0859375,-41.015625,-28.3203125,0.0
1740447655.4054768,-37.59765625,-40.52734375,-44.43359375,-31.73828125,0.0
1740447655.4093826,-38.0859375,-43.45703125,-42.96875,-36.62109375,0.0
1740447655.4132884,-38.0859375,-35.15625,-47.8515625,-44.921875,0.0
1740447655.4171941,-41.50390625,-35.15625,-50.78125,-57.6171875,0.0
1740447655.4211,-45.41015625,-41.9921875,-46.38671875,-47.36328125,0.0
1740447655.4250057,-30.76171875,-32.2265625,-42.48046875,-36.62109375,0.0
1740447655.4289114,-35.15625,-32.2265625,-48.828125,-48.828125,0.0
1740447655.4328172,-44.43359375,-41.015625,-51.7578125,-52.734375,0.0
1740447655.436723,-33.69140625,-43.9453125,-48.828125,-39.0625,0.0
1740447655.4406288,-38.57421875,-43.45703125,-49.31640625,-38.0859375,0.0
1740447655.4445367,-42.96875,-38.57421875,-46.38671875,-40.52734375,0.0
1740447655.4484425,-43.45703125,-43.45703125,-39.0625,-32.71484375,0.0
1740447655.4523482,-41.9921875,-36.62109375,-39.55078125,-34.66796875,0.0
1740447655.456254,-41.9921875,-20.5078125,-44.921875,-41.015625,0.0
1740447655.4601598,-36.1328125,-38.57421875,-41.015625,-35.15625,0.0
1740447655.4640656,-27.83203125,-43.45703125,-34.66796875,-29.296875,0.0
1740447655.4679713,-39.55078125,-46.38671875,-37.59765625,-29.78515625,0.0
1740447655.471877,-33.69140625,-36.1328125,-34.66796875,-29.78515625,0.0
1740447655.4757829,-25.390625,-35.15625,-27.34375,-30.2734375,0.0
1740447655.4796886,-32.2265625,-43.45703125,-32.71484375,-34.66796875,0.0
1740447655.4835944,-36.1328125,-35.64453125,-35.15625,-40.0390625,0.0
1740447655.4875002,-43.9453125,-32.71484375,-33.203125,-39.55078125,0.0
1740447655.4914076,-36.1328125,-31.73828125,-33.203125,-36.1328125,0.0
1740447655.4953134,-34.66796875,-37.109375,-35.64453125,-33.69140625,0.0
1740447655.4992192,-39.0625,-43.9453125,-33.69140625,-41.9921875,0.0
1740447655.503125,-43.45703125,-45.41015625,-35.15625,-46.38671875,0.0
1740447655.5070307,-40.0390625,-42.96875,-38.57421875,-41.9921875,0.0
1740447655.5109365,-43.9453125,-45.8984375,-38.0859375,-40.52734375,0.0
1740447655.5148423,-44.43359375,-42.96875,-36.1328125,-41.015625,0.0
1740447655.518748,-35.64453125,-40.0390625,-36.1328125,-48.828125,0.0
1740447655.5226538,-33.69140625,-43.9453125,-35.64453125,-53.22265625,0.0
1740447655.5265596,-38.0859375,-39.0625,-33.203125,-52.734375,0.0
1740447655.5304654,-47.8515625,-35.15625,-30.2734375,-50.78125,0.0
1740447655.5343711,-46.38671875,-34.66796875,-33.69140625,-51.26953125,0.0
1740447655.5382822,-37.59765625,-36.62109375,-30.76171875,-50.78125,0.0
1740447655.542188,-42.48046875,-41.9921875,-28.80859375,-54.6875,0.0
1740447655.5460937,-43.9453125,-39.55078125,-36.62109375,-63.4765625,0.0
1740447655.5499995,-60.05859375,-32.71484375,-43.45703125,-62.98828125,0.0
1740447655.5539052,-83.0078125,-26.85546875,-42.96875,-74.70703125,0.0
1740447655.557811,-102.5390625,-46.38671875,-56.15234375,-102.5390625,0.0
1740447655.5617168,-112.79296875,-49.8046875,-66.89453125,-122.55859375,0.0
1740447655.5656226,-125.0,-40.0390625,-62.01171875,-135.25390625,0.0
1740447655.5695283,-146.484375,-39.55078125,-65.4296875,-147.94921875,0.0
1740447655.5734339,-162.59765625,-34.66796875,-77.63671875,-183.10546875,0.0
1740447655.5773396,-193.359375,-36.62109375,-89.35546875,-213.8671875,0.0
1740447655.5812454,-233.3984375,-41.015625,-94.7265625,-225.5859375,0.0
1740447655.585156,-232.91015625,-35.15625,-95.21484375,-223.6328125,0.0
1740447655.5890617,-221.6796875,-29.296875,-97.16796875,-223.6328125,0.0
1740447655.5929675,-224.12109375,-22.4609375,-95.21484375,-229.98046875,0.0
1740447655.5968733,-216.30859375,-11.71875,-94.7265625,-222.16796875,0.0
1740447655.600779,-199.21875,-24.4140625,-93.26171875,-213.37890625,0.0
1740447655.6046848,-192.87109375,-36.1328125,-89.84375,-205.56640625,0.0
1740447655.6085906,-192.87109375,-32.2265625,-85.9375,-192.3828125,0.0
1740447655.6124964,-174.8046875,-39.0625,-77.63671875,-171.38671875,0.0
1740447655.6164021,-159.1796875,-55.17578125,-72.265625,-147.94921875,0.0
1740447655.620308,-140.13671875,-48.828125,-64.94140625,-132.32421875,0.0
1740447655.6242137,-118.1640625,-36.62109375,-56.640625,-125.9765625,0.0
1740447655.6281195,-95.21484375,-42.48046875,-48.33984375,-99.12109375,0.0
1740447655.6320293,-79.58984375,-44.921875,-41.50390625,-81.0546875,0.0
1740447655.635935,-79.1015625,-41.50390625,-38.0859375,-79.58984375,0.0
1740447655.6398408,-70.80078125,-49.8046875,-40.52734375,-74.21875,0.0
1740447655.6437466,-61.5234375,-62.01171875,-36.62109375,-63.4765625,0.0
1740447655.6476524,-51.26953125,-63.96484375,-33.203125,-42.96875,0.0
1740447655.6515582,-41.50390625,-60.05859375,-29.296875,-33.69140625,0.0
1740447655.655464,-36.1328125,-57.6171875,-25.390625,-31.25,0.0
1740447655.6593697,-37.109375,-56.640625,-29.78515625,-21.484375,0.0
1740447655.6632755,-24.4140625,-62.98828125,-25.390625,-8.30078125,0.0
1740447655.6671813,-26.3671875,-46.875,-20.5078125,-6.34765625,0.0
1740447655.671087,-17.578125,-39.0625,-25.390625,-3.41796875,0.0
1740447655.6749928,5.859375,-61.5234375,-18.06640625,6.34765625,0.0
1740447655.6789021,3.90625,-55.17578125,-14.6484375,8.30078125,0.0
1740447655.682808,-3.90625,-56.15234375,-20.5078125,9.765625,0.0
1740447655.6867137,0.0,-59.5703125,-23.92578125,8.30078125,0.0
1740447655.6906195,2.44140625,-58.10546875,-18.5546875,1.953125,0.0
1740447655.6945252,-8.30078125,-62.01171875,-18.5546875,-1.46484375,0.0
1740447655.698431,-5.37109375,-62.01171875,-22.4609375,-0.48828125,0.0
1740447655.7023368,6.34765625,-54.19921875,-17.08984375,0.9765625,0.0
1740447655.7062426,11.23046875,-52.734375,-19.04296875,8.7890625,0.0
1740447655.7101483,8.30078125,-56.640625,-26.3671875,7.8125,0.0
1740447655.714054,7.8125,-52.24609375,-25.390625,-3.41796875,0.0
1740447655.71796,9.765625,-51.7578125,-20.5078125,1.46484375,0.0
1740447655.7218657,6.34765625,-55.17578125,-19.53125,11.23046875,0.0
1740447655.7257745,10.7421875,-49.31640625,-17.578125,15.625,0.0
1740447655.7296803,13.671875,-43.45703125,-16.11328125,1.46484375,0.0
1740447655.733586,2.9296875,-44.921875,-22.94921875,-0.9765625,0.0
1740447655.7374918,9.765625,-44.43359375,-22.4609375,9.27734375,0.0
1740447655.7413976,6.8359375,-41.50390625,-19.53125,2.9296875,0.0
1740447655.7453034,4.8828125,-46.38671875,-18.5546875,6.34765625,0.0
1740447655.7492092,6.8359375,-51.7578125,-17.578125,11.71875,0.0
1740447655.753115,2.44140625,-51.7578125,-17.578125,7.8125,0.0
1740447655.7570207,7.32421875,-35.15625,-18.5546875,7.8125,0.0
1740447655.7609265,-4.39453125,-44.921875,-17.578125,1.46484375,0.0
1740447655.7648323,-7.8125,-61.03515625,-19.04296875,-4.8828125,0.0
1740447655.768738,6.8359375,-52.734375,-20.5078125,-4.39453125,0.0
1740447655.7726464,3.90625,-52.24609375,-24.4140625,-13.18359375,0.0
1740447655.7765522,-11.23046875,-52.24609375,-26.3671875,-22.94921875,0.0
1740447655.780458,-16.11328125,-46.875,-28.80859375,-18.06640625,0.0
1740447655.7843637,-8.30078125,-46.38671875,-28.80859375,-5.859375,0.0
1740447655.7882695,0.0,-41.50390625,-26.85546875,-1.46484375,0.0
1740447655.7921753,-9.27734375,-48.33984375,-35.15625,-9.765625,0.0
1740447655.796081,-20.99609375,-49.8046875,-37.59765625,-14.6484375,0.0
1740447655.7999868,-22.4609375,-41.50390625,-40.52734375,-21.484375,0.0
1740447655.8038926,-19.53125,-42.48046875,-41.015625,-21.97265625,0.0
1740447655.8077984,-6.34765625,-47.36328125,-34.1796875,-9.765625,0.0
1740447655.8117042,-4.39453125,-52.24609375,-33.203125,-16.6015625,0.0
1740447655.81561,-12.6953125,-49.8046875,-33.69140625,-25.87890625,0.0
1740447655.8195217,-16.6015625,-44.921875,-31.25,-18.06640625,0.0
1740447655.8234274,-9.765625,-42.48046875,-34.1796875,-18.06640625,0.0
1740447655.8273332,-5.37109375,-44.921875,-36.62109375,-15.625,0.0
1740447655.831239,-9.765625,-41.015625,-35.15625,-16.6015625,0.0
1740447655.8351448,-8.7890625,-36.62109375,-30.76171875,-16.11328125,0.0
1740447655.8390505,-17.578125,-31.25,-31.25,-9.765625,0.0
1740447655.8429563,-8.30078125,-45.8984375,-33.203125,-4.8828125,0.0
1740447655.846862,-4.39453125,-49.31640625,-29.78515625,-0.9765625,0.0
1740447655.8507679,-13.671875,-37.59765625,-23.4375,-9.765625,0.0
1740447655.8546736,-6.8359375,-42.48046875,-26.85546875,-20.99609375,0.0
1740447655.8585794,-4.39453125,-42.48046875,-29.296875,-17.578125,0.0
1740447655.8624852,-14.6484375,-39.55078125,-27.34375,-16.6015625,0.0
1740447655.8663926,-22.4609375,-45.8984375,-32.2265625,-27.34375,0.0
1740447655.8702984,-19.04296875,-45.8984375,-34.1796875,-23.92578125,0.0
1740447655.8742042,-3.90625,-34.1796875,-30.2734375,-19.53125,0.0
1740447655.87811,-4.39453125,-30.76171875,-26.3671875,-21.484375,0.0
1740447655.8820157,-19.53125,-36.1328125,-25.390625,-19.53125,0.0
1740447655.8859215,-14.16015625,-35.64453125,-22.94921875,-17.578125,0.0
1740447655.8898273,-19.04296875,-34.66796875,-28.80859375,-25.390625,0.0
1740447655.893733,-23.4375,-38.0859375,-30.2734375,-27.34375,0.0
1740447655.8976388,-12.6953125,-34.1796875,-23.92578125,-24.90234375,0.0
1740447655.9015446,-18.06640625,-39.0625,-29.78515625,-19.53125,0.0
1740447655.9054503,-15.625,-41.50390625,-31.73828125,-19.53125,0.0
1740447655.909356,-20.99609375,-35.64453125,-32.2265625,-33.203125,0.0
1740447655.9132707,-23.92578125,-36.62109375,-30.76171875,-32.71484375,0.0
1740447655.9171765,-32.2265625,-41.015625,-27.83203125,-33.69140625,0.0
1740447655.9210823,-40.0390625,-44.921875,-32.71484375,-42.48046875,0.0
1740447655.924988,-21.97265625,-43.9453125,-33.203125,-40.52734375,0.0
1740447655.9288938,-32.2265625,-35.64453125,-36.62109375,-43.45703125,0.0
1740447655.9327996,-44.921875,-39.55078125,-37.109375,-48.828125,0.0
1740447655.9367054,-31.25,-45.8984375,-34.1796875,-34.1796875,0.0
1740447655.9406111,-22.94921875,-34.66796875,-37.109375,-28.3203125,0.0
1740447655.944517,-34.66796875,-40.52734375,-36.1328125,-34.66796875,0.0
1740447655.9484227,-38.57421875,-44.43359375,-35.64453125,-34.66796875,0.0
1740447655.9523284,-33.69140625,-38.0859375,-33.69140625,-24.90234375,0.0
1740447655.9562342,-33.69140625,-40.0390625,-29.296875,-32.71484375,0.0
1740447655.9601445,-21.484375,-44.43359375,-27.83203125,-35.15625,0.0
1740447655.9640503,-20.99609375,-48.828125,-36.62109375,-40.0390625,0.0
1740447655.967956,-31.73828125,-47.8515625,-38.0859375,-48.33984375,0.0
1740447655.9718618,-31.73828125,-47.8515625,-35.15625,-39.0625,0.0
1740447655.9757676,-29.78515625,-46.875,-36.62109375,-39.0625,0.0
1740447655.9796734,-39.0625,-46.38671875,-35.64453125,-42.96875,0.0
1740447655.9835792,-41.9921875,-45.41015625,-37.109375,-41.015625,0.0
1740447655.987485,-38.0859375,-38.0859375,-36.1328125,-38.57421875,0.0
1740447655.9913907,-25.390625,-34.66796875,-37.109375,-33.203125,0.0
1740447655.9952965,-27.34375,-36.62109375,-37.109375,-32.71484375,0.0
1740447655.9992023,-30.2734375,-40.0390625,-39.0625,-39.0625,0.0
1740447656.003108,-26.85546875,-40.52734375,-38.57421875,-50.29296875,0.0
1740447656.0070179,-34.1796875,-48.33984375,-39.55078125,-52.24609375,0.0
1740447656.0109236,-32.2265625,-45.8984375,-40.0390625,-43.9453125,0.0
1740447656.0148294,-40.0390625,-38.57421875,-41.9921875,-44.921875,0.0
1740447656.0187352,-43.9453125,-43.45703125,-41.9921875,-47.36328125,0.0
1740447656.022641,-33.69140625,-47.8515625,-36.62109375,-37.109375,0.0
1740447656.0265467,-40.0390625,-36.62109375,-41.015625,-48.33984375,0.0
1740447656.0304525,-38.57421875,-40.0390625,-41.50390625,-54.6875,0.0
1740447656.0343583,-37.59765625,-47.8515625,-40.0390625,-47.36328125,0.0
1740447656.038264,-40.0390625,-51.26953125,-40.0390625,-41.015625,0.0
1740447656.0421698,-39.0625,-47.8515625,-37.59765625,-49.31640625,0.0
1740447656.0460756,-33.69140625,-41.015625,-35.15625,-49.31640625,0.0
1740447656.0499814,-41.015625,-44.43359375,-36.1328125,-40.0390625,0.0
1740447656.053891,-47.8515625,-44.43359375,-33.69140625,-41.9921875,0.0
1740447656.0577967,-42.96875,-42.96875,-33.203125,-47.36328125,0.0
1740447656.0617025,-45.8984375,-44.43359375,-41.50390625,-49.31640625,0.0
1740447656.065608,-46.38671875,-42.96875,-42.96875,-41.50390625,0.0
1740447656.0695138,-34.66796875,-37.59765625,-40.0390625,-49.31640625,0.0
1740447656.0734196,-24.90234375,-39.55078125,-38.57421875,-53.22265625,0.0
1740447656.0773253,-21.484375,-38.0859375,-31.25,-36.62109375,0.0
1740447656.081231,-29.78515625,-44.921875,-34.66796875,-37.59765625,0.0
1740447656.085137,-40.0390625,-45.41015625,-40.52734375,-43.9453125,0.0
1740447656.0890427,-26.3671875,-35.15625,-31.25,-34.1796875,0.0
1740447656.0929484,-28.80859375,-43.9453125,-35.15625,-38.57421875,0.0
1740447656.0968542,-43.45703125,-49.31640625,-40.52734375,-42.48046875,0.0
1740447656.1007636,-42.96875,-35.15625,-32.71484375,-41.9921875,0.0
1740447656.1046693,-34.66796875,-33.69140625,-27.83203125,-41.015625,0.0
1740447656.108575,-25.87890625,-44.921875,-33.203125,-38.57421875,0.0
1740447656.1124809,-35.15625,-48.828125,-37.59765625,-41.50390625,0.0
1740447656.1163867,-35.15625,-48.828125,-37.109375,-38.57421875,0.0
1740447656.1202924,-24.90234375,-47.8515625,-38.0859375,-35.64453125,0.0
1740447656.1241982,-26.3671875,-38.57421875,-38.0859375,-43.9453125,0.0
1740447656.1281037,-42.48046875,-28.3203125,-38.57421875,-48.828125,0.0
1740447656.1320095,-42.48046875,-41.50390625,-34.66796875,-49.8046875,0.0
1740447656.1359153,-36.62109375,-53.7109375,-33.203125,-46.38671875,0.0
1740447656.139821,-32.71484375,-52.24609375,-34.1796875,-41.015625,0.0
1740447656.1437268,-24.90234375,-45.41015625,-27.34375,-36.1328125,0.0
1740447656.1476355,-32.71484375,-43.9453125,-27.83203125,-34.1796875,0.0
1740447656.1515412,-43.9453125,-42.48046875,-30.76171875,-36.1328125,0.0
1740447656.155447,-33.203125,-42.48046875,-28.3203125,-31.73828125,0.0
1740447656.1593528,-34.66796875,-43.45703125,-25.87890625,-28.80859375,0.0
1740447656.1632586,-49.8046875,-53.22265625,-31.25,-40.0390625,0.0
1740447656.1671643,-47.36328125,-55.17578125,-32.71484375,-51.7578125,0.0
1740447656.17107,-37.59765625,-49.31640625,-28.3203125,-47.36328125,0.0
1740447656.1749756,-36.62109375,-46.38671875,-34.1796875,-46.875,0.0
1740447656.1788814,-38.0859375,-45.41015625,-36.1328125,-51.7578125,0.0
1740447656.1827872,-35.64453125,-47.36328125,-36.62109375,-46.875,0.0
1740447656.186693,-39.55078125,-46.38671875,-43.45703125,-46.875,0.0
1740447656.1905987,-49.8046875,-44.43359375,-40.52734375,-47.8515625,0.0
1740447656.194507,-49.31640625,-47.8515625,-37.59765625,-37.59765625,0.0
1740447656.1984127,-41.50390625,-47.8515625,-41.9921875,-41.015625,0.0
1740447656.2023184,-54.6875,-51.7578125,-45.41015625,-53.7109375,0.0
1740447656.2062242,-45.8984375,-53.22265625,-48.33984375,-53.22265625,0.0
1740447656.21013,-44.921875,-44.921875,-46.875,-60.546875,0.0
1740447656.2140357,-51.7578125,-49.8046875,-47.36328125,-56.640625,0.0
1740447656.2179415,-39.55078125,-55.17578125,-44.43359375,-42.48046875,0.0
1740447656.2218473,-45.41015625,-38.0859375,-38.0859375,-39.0625,0.0
1740447656.225753,-59.5703125,-27.83203125,-47.8515625,-43.9453125,0.0
1740447656.2296588,-49.31640625,-51.7578125,-50.78125,-50.78125,0.0
1740447656.2335644,-48.33984375,-48.828125,-43.45703125,-52.24609375,0.0
1740447656.2374701,-54.19921875,-41.9921875,-41.50390625,-41.015625,0.0
1740447656.2413778,-44.43359375,-47.8515625,-47.36328125,-42.48046875,0.0
1740447656.2452836,-44.43359375,-46.38671875,-48.33984375,-49.8046875,0.0
1740447656.2491894,-49.31640625,-43.9453125,-46.38671875,-48.828125,0.0
1740447656.2530951,-44.43359375,-44.921875,-48.33984375,-45.8984375,0.0
1740447656.257001,-44.43359375,-48.33984375,-47.8515625,-45.8984375,0.0
1740447656.2609067,-47.36328125,-48.828125,-45.41015625,-48.33984375,0.0
1740447656.2648125,-54.19921875,-47.36328125,-40.52734375,-59.5703125,0.0
1740447656.2687182,-62.01171875,-42.96875,-40.0390625,-60.05859375,0.0
1740447656.272624,-51.7578125,-40.52734375,-41.9921875,-49.8046875,0.0
1740447656.2765298,-44.921875,-44.921875,-43.9453125,-50.29296875,0.0
1740447656.2804356,-59.5703125,-41.50390625,-42.96875,-47.36328125,0.0
1740447656.2843413,-56.15234375,-43.45703125,-39.0625,-43.45703125,0.0
1740447656.288252,-41.50390625,-46.875,-43.45703125,-46.38671875,0.0
1740447656.292158,-45.8984375,-44.43359375,-37.59765625,-40.0390625,0.0
1740447656.2960637,-42.48046875,-45.8984375,-32.71484375,-40.0390625,0.0
1740447656.2999694,-31.25,-48.828125,-35.15625,-40.0390625,0.0
1740447656.3038752,-36.1328125,-42.96875,-39.55078125,-43.9453125,0.0
1740447656.307781,-41.9921875,-43.45703125,-41.50390625,-36.62109375,0.0
1740447656.3116868,-38.0859375,-52.24609375,-39.0625,-30.2734375,0.0
1740447656.3155925,-31.25,-43.9453125,-37.59765625,-27.83203125,0.0
1740447656.3194983,-26.3671875,-44.921875,-28.3203125,-27.34375,0.0
1740447656.323404,-32.71484375,-46.875,-27.83203125,-25.87890625,0.0
1740447656.3273098,-32.71484375,-37.59765625,-27.83203125,-30.2734375,0.0
1740447656.3312156,-34.1796875,-42.48046875,-27.34375,-34.1796875,0.0
1740447656.335126,-30.76171875,-46.875,-31.73828125,-34.1796875,0.0
1740447656.3390317,-22.94921875,-41.9921875,-34.1796875,-42.48046875,0.0
1740447656.3429375,-29.296875,-38.57421875,-33.69140625,-48.828125,0.0
1740447656.3468432,-34.1796875,-40.52734375,-32.71484375,-44.43359375,0.0
1740447656.350749,-27.34375,-43.9453125,-36.62109375,-44.921875,0.0
1740447656.3546548,-19.53125,-40.0390625,-40.52734375,-43.45703125,0.0
