timestamps,TP9,AF7,AF8,TP10,Right AUX
1740789371.3802512,-28.3203125,-37.59765625,-42.48046875,-31.25,0.0
1740789371.3841572,-22.94921875,-32.71484375,-40.52734375,-33.203125,0.0
1740789371.388063,-22.4609375,-33.203125,-40.52734375,-33.203125,0.0
1740789371.3919687,-29.296875,-26.3671875,-40.52734375,-35.64453125,0.0
1740789371.3958747,-33.69140625,-25.87890625,-36.62109375,-31.25,0.0
1740789371.3997805,-30.2734375,-36.1328125,-38.57421875,-20.5078125,0.0
1740789371.4036863,-25.87890625,-43.45703125,-46.38671875,-23.92578125,0.0
1740789371.4075923,-31.25,-38.0859375,-46.38671875,-24.90234375,0.0
1740789371.411498,-23.92578125,-22.4609375,-40.0390625,-18.5546875,0.0
1740789371.4154038,-22.4609375,-23.4375,-37.109375,-21.97265625,0.0
1740789371.4193099,-30.2734375,-27.83203125,-37.59765625,-24.4140625,0.0
1740789371.4232156,-30.2734375,-29.296875,-41.015625,-24.4140625,0.0
1740789371.4271252,-36.1328125,-30.2734375,-44.43359375,-32.2265625,0.0
1740789371.431031,-40.0390625,-31.25,-42.48046875,-33.203125,0.0
1740789371.4349368,-40.52734375,-34.1796875,-37.109375,-31.25,0.0
1740789371.4388428,-36.62109375,-28.3203125,-35.64453125,-34.1796875,0.0
1740789371.4427485,-38.0859375,-35.15625,-37.109375,-33.69140625,0.0
1740789371.4466543,-41.50390625,-41.50390625,-40.52734375,-27.83203125,0.0
1740789371.4505603,-35.15625,-40.52734375,-45.8984375,-24.90234375,0.0
1740789371.454466,-37.59765625,-32.71484375,-41.9921875,-21.97265625,0.0
1740789371.4583719,-41.50390625,-31.25,-36.62109375,-20.5078125,0.0
1740789371.462278,-37.59765625,-35.64453125,-38.57421875,-26.85546875,0.0
1740789371.4661837,-34.66796875,-35.15625,-37.109375,-30.76171875,0.0
1740789371.4700894,-33.69140625,-33.69140625,-36.1328125,-32.2265625,0.0
1740789371.473996,-32.71484375,-33.69140625,-37.59765625,-34.1796875,0.0
1740789371.4779017,-35.15625,-35.64453125,-39.0625,-36.1328125,0.0
1740789371.4818075,-37.59765625,-32.2265625,-38.57421875,-35.64453125,0.0
1740789371.4857135,-36.1328125,-25.390625,-38.0859375,-38.57421875,0.0
1740789371.4896193,-37.109375,-25.390625,-34.1796875,-41.9921875,0.0
1740789371.493525,-43.9453125,-35.15625,-34.66796875,-42.48046875,0.0
1740789371.497431,-40.0390625,-32.71484375,-39.0625,-41.50390625,0.0
1740789371.5013368,-47.8515625,-30.2734375,-40.0390625,-42.96875,0.0
1740789371.5052428,-48.828125,-35.15625,-41.50390625,-36.62109375,0.0
1740789371.5091486,-33.203125,-38.57421875,-39.0625,-27.34375,0.0
1740789371.5130544,-41.50390625,-41.50390625,-37.109375,-30.2734375,0.0
1740789371.5169604,-34.66796875,-28.3203125,-35.64453125,-24.90234375,0.0
1740789371.5208695,-25.390625,-25.390625,-30.2734375,-15.625,0.0
1740789371.5247753,-31.25,-33.203125,-31.73828125,-23.92578125,0.0
1740789371.528681,-32.71484375,-28.3203125,-41.015625,-32.2265625,0.0
1740789371.532587,-30.2734375,-23.92578125,-41.9921875,-34.1796875,0.0
1740789371.5364928,-22.4609375,-25.87890625,-38.0859375,-26.3671875,0.0
1740789371.5403986,-19.53125,-27.34375,-37.109375,-17.578125,0.0
1740789371.5443046,-21.97265625,-27.83203125,-41.015625,-21.97265625,0.0
1740789371.5482104,-21.484375,-24.90234375,-39.55078125,-25.87890625,0.0
1740789371.5521162,-18.06640625,-22.4609375,-34.1796875,-21.484375,0.0
1740789371.5560222,-19.04296875,-28.80859375,-35.64453125,-22.4609375,0.0
1740789371.559928,-27.34375,-27.34375,-36.1328125,-30.76171875,0.0
1740789371.5638337,-27.34375,-23.92578125,-40.0390625,-32.2265625,0.0
1740789371.5677423,-23.92578125,-27.34375,-46.875,-31.25,0.0
1740789371.5716481,-20.99609375,-25.87890625,-44.43359375,-28.80859375,0.0
1740789371.5755541,-23.92578125,-29.296875,-38.57421875,-32.2265625,0.0
1740789371.57946,-26.85546875,-37.59765625,-41.9921875,-37.59765625,0.0
1740789371.5833657,-22.4609375,-34.66796875,-41.9921875,-35.15625,0.0
1740789371.5872717,-22.94921875,-27.34375,-36.62109375,-32.2265625,0.0
1740789371.5911775,-24.90234375,-24.4140625,-37.59765625,-28.3203125,0.0
1740789371.5950832,-28.80859375,-21.97265625,-39.0625,-32.71484375,0.0
1740789371.5989892,-32.71484375,-37.109375,-39.55078125,-42.48046875,0.0
1740789371.602895,-29.78515625,-37.109375,-35.15625,-33.69140625,0.0
1740789371.6068008,-32.2265625,-29.296875,-31.73828125,-31.25,0.0
1740789371.6107068,-37.109375,-44.921875,-35.64453125,-44.43359375,0.0
1740789371.6146152,0.0,-43.9453125,-41.015625,-51.26953125,0.0
1740789371.618521,0.0,-32.2265625,-39.0625,-44.43359375,0.0
1740789371.6224267,0.0,-34.66796875,-39.55078125,-37.59765625,0.0
1740789371.6263328,0.0,-34.1796875,-37.59765625,-34.66796875,0.0
1740789371.6302385,0.0,-35.64453125,-39.55078125,-36.1328125,0.0
1740789371.6341443,0.0,-37.59765625,-47.36328125,-38.57421875,0.0
1740789371.6380503,0.0,-30.76171875,-45.41015625,-34.1796875,0.0
1740789371.641956,0.0,-36.62109375,-46.875,-30.76171875,0.0
1740789371.6458619,0.0,-44.921875,-52.734375,-33.69140625,0.0
1740789371.6497679,0.0,-35.64453125,-50.78125,-41.50390625,0.0
1740789371.6536736,0.0,-27.34375,-45.8984375,-39.0625,0.0
1740789371.6575794,0.0,-34.1796875,-44.43359375,-39.55078125,0.0
1740789371.6614873,-35.15625,-42.48046875,-39.55078125,-41.9921875,0.0
1740789371.665393,-34.1796875,-39.55078125,-38.57421875,-37.109375,0.0
1740789371.669299,-48.33984375,-35.15625,-40.0390625,-38.57421875,0.0
1740789371.673205,-49.31640625,-39.0625,-35.64453125,-39.0625,0.0
1740789371.6771107,-38.0859375,-40.52734375,-41.015625,-39.0625,0.0
1740789371.6810164,-31.25,-35.64453125,-41.015625,-37.109375,0.0
1740789371.6849225,-29.78515625,-35.64453125,-36.62109375,-36.1328125,0.0
1740789371.6888282,-40.0390625,-48.33984375,-45.41015625,-38.0859375,0.0
1740789371.692734,-45.8984375,-48.33984375,-49.31640625,-41.50390625,0.0
1740789371.69664,-43.45703125,-37.109375,-42.96875,-45.8984375,0.0
1740789371.7005458,-38.0859375,-35.15625,-39.55078125,-43.45703125,0.0
1740789371.7044516,-34.1796875,-27.83203125,-34.66796875,-38.57421875,0.0
1740789371.708359,-33.69140625,-28.3203125,-35.15625,-37.59765625,0.0
1740789371.712265,-33.203125,-34.1796875,-35.15625,-39.55078125,0.0
1740789371.7161708,-34.66796875,-35.64453125,-30.2734375,-45.41015625,0.0
1740789371.7200768,-31.25,-30.76171875,-30.2734375,-43.9453125,0.0
1740789371.7239826,-26.3671875,-23.4375,-33.69140625,-38.57421875,0.0
1740789371.7278883,-30.76171875,-31.73828125,-35.15625,-35.15625,0.0
1740789371.7317944,-38.0859375,-35.64453125,-35.64453125,-39.0625,0.0
1740789371.7357001,-39.0625,-30.2734375,-34.66796875,-46.38671875,0.0
1740789371.739606,-37.109375,-29.296875,-37.109375,-41.50390625,0.0
1740789371.743512,-37.59765625,-30.2734375,-40.0390625,-39.0625,0.0
1740789371.7474177,-40.52734375,-32.71484375,-44.43359375,-40.52734375,0.0
1740789371.7513235,-38.57421875,-36.1328125,-46.875,-38.57421875,0.0
1740789371.7552307,-36.1328125,-36.1328125,-40.52734375,-41.50390625,0.0
1740789371.7591364,-34.1796875,-34.1796875,-37.109375,-41.50390625,0.0
1740789371.7630424,-31.25,-33.69140625,-38.57421875,-40.52734375,0.0
1740789371.7669482,-33.203125,-30.2734375,-40.0390625,-44.921875,0.0
1740789371.770854,-32.71484375,-20.99609375,-41.015625,-38.0859375,0.0
1740789371.77476,-27.83203125,-25.87890625,-40.0390625,-39.55078125,0.0
1740789371.7786658,-29.296875,-38.0859375,-42.96875,-42.48046875,0.0
1740789371.7825716,-22.94921875,-36.1328125,-44.921875,-35.64453125,0.0
1740789371.7864776,-18.06640625,-27.83203125,-41.9921875,-33.69140625,0.0
1740789371.7903833,-18.06640625,-27.83203125,-41.015625,-31.25,0.0
1740789371.7942894,-16.11328125,-23.92578125,-36.1328125,-30.76171875,0.0
1740789371.7981951,-23.4375,-21.97265625,-35.15625,-33.69140625,0.0
1740789371.8021019,-28.80859375,-24.90234375,-39.55078125,-39.0625,0.0
1740789371.8060079,-25.87890625,-25.87890625,-39.0625,-38.57421875,0.0
1740789371.8099136,-25.390625,-27.83203125,-41.015625,-36.62109375,0.0
1740789371.8138194,-30.2734375,-29.78515625,-43.45703125,-34.66796875,0.0
1740789371.8177254,-31.25,-27.34375,-43.45703125,-28.3203125,0.0
1740789371.8216312,-27.34375,-25.87890625,-40.52734375,-25.87890625,0.0
1740789371.825537,-24.4140625,-25.390625,-33.69140625,-28.3203125,0.0
1740789371.829443,-22.94921875,-18.06640625,-33.203125,-27.83203125,0.0
1740789371.8333488,-25.390625,-11.23046875,-36.1328125,-22.4609375,0.0
1740789371.8372545,-24.90234375,-22.4609375,-38.0859375,-19.53125,0.0
1740789371.8411605,-22.94921875,-30.76171875,-40.0390625,-21.97265625,0.0
1740789371.8450663,-19.53125,-25.87890625,-34.66796875,-19.53125,0.0
1740789371.8489728,-18.06640625,-27.34375,-36.1328125,-20.99609375,0.0
1740789371.8528786,-20.99609375,-28.80859375,-41.015625,-26.85546875,0.0
1740789371.8567843,-14.6484375,-27.83203125,-42.96875,-23.92578125,0.0
1740789371.8606904,-10.7421875,-22.4609375,-35.15625,-16.6015625,0.0
1740789371.8645961,-17.08984375,-21.484375,-36.1328125,-20.99609375,0.0
1740789371.868502,-22.94921875,-32.2265625,-45.8984375,-25.87890625,0.0
1740789371.872408,-20.01953125,-38.0859375,-39.55078125,-19.53125,0.0
1740789371.8763137,-21.484375,-33.69140625,-36.1328125,-16.6015625,0.0
1740789371.8802195,-30.76171875,-28.3203125,-37.109375,-19.53125,0.0
1740789371.8841255,-33.69140625,-31.73828125,-41.9921875,-24.4140625,0.0
1740789371.8880312,-29.296875,-30.2734375,-43.45703125,-24.4140625,0.0
1740789371.891937,-25.390625,-19.04296875,-40.52734375,-19.53125,0.0
1740789371.8958461,-19.53125,-16.6015625,-39.0625,-16.6015625,0.0
1740789371.899752,-24.90234375,-21.97265625,-32.71484375,-25.87890625,0.0
1740789371.903658,-23.92578125,-21.484375,-30.2734375,-24.90234375,0.0
1740789371.9075637,-23.92578125,-22.94921875,-40.0390625,-14.16015625,0.0
1740789371.9114695,-36.62109375,-31.25,-49.31640625,-22.94921875,0.0
1740789371.9153755,-42.48046875,-35.15625,-51.26953125,-35.15625,0.0
1740789371.9192812,-33.203125,-27.34375,-49.8046875,-30.2734375,0.0
1740789371.923187,-20.5078125,-24.4140625,-47.36328125,-27.34375,0.0
1740789371.927093,-24.90234375,-26.85546875,-47.8515625,-33.69140625,0.0
1740789371.9309988,-24.90234375,-20.5078125,-44.43359375,-24.90234375,0.0
1740789371.9349048,-16.6015625,-12.20703125,-33.69140625,-16.11328125,0.0
1740789371.9388106,-25.87890625,-19.53125,-35.15625,-27.34375,0.0
1740789371.9427192,-30.76171875,-26.85546875,-39.55078125,-29.296875,0.0
1740789371.946625,-20.99609375,-22.94921875,-34.1796875,-19.53125,0.0
1740789371.950531,-21.97265625,-16.11328125,-34.1796875,-23.4375,0.0
1740789371.9544368,-20.99609375,-14.6484375,-36.62109375,-14.16015625,0.0
1740789371.9583426,-18.06640625,-17.08984375,-34.1796875,-5.37109375,0.0
1740789371.9622486,-17.578125,-13.671875,-26.3671875,-11.71875,0.0
1740789371.9661543,-18.5546875,-15.625,-22.94921875,-11.71875,0.0
1740789371.97006,-15.13671875,-19.04296875,-28.3203125,-15.625,0.0
1740789371.9739661,-14.16015625,-28.3203125,-37.59765625,-18.06640625,0.0
1740789371.977872,-23.4375,-31.73828125,-39.0625,-20.99609375,0.0
1740789371.9817777,-23.4375,-20.01953125,-36.62109375,-28.80859375,0.0
1740789371.9856837,-23.4375,-23.4375,-37.59765625,-25.87890625,0.0
1740789371.989592,0.0,-21.97265625,-39.0625,-19.53125,0.0
1740789371.9934978,0.0,-16.6015625,-36.1328125,-22.94921875,0.0
1740789371.9974036,0.0,-23.4375,-29.296875,-24.90234375,0.0
1740789372.0013096,0.0,-32.71484375,-29.296875,-27.34375,0.0
1740789372.0052154,0.0,-31.25,-31.25,-24.90234375,0.0
1740789372.0091212,0.0,-32.71484375,-28.80859375,-21.97265625,0.0
1740789372.0130272,0.0,-30.2734375,-32.71484375,-25.87890625,0.0
1740789372.016933,0.0,-29.296875,-37.59765625,-28.3203125,0.0
1740789372.0208387,0.0,-45.41015625,-36.62109375,-25.87890625,0.0
1740789372.0247447,0.0,-40.52734375,-38.0859375,-29.78515625,0.0
1740789372.0286505,0.0,-27.83203125,-38.57421875,-40.52734375,0.0
1740789372.0325563,0.0,-31.73828125,-31.25,-31.25,0.0
1740789372.0364642,-35.15625,-42.96875,-30.76171875,-26.85546875,0.0
1740789372.04037,-43.9453125,-40.0390625,-39.55078125,-34.66796875,0.0
1740789372.0442758,-40.52734375,-38.57421875,-49.31640625,-42.48046875,0.0
1740789372.0481818,-33.69140625,-38.57421875,-51.7578125,-41.015625,0.0
1740789372.0520875,-29.78515625,-33.69140625,-46.38671875,-33.203125,0.0
1740789372.0559933,-27.83203125,-35.15625,-37.59765625,-29.296875,0.0
1740789372.0598993,-27.34375,-25.390625,-31.73828125,-29.296875,0.0
1740789372.063805,-24.4140625,-28.3203125,-27.34375,-25.390625,0.0
1740789372.0677109,-31.25,-40.0390625,-28.3203125,-19.53125,0.0
1740789372.071617,-35.64453125,-29.78515625,-36.1328125,-28.80859375,0.0
1740789372.0755227,-27.83203125,-33.69140625,-37.109375,-35.15625,0.0
1740789372.0794284,-27.83203125,-36.1328125,-36.1328125,-33.203125,0.0
1740789372.0833359,-32.71484375,-30.76171875,-40.0390625,-34.66796875,0.0
1740789372.087242,-33.203125,-26.85546875,-37.59765625,-36.62109375,0.0
1740789372.0911477,-33.69140625,-23.4375,-31.73828125,-37.59765625,0.0
1740789372.0950534,-41.015625,-30.2734375,-35.64453125,-43.9453125,0.0
1740789372.0989594,-36.1328125,-37.109375,-37.59765625,-41.9921875,0.0
1740789372.1028652,-30.2734375,-36.1328125,-38.0859375,-34.66796875,0.0
1740789372.1067712,-30.76171875,-32.71484375,-40.0390625,-31.25,0.0
1740789372.110677,-27.34375,-29.296875,-41.50390625,-28.80859375,0.0
1740789372.1145828,-20.5078125,-26.3671875,-41.50390625,-32.71484375,0.0
1740789372.1184888,-30.76171875,-24.90234375,-42.48046875,-34.66796875,0.0
1740789372.1223946,-38.0859375,-27.34375,-45.8984375,-35.64453125,0.0
1740789372.1263003,-33.203125,-37.109375,-43.45703125,-41.9921875,0.0
1740789372.1302075,-31.73828125,-43.45703125,-38.57421875,-40.0390625,0.0
1740789372.1341133,-31.25,-36.1328125,-40.0390625,-34.1796875,0.0
1740789372.1380193,-35.15625,-34.66796875,-42.48046875,-36.62109375,0.0
1740789372.141925,-32.71484375,-35.64453125,-40.0390625,-38.0859375,0.0
1740789372.145831,-28.80859375,-23.4375,-38.57421875,-34.66796875,0.0
1740789372.149737,-35.64453125,-26.3671875,-38.57421875,-36.62109375,0.0
1740789372.1536427,-34.66796875,-34.1796875,-43.9453125,-37.109375,0.0
1740789372.1575487,-27.83203125,-25.87890625,-44.43359375,-37.59765625,0.0
1740789372.1614544,-31.25,-20.5078125,-35.64453125,-38.0859375,0.0
1740789372.1653602,-34.1796875,-28.3203125,-35.64453125,-32.71484375,0.0
1740789372.1692662,-38.0859375,-35.15625,-39.55078125,-41.50390625,0.0
1740789372.173172,-37.59765625,-35.64453125,-40.0390625,-48.33984375,0.0
1740789372.177079,-35.15625,-30.76171875,-41.50390625,-41.015625,0.0
1740789372.1809847,-34.1796875,-32.2265625,-40.52734375,-36.1328125,0.0
1740789372.1848907,-40.52734375,-34.66796875,-41.9921875,-37.109375,0.0
1740789372.1887965,-45.8984375,-38.0859375,-43.45703125,-34.1796875,0.0
1740789372.1927023,-42.96875,-41.50390625,-43.45703125,-28.3203125,0.0
1740789372.1966083,-41.015625,-38.0859375,-37.59765625,-27.83203125,0.0
1740789372.200514,-43.9453125,-39.0625,-34.66796875,-27.34375,0.0
1740789372.2044199,-45.41015625,-37.109375,-39.0625,-22.94921875,0.0
1740789372.2083259,-36.1328125,-35.64453125,-35.15625,-25.87890625,0.0
1740789372.2122316,-32.2265625,-37.59765625,-30.76171875,-31.25,0.0
1740789372.2161374,-34.66796875,-36.1328125,-31.25,-29.78515625,0.0
1740789372.2200434,-35.64453125,-36.1328125,-39.0625,-32.2265625,0.0
1740789372.2239497,-35.15625,-36.62109375,-45.41015625,-33.69140625,0.0
1740789372.2278557,-36.1328125,-37.109375,-41.015625,-34.1796875,0.0
1740789372.2317615,-27.34375,-30.2734375,-34.66796875,-31.25,0.0
1740789372.2356672,-23.92578125,-25.390625,-33.69140625,-29.78515625,0.0
1740789372.2395732,-32.71484375,-28.80859375,-32.71484375,-34.66796875,0.0
1740789372.243479,-37.59765625,-34.66796875,-35.64453125,-28.80859375,0.0
1740789372.2473848,-38.57421875,-28.80859375,-43.9453125,-27.34375,0.0
1740789372.2512908,-38.57421875,-20.99609375,-42.96875,-32.2265625,0.0
1740789372.2551966,-41.015625,-32.71484375,-41.015625,-29.78515625,0.0
1740789372.2591023,-41.9921875,-37.59765625,-38.57421875,-25.390625,0.0
1740789372.2630084,-36.1328125,-34.1796875,-40.0390625,-25.87890625,0.0
1740789372.2669141,-34.1796875,-32.71484375,-37.109375,-27.83203125,0.0
1740789372.2708232,0.0,-32.2265625,-35.64453125,-29.78515625,0.0
1740789372.274729,0.0,-36.1328125,-38.0859375,-33.203125,0.0
1740789372.2786348,0.0,-37.109375,-42.96875,-39.0625,0.0
1740789372.2825408,0.0,-34.1796875,-42.48046875,-35.64453125,0.0
1740789372.2864466,0.0,-32.2265625,-35.64453125,-29.78515625,0.0
1740789372.2903526,0.0,-34.66796875,-35.15625,-21.97265625,0.0
1740789372.2942584,0.0,-33.69140625,-34.66796875,-32.2265625,0.0
1740789372.2981641,0.0,-29.296875,-34.1796875,-39.55078125,0.0
1740789372.3020701,0.0,-30.76171875,-35.64453125,-33.203125,0.0
1740789372.305976,0.0,-24.4140625,-37.59765625,-26.3671875,0.0
1740789372.3098817,0.0,-20.99609375,-41.015625,-21.484375,0.0
1740789372.3137877,0.0,-29.78515625,-41.9921875,-31.73828125,0.0
1740789372.3176963,-23.4375,-36.1328125,-42.96875,-36.1328125,0.0
1740789372.321602,-26.3671875,-36.62109375,-43.45703125,-32.71484375,0.0
1740789372.3255079,-25.87890625,-35.15625,-36.62109375,-25.390625,0.0
1740789372.329414,-19.04296875,-31.25,-29.78515625,-25.390625,0.0
1740789372.3333197,-27.83203125,-27.34375,-39.0625,-41.50390625,0.0
1740789372.3372257,-31.25,-34.66796875,-39.0625,-44.43359375,0.0
1740789372.3411314,-30.2734375,-33.69140625,-34.66796875,-41.50390625,0.0
1740789372.3450372,-34.66796875,-29.296875,-42.96875,-49.31640625,0.0
1740789372.3489432,-26.85546875,-39.0625,-42.96875,-45.41015625,0.0
1740789372.352849,-31.25,-41.50390625,-44.43359375,-41.50390625,0.0
1740789372.3567548,-39.0625,-30.76171875,-50.78125,-47.8515625,0.0
1740789372.3606608,-33.69140625,-26.3671875,-47.8515625,-41.50390625,0.0
1740789372.364569,-37.109375,-26.85546875,-43.45703125,-36.62109375,0.0
1740789372.3684747,-37.59765625,-26.3671875,-46.875,-37.59765625,0.0
1740789372.3723805,-31.73828125,-30.76171875,-45.41015625,-39.0625,0.0
1740789372.3762865,-33.203125,-37.59765625,-43.9453125,-41.015625,0.0
1740789372.3801923,-32.71484375,-36.62109375,-41.50390625,-41.50390625,0.0
1740789372.384098,-27.83203125,-30.76171875,-42.48046875,-40.0390625,0.0
1740789372.388004,-30.76171875,-31.25,-47.8515625,-41.50390625,0.0
1740789372.3919098,-33.203125,-32.2265625,-42.96875,-49.31640625,0.0
1740789372.3958156,-31.73828125,-34.66796875,-42.48046875,-43.45703125,0.0
1740789372.3997216,-34.66796875,-32.71484375,-39.0625,-33.203125,0.0
1740789372.4036274,-36.62109375,-29.296875,-39.0625,-43.45703125,0.0
1740789372.4075332,-28.80859375,-33.69140625,-41.9921875,-44.921875,0.0
1740789372.411441,-28.3203125,-37.109375,-41.50390625,-36.62109375,0.0
1740789372.4153469,-42.96875,-31.73828125,-44.921875,-39.0625,0.0
1740789372.4192526,-38.0859375,-33.203125,-42.96875,-38.0859375,0.0
1740789372.4231586,-25.87890625,-38.57421875,-41.015625,-30.76171875,0.0
1740789372.4270644,-34.66796875,-35.64453125,-47.36328125,-33.203125,0.0
1740789372.4309702,-27.34375,-32.71484375,-46.875,-29.296875,0.0
1740789372.4348762,-19.04296875,-25.87890625,-41.015625,-27.83203125,0.0
1740789372.438782,-23.92578125,-33.69140625,-35.15625,-34.1796875,0.0
1740789372.4426877,-31.73828125,-45.41015625,-36.1328125,-31.25,0.0
1740789372.4465938,-33.69140625,-33.203125,-40.0390625,-28.80859375,0.0
1740789372.4504995,-29.78515625,-29.296875,-38.0859375,-26.85546875,0.0
1740789372.4544053,-36.62109375,-35.64453125,-42.48046875,-34.1796875,0.0
1740789372.458313,-41.50390625,-35.15625,-44.921875,-38.57421875,0.0
1740789372.4622188,-39.0625,-34.66796875,-43.45703125,-33.69140625,0.0
1740789372.4661245,-41.50390625,-39.55078125,-45.8984375,-36.1328125,0.0
1740789372.4700305,-37.109375,-41.50390625,-49.8046875,-41.50390625,0.0
1740789372.4739363,-33.203125,-33.69140625,-50.78125,-44.43359375,0.0
1740789372.477842,-33.69140625,-35.15625,-44.921875,-45.41015625,0.0
1740789372.481748,-29.296875,-42.48046875,-41.9921875,-37.109375,0.0
1740789372.4856539,-29.78515625,-45.41015625,-42.96875,-29.296875,0.0
1740789372.4895597,-27.83203125,-40.52734375,-40.52734375,-33.203125,0.0
1740789372.4934657,-33.203125,-35.64453125,-38.57421875,-34.1796875,0.0
1740789372.4973714,-32.2265625,-37.59765625,-39.0625,-28.3203125,0.0
1740789372.5012772,-30.2734375,-40.0390625,-39.55078125,-25.87890625,0.0
1740789372.5051847,-37.59765625,-37.109375,-39.55078125,-28.3203125,0.0
1740789372.5090904,-35.64453125,-35.64453125,-40.52734375,-33.203125,0.0
1740789372.5129962,-30.76171875,-32.2265625,-44.921875,-31.73828125,0.0
1740789372.5169022,-34.1796875,-31.25,-47.8515625,-32.2265625,0.0
1740789372.520808,-35.64453125,-29.78515625,-42.48046875,-35.64453125,0.0
1740789372.5247138,-31.73828125,-29.78515625,-41.50390625,-32.2265625,0.0
1740789372.5286198,-34.1796875,-41.9921875,-46.875,-32.2265625,0.0
1740789372.5325255,-32.2265625,-41.9921875,-47.36328125,-33.69140625,0.0
1740789372.5364316,-31.73828125,-29.78515625,-42.96875,-34.66796875,0.0
1740789372.5403373,-26.3671875,-31.73828125,-41.015625,-33.69140625,0.0
1740789372.544243,-20.5078125,-34.66796875,-46.38671875,-32.2265625,0.0
1740789372.548149,-22.94921875,-36.62109375,-46.875,-27.34375,0.0
1740789372.5520587,-15.625,-33.69140625,-41.50390625,-26.3671875,0.0
1740789372.5559645,-13.18359375,-34.1796875,-39.0625,-25.390625,0.0
1740789372.5598705,-20.5078125,-38.0859375,-41.015625,-26.3671875,0.0
1740789372.5637763,-24.4140625,-36.1328125,-39.55078125,-22.94921875,0.0
1740789372.567682,-23.4375,-41.9921875,-37.109375,-22.4609375,0.0
1740789372.571588,-25.87890625,-43.45703125,-34.1796875,-16.6015625,0.0
1740789372.5754938,-31.25,-37.109375,-33.69140625,-19.04296875,0.0
1740789372.5793996,-32.2265625,-27.34375,-33.69140625,-31.25,0.0
1740789372.5833056,-29.78515625,-23.4375,-27.34375,-27.83203125,0.0
1740789372.5872114,-28.80859375,-28.3203125,-36.62109375,-33.203125,0.0
1740789372.5911171,-30.2734375,-36.1328125,-44.43359375,-36.62109375,0.0
1740789372.5950232,-29.296875,-33.203125,-40.0390625,-34.1796875,0.0
1740789372.5989296,-37.109375,-27.83203125,-44.921875,-33.69140625,0.0
1740789372.6028354,-37.109375,-30.2734375,-48.828125,-27.83203125,0.0
1740789372.6067412,-23.4375,-33.203125,-43.9453125,-22.94921875,0.0
1740789372.6106472,-12.6953125,-24.4140625,-39.0625,-20.01953125,0.0
1740789372.614553,-12.6953125,-21.97265625,-40.52734375,-19.53125,0.0
1740789372.6184587,-14.6484375,-30.2734375,-37.109375,-13.671875,0.0
1740789372.6223648,-14.16015625,-30.2734375,-37.59765625,-16.11328125,0.0
1740789372.6262705,-24.4140625,-24.4140625,-42.96875,-33.203125,0.0
1740789372.6301765,-30.2734375,-26.85546875,-42.48046875,-39.0625,0.0
1740789372.6340823,-34.1796875,-36.62109375,-41.015625,-34.66796875,0.0
1740789372.637988,-31.25,-32.71484375,-36.62109375,-31.25,0.0
1740789372.641894,-26.85546875,-21.484375,-37.59765625,-30.76171875,0.0
1740789372.6458027,-27.34375,-27.34375,-47.8515625,-38.0859375,0.0
1740789372.6497087,-22.94921875,-29.296875,-46.38671875,-35.64453125,0.0
1740789372.6536145,-28.3203125,-23.92578125,-43.9453125,-33.203125,0.0
1740789372.6575205,-38.57421875,-24.4140625,-46.875,-41.015625,0.0
1740789372.6614263,-29.78515625,-27.34375,-39.0625,-37.109375,0.0
1740789372.665332,-20.01953125,-35.15625,-33.69140625,-27.83203125,0.0
1740789372.669238,-9.27734375,-20.01953125,-25.390625,-20.99609375,0.0
1740789372.6731439,-13.18359375,-5.859375,-24.4140625,-29.296875,0.0
1740789372.6770496,-22.94921875,-14.16015625,-30.76171875,-34.66796875,0.0
1740789372.6809556,-35.15625,-19.53125,-37.59765625,-50.29296875,0.0
1740789372.6848614,-55.17578125,-16.11328125,-46.875,-69.3359375,0.0
1740789372.6887672,-77.63671875,-14.16015625,-57.12890625,-87.890625,0.0
1740789372.6926758,-93.26171875,0.9765625,-59.5703125,-113.28125,0.0
1740789372.6965816,-107.421875,9.765625,-55.6640625,-120.1171875,0.0
1740789372.7004876,-155.76171875,7.8125,-82.03125,-159.66796875,0.0
1740789372.7043934,-209.9609375,13.671875,-104.98046875,-216.30859375,0.0
1740789372.7082992,-242.67578125,3.90625,-109.86328125,-248.53515625,0.0
1740789372.7122052,-269.53125,5.37109375,-117.1875,-271.97265625,0.0
1740789372.716111,-291.015625,27.34375,-124.51171875,-294.43359375,0.0
1740789372.7200167,-301.7578125,41.9921875,-128.90625,-308.59375,0.0
1740789372.7239227,-297.36328125,35.64453125,-119.140625,-293.9453125,0.0
1740789372.7278285,-287.109375,39.55078125,-114.2578125,-289.0625,0.0
1740789372.7317343,-290.52734375,50.29296875,-114.2578125,-291.50390625,0.0
1740789372.7356403,-280.2734375,38.57421875,-109.375,-272.94921875,0.0
1740789372.7395484,-257.32421875,37.109375,-104.98046875,-248.046875,0.0
1740789372.7434542,-246.58203125,37.59765625,-100.09765625,-234.86328125,0.0
1740789372.7473602,-227.5390625,22.94921875,-92.28515625,-216.796875,0.0
1740789372.751266,-200.68359375,10.7421875,-82.03125,-187.01171875,0.0
1740789372.7551718,-180.6640625,9.27734375,-79.1015625,-171.38671875,0.0
1740789372.7590778,-154.78515625,2.44140625,-69.3359375,-149.90234375,0.0
1740789372.7629836,-132.8125,-7.8125,-61.03515625,-132.32421875,0.0
1740789372.7668893,-120.60546875,-13.671875,-61.03515625,-120.60546875,0.0
1740789372.7707953,-105.95703125,-30.2734375,-57.12890625,-97.65625,0.0
1740789372.774701,-91.30859375,-38.0859375,-50.29296875,-75.68359375,0.0
1740789372.778607,-75.68359375,-42.48046875,-46.875,-60.05859375,0.0
1740789372.782513,-60.05859375,-47.36328125,-46.875,-43.9453125,0.0
1740789372.7864206,-55.17578125,-51.26953125,-38.57421875,-35.15625,0.0
1740789372.7903266,-38.0859375,-54.6875,-31.25,-16.11328125,0.0
1740789372.7942324,-18.5546875,-52.734375,-34.1796875,-8.7890625,0.0
1740789372.7981381,-15.625,-53.7109375,-35.15625,-12.6953125,0.0
1740789372.8020442,-8.30078125,-54.19921875,-31.25,3.90625,0.0
1740789372.80595,-0.9765625,-65.91796875,-27.83203125,14.16015625,0.0
1740789372.8098557,7.32421875,-64.453125,-23.92578125,22.4609375,0.0
1740789372.8137617,13.18359375,-64.94140625,-18.5546875,30.76171875,0.0
1740789372.8176675,24.4140625,-72.75390625,-18.06640625,33.69140625,0.0
1740789372.8215733,31.73828125,-60.546875,-24.90234375,28.3203125,0.0
1740789372.8254793,38.0859375,-64.94140625,-23.92578125,34.1796875,0.0
1740789372.829385,47.36328125,-68.359375,-20.01953125,46.38671875,0.0
1740789372.8332925,42.96875,-60.05859375,-20.5078125,48.33984375,0.0
1740789372.8371985,42.96875,-58.10546875,-19.53125,49.31640625,0.0
1740789372.8411043,45.8984375,-59.08203125,-17.08984375,52.734375,0.0
1740789372.84501,47.36328125,-58.10546875,-20.99609375,56.15234375,0.0
1740789372.848916,48.33984375,-57.12890625,-16.11328125,62.01171875,0.0
1740789372.8528218,43.9453125,-63.4765625,-11.71875,61.03515625,0.0
1740789372.8567276,45.8984375,-66.40625,-19.53125,55.17578125,0.0
1740789372.8606336,41.50390625,-76.66015625,-24.4140625,56.640625,0.0
1740789372.8645394,39.0625,-68.359375,-25.390625,58.59375,0.0
1740789372.8684452,45.41015625,-51.7578125,-21.484375,56.640625,0.0
1740789372.8723512,39.0625,-62.01171875,-17.578125,56.640625,0.0
1740789372.876257,35.64453125,-67.3828125,-15.625,57.12890625,0.0
1740789372.8801641,40.52734375,-64.94140625,-15.13671875,53.22265625,0.0
1740789372.88407,38.57421875,-61.5234375,-16.11328125,48.828125,0.0
1740789372.887976,42.48046875,-56.640625,-17.08984375,50.29296875,0.0
1740789372.8918817,47.36328125,-51.26953125,-11.23046875,50.78125,0.0
1740789372.8957875,50.78125,-45.41015625,-7.8125,50.29296875,0.0
1740789372.8996935,50.29296875,-49.31640625,-6.34765625,44.43359375,0.0
1740789372.9035993,43.45703125,-54.6875,-8.7890625,39.0625,0.0
1740789372.907505,46.38671875,-51.26953125,-18.06640625,37.109375,0.0
1740789372.911411,41.50390625,-40.52734375,-19.53125,26.3671875,0.0
1740789372.9153168,37.109375,-39.0625,-18.06640625,29.78515625,0.0
1740789372.9192226,44.43359375,-39.55078125,-16.11328125,30.2734375,0.0
1740789372.9231286,32.2265625,-40.52734375,-15.625,20.99609375,0.0
1740789372.9270353,23.4375,-33.203125,-19.04296875,17.578125,0.0
1740789372.930941,21.97265625,-35.15625,-24.4140625,10.25390625,0.0
1740789372.934847,19.53125,-38.57421875,-24.90234375,9.27734375,0.0
1740789372.938753,21.484375,-27.83203125,-17.578125,15.13671875,0.0
1740789372.9426587,21.97265625,-32.2265625,-21.484375,15.13671875,0.0
1740789372.9465647,18.06640625,-48.33984375,-26.3671875,6.8359375,0.0
1740789372.9504704,14.16015625,-52.24609375,-16.6015625,8.7890625,0.0
1740789372.9543762,10.25390625,-40.52734375,-17.578125,17.578125,0.0
1740789372.9582822,8.30078125,-32.2265625,-23.92578125,12.20703125,0.0
1740789372.962188,8.7890625,-40.52734375,-26.3671875,0.48828125,0.0
1740789372.9660938,9.27734375,-46.38671875,-26.85546875,3.41796875,0.0
1740789372.9699998,8.7890625,-37.109375,-24.4140625,6.34765625,0.0
1740789372.9739063,11.71875,-33.69140625,-25.87890625,7.32421875,0.0
1740789372.977812,9.27734375,-37.59765625,-24.4140625,10.25390625,0.0
1740789372.9817178,9.765625,-38.57421875,-18.06640625,8.30078125,0.0
1740789372.9856238,15.625,-33.203125,-22.94921875,0.0,0.0
1740789372.9895296,8.7890625,-33.203125,-28.3203125,-3.90625,0.0
1740789372.9934354,6.8359375,-41.50390625,-26.85546875,-3.90625,0.0
1740789372.9973414,7.8125,-36.1328125,-30.2734375,-4.8828125,0.0
1740789373.0012472,0.9765625,-25.87890625,-29.78515625,-6.8359375,0.0
1740789373.005153,1.46484375,-32.2265625,-29.78515625,-8.30078125,0.0
1740789373.009059,1.46484375,-35.64453125,-29.296875,-13.671875,0.0
1740789373.0129647,-8.7890625,-34.1796875,-29.78515625,-21.484375,0.0
1740789373.0168705,-6.34765625,-35.15625,-33.69140625,-15.13671875,0.0
1740789373.0207794,-5.859375,-38.0859375,-28.80859375,-7.32421875,0.0
1740789373.0246854,-9.765625,-44.921875,-23.4375,-7.32421875,0.0
1740789373.0285912,-9.27734375,-43.9453125,-30.2734375,-12.20703125,0.0
1740789373.032497,-9.27734375,-38.0859375,-34.66796875,-16.6015625,0.0
1740789373.036403,-11.23046875,-40.52734375,-36.62109375,-14.16015625,0.0
1740789373.0403087,-11.71875,-38.0859375,-38.57421875,-8.7890625,0.0
1740789373.0442147,-3.41796875,-28.80859375,-34.66796875,-8.7890625,0.0
1740789373.0481205,0.0,-25.87890625,-34.1796875,-17.08984375,0.0
1740789373.0520263,-4.39453125,-30.76171875,-32.71484375,-19.04296875,0.0
1740789373.0559323,-4.39453125,-35.64453125,-29.296875,-10.7421875,0.0
1740789373.059838,-9.27734375,-31.73828125,-33.203125,-12.6953125,0.0
1740789373.0637438,-15.625,-35.15625,-36.1328125,-17.08984375,0.0
1740789373.0676525,-12.20703125,-39.0625,-34.1796875,-13.671875,0.0
1740789373.0715585,-6.8359375,-35.15625,-33.69140625,-8.7890625,0.0
1740789373.0754642,-8.30078125,-32.71484375,-33.69140625,-6.34765625,0.0
1740789373.07937,-16.11328125,-31.25,-32.71484375,-11.23046875,0.0
1740789373.083276,-15.625,-37.59765625,-33.69140625,-11.23046875,0.0
1740789373.0871818,-13.18359375,-38.0859375,-37.59765625,-9.27734375,0.0
1740789373.0910876,-9.765625,-38.57421875,-35.64453125,-12.6953125,0.0
1740789373.0949936,-13.671875,-36.62109375,-31.73828125,-16.11328125,0.0
1740789373.0988994,-12.6953125,-36.62109375,-35.64453125,-16.11328125,0.0
1740789373.1028054,-3.41796875,-33.203125,-35.15625,-20.01953125,0.0
1740789373.1067111,-13.671875,-25.390625,-33.69140625,-28.3203125,0.0
1740789373.110617,-23.4375,-30.76171875,-41.9921875,-33.203125,0.0
1740789373.1145253,0.0,-26.85546875,-44.921875,-39.55078125,0.0
1740789373.118431,0.0,-22.4609375,-40.52734375,-31.73828125,0.0
1740789373.122337,0.0,-28.80859375,-36.1328125,-21.484375,0.0
1740789373.1262429,0.0,-35.15625,-41.015625,-27.34375,0.0
1740789373.1301486,0.0,-36.1328125,-41.50390625,-30.2734375,0.0
1740789373.1340547,0.0,-35.64453125,-40.52734375,-28.80859375,0.0
1740789373.1379604,0.0,-26.3671875,-40.52734375,-23.4375,0.0
1740789373.1418662,0.0,-23.92578125,-38.0859375,-23.4375,0.0
1740789373.1457722,0.0,-34.66796875,-39.55078125,-23.4375,0.0
1740789373.149678,0.0,-32.71484375,-41.9921875,-23.92578125,0.0
1740789373.1535838,0.0,-29.296875,-43.9453125,-27.83203125,0.0
1740789373.1574898,0.0,-41.015625,-44.921875,-25.390625,0.0
1740789373.1613975,-26.3671875,-43.9453125,-37.59765625,-26.85546875,0.0
1740789373.1653032,-19.53125,-26.3671875,-31.25,-27.83203125,0.0
1740789373.1692092,-22.94921875,-20.5078125,-35.15625,-31.73828125,0.0
1740789373.173115,-23.92578125,-27.83203125,-39.55078125,-29.78515625,0.0
1740789373.177021,-23.4375,-29.78515625,-44.921875,-31.25,0.0
1740789373.1809268,-26.85546875,-28.3203125,-46.875,-30.2734375,0.0
1740789373.1848326,-25.390625,-22.94921875,-41.50390625,-25.390625,0.0
1740789373.1887386,-31.25,-32.2265625,-38.57421875,-26.3671875,0.0
1740789373.1926444,-33.203125,-41.9921875,-37.109375,-32.2265625,0.0
1740789373.1965501,-30.76171875,-32.71484375,-36.1328125,-40.52734375,0.0
1740789373.2004561,-30.2734375,-37.59765625,-33.203125,-40.52734375,0.0
1740789373.204362,-30.76171875,-41.015625,-34.1796875,-38.57421875,0.0
1740789373.2082694,-33.203125,-30.2734375,-41.015625,-36.1328125,0.0
1740789373.2121754,-35.15625,-25.87890625,-38.57421875,-38.57421875,0.0
1740789373.2160811,-38.57421875,-31.25,-37.109375,-38.57421875,0.0
1740789373.219987,-34.66796875,-31.73828125,-37.59765625,-36.1328125,0.0
1740789373.223893,-37.59765625,-32.2265625,-39.0625,-35.15625,0.0
1740789373.2277987,-38.0859375,-31.73828125,-40.0390625,-37.109375,0.0
1740789373.2317045,-30.2734375,-31.25,-34.66796875,-34.66796875,0.0
1740789373.2356105,-28.80859375,-34.1796875,-32.2265625,-33.203125,0.0
1740789373.2395163,-34.1796875,-31.25,-33.69140625,-35.64453125,0.0
1740789373.243422,-35.15625,-26.85546875,-35.64453125,-37.59765625,0.0
1740789373.247328,-26.85546875,-32.2265625,-28.80859375,-27.34375,0.0
1740789373.2512338,-24.90234375,-34.1796875,-28.3203125,-17.08984375,0.0
1740789373.255141,-26.85546875,-33.69140625,-34.1796875,-17.08984375,0.0
1740789373.2590468,-29.296875,-36.1328125,-31.25,-20.5078125,0.0
1740789373.2629526,-37.109375,-40.0390625,-35.64453125,-26.85546875,0.0
1740789373.2668586,-42.96875,-40.0390625,-41.50390625,-35.15625,0.0
1740789373.2707644,-43.9453125,-37.59765625,-41.50390625,-37.109375,0.0
1740789373.2746704,-36.62109375,-38.57421875,-39.0625,-38.0859375,0.0
1740789373.2785761,-35.15625,-40.52734375,-34.66796875,-44.43359375,0.0
1740789373.282482,-32.2265625,-33.69140625,-37.59765625,-39.0625,0.0
1740789373.286388,-31.73828125,-25.390625,-41.50390625,-42.48046875,0.0
1740789373.2902937,-34.1796875,-35.64453125,-37.59765625,-44.43359375,0.0
1740789373.2941995,-32.2265625,-41.015625,-34.1796875,-37.59765625,0.0
1740789373.2981055,-30.76171875,-31.25,-42.48046875,-34.1796875,0.0
1740789373.3020122,-23.4375,-24.90234375,-44.43359375,-31.25,0.0
1740789373.305918,-21.484375,-27.34375,-36.1328125,-24.90234375,0.0
1740789373.309824,-24.90234375,-30.76171875,-33.203125,-27.83203125,0.0
1740789373.3137298,-27.34375,-28.80859375,-38.0859375,-28.3203125,0.0
1740789373.3176355,-30.76171875,-24.90234375,-36.62109375,-24.90234375,0.0
1740789373.3215415,-36.1328125,-32.2265625,-38.0859375,-32.2265625,0.0
1740789373.3254473,-35.64453125,-36.1328125,-48.33984375,-29.78515625,0.0
1740789373.3293533,-33.69140625,-27.83203125,-49.31640625,-34.1796875,0.0
1740789373.333259,-33.203125,-23.4375,-44.921875,-37.109375,0.0
1740789373.3371649,-29.296875,-29.78515625,-45.8984375,-30.76171875,0.0
1740789373.341071,-30.2734375,-33.203125,-41.50390625,-29.78515625,0.0
1740789373.3449767,-31.73828125,-20.99609375,-32.71484375,-26.3671875,0.0
1740789373.348883,-31.25,-22.4609375,-37.109375,-26.3671875,0.0
1740789373.352789,-33.69140625,-35.15625,-40.0390625,-32.2265625,0.0
1740789373.3566947,-34.1796875,-35.64453125,-42.96875,-33.69140625,0.0
1740789373.3606005,-25.390625,-26.85546875,-43.9453125,-36.62109375,0.0
1740789373.3645065,-27.34375,-24.90234375,-43.45703125,-39.55078125,0.0
1740789373.3684123,-26.85546875,-32.2265625,-50.29296875,-32.71484375,0.0
1740789373.372318,-18.5546875,-34.1796875,-45.41015625,-30.2734375,0.0
1740789373.376224,-28.3203125,-26.85546875,-38.0859375,-30.2734375,0.0
1740789373.3801298,-35.64453125,-18.5546875,-39.0625,-34.1796875,0.0
1740789373.3840358,-27.83203125,-28.80859375,-40.0390625,-34.66796875,0.0
1740789373.3879416,-23.92578125,-29.78515625,-37.59765625,-34.66796875,0.0
1740789373.3918474,-27.83203125,-19.04296875,-36.62109375,-38.0859375,0.0
1740789373.3957562,-32.2265625,-27.34375,-41.9921875,-38.57421875,0.0
1740789373.399662,-26.3671875,-29.296875,-42.96875,-36.1328125,0.0
1740789373.403568,-28.80859375,-23.4375,-40.52734375,-36.62109375,0.0
1740789373.4074738,-35.64453125,-27.34375,-44.43359375,-39.0625,0.0
1740789373.4113798,-27.34375,-28.80859375,-42.96875,-32.71484375,0.0
1740789373.4152856,-28.3203125,-26.3671875,-46.38671875,-29.78515625,0.0
1740789373.4191914,-28.3203125,-29.78515625,-45.41015625,-27.83203125,0.0
1740789373.4230974,-25.390625,-30.2734375,-40.52734375,-22.4609375,0.0
1740789373.4270031,-24.90234375,-28.3203125,-46.38671875,-23.4375,0.0
1740789373.430909,-25.87890625,-30.76171875,-43.9453125,-23.92578125,0.0
1740789373.434815,-31.25,-26.85546875,-42.96875,-23.92578125,0.0
1740789373.4387207,-22.4609375,-27.83203125,-48.33984375,-22.94921875,0.0
1740789373.4426293,-21.484375,-35.15625,-45.41015625,-26.3671875,0.0
1740789373.446535,-21.97265625,-34.1796875,-41.9921875,-28.80859375,0.0
1740789373.450441,-21.97265625,-33.203125,-45.41015625,-24.90234375,0.0
1740789373.454347,-28.3203125,-36.62109375,-40.52734375,-19.04296875,0.0
1740789373.4582527,-25.87890625,-39.0625,-40.52734375,-16.6015625,0.0
1740789373.4621584,-29.296875,-39.55078125,-41.9921875,-18.5546875,0.0
1740789373.4660645,-34.1796875,-31.73828125,-38.0859375,-19.53125,0.0
1740789373.4699702,-26.3671875,-18.5546875,-40.0390625,-14.16015625,0.0
1740789373.473876,-20.5078125,-25.87890625,-39.0625,-7.32421875,0.0
1740789373.477782,-21.484375,-27.83203125,-31.25,-11.71875,0.0
1740789373.4816878,-32.2265625,-19.04296875,-27.83203125,-12.6953125,0.0
1740789373.4855936,-29.78515625,-30.2734375,-32.2265625,-7.8125,0.0
1740789373.489502,-21.97265625,-35.15625,-36.1328125,-11.71875,0.0
1740789373.4934077,-23.4375,-30.76171875,-39.0625,-13.671875,0.0
1740789373.4973137,-29.296875,-29.78515625,-40.0390625,-17.08984375,0.0
1740789373.5012195,-31.25,-35.15625,-40.0390625,-22.4609375,0.0
1740789373.5051253,-33.69140625,-42.96875,-43.9453125,-23.92578125,0.0
1740789373.5090313,-37.59765625,-40.0390625,-43.45703125,-27.83203125,0.0
1740789373.512937,-37.109375,-34.66796875,-41.50390625,-31.25,0.0
1740789373.5168428,-34.1796875,-37.109375,-50.29296875,-30.76171875,0.0
1740789373.5207489,-36.62109375,-38.0859375,-57.12890625,-23.4375,0.0
1740789373.5246546,-44.43359375,-30.76171875,-51.7578125,-25.87890625,0.0
1740789373.5285604,-43.45703125,-29.296875,-43.9453125,-36.1328125,0.0
1740789373.5324664,-35.15625,-32.71484375,-41.50390625,-31.25,0.0
1740789373.536374,-38.57421875,-34.66796875,-46.875,-28.80859375,0.0
1740789373.5402799,-33.69140625,-27.34375,-41.9921875,-29.78515625,0.0
1740789373.5441859,-23.4375,-27.83203125,-27.34375,-24.90234375,0.0
1740789373.5480917,-27.34375,-34.1796875,-28.3203125,-24.4140625,0.0
1740789373.5519974,-24.4140625,-31.25,-35.64453125,-27.34375,0.0
1740789373.5559034,-18.5546875,-25.87890625,-35.15625,-24.4140625,0.0
1740789373.5598092,-23.92578125,-20.5078125,-36.1328125,-26.85546875,0.0
1740789373.563715,-26.85546875,-33.203125,-34.66796875,-24.4140625,0.0
1740789373.567621,-22.4609375,-39.0625,-36.1328125,-26.85546875,0.0
1740789373.5715268,-26.85546875,-28.80859375,-37.109375,-34.1796875,0.0
1740789373.5754325,-31.73828125,-29.78515625,-36.62109375,-29.78515625,0.0
1740789373.5793386,-36.1328125,-33.203125,-38.0859375,-40.0390625,0.0
1740789373.583246,-34.1796875,-31.73828125,-37.109375,-41.9921875,0.0
1740789373.5871518,-34.1796875,-28.80859375,-39.0625,-29.78515625,0.0
1740789373.5910578,-34.1796875,-32.71484375,-41.015625,-26.3671875,0.0
1740789373.5949636,-26.3671875,-40.0390625,-44.921875,-37.109375,0.0
1740789373.5988693,-30.2734375,-38.57421875,-44.921875,-39.55078125,0.0
1740789373.6027753,-31.73828125,-38.57421875,-40.52734375,-28.80859375,0.0
1740789373.606681,-25.87890625,-39.0625,-35.15625,-26.3671875,0.0
1740789373.610587,-23.4375,-33.203125,-32.2265625,-22.94921875,0.0
1740789373.614493,-23.92578125,-22.94921875,-37.109375,-25.390625,0.0
1740789373.6183987,-29.296875,-27.83203125,-43.45703125,-33.203125,0.0
1740789373.6223044,-25.390625,-34.1796875,-42.96875,-28.80859375,0.0
1740789373.6262105,-21.484375,-32.2265625,-41.50390625,-24.90234375,0.0
1740789373.6301177,-23.92578125,-38.0859375,-41.015625,-31.25,0.0
1740789373.6340234,-23.4375,-41.015625,-28.80859375,-26.85546875,0.0
1740789373.6379292,-27.34375,-41.015625,-26.85546875,-23.92578125,0.0
1740789373.6418352,-29.296875,-31.73828125,-30.76171875,-22.94921875,0.0
1740789373.645741,-21.484375,-25.87890625,-29.78515625,-20.01953125,0.0
1740789373.6496468,-26.3671875,-38.57421875,-37.109375,-26.85546875,0.0
1740789373.6535528,-31.25,-45.41015625,-40.52734375,-32.2265625,0.0
1740789373.6574585,-32.71484375,-41.50390625,-40.52734375,-33.69140625,0.0
1740789373.6613646,-38.0859375,-33.69140625,-45.41015625,-33.69140625,0.0
1740789373.6652703,-40.0390625,-39.55078125,-40.0390625,-32.2265625,0.0
1740789373.669176,-36.1328125,-40.0390625,-30.2734375,-29.78515625,0.0
1740789373.673082,-27.34375,-31.25,-31.25,-21.97265625,0.0
1740789373.6769888,-26.85546875,-25.87890625,-33.69140625,-23.4375,0.0
1740789373.6808946,-28.3203125,-32.2265625,-37.59765625,-27.83203125,0.0
1740789373.6848004,-32.2265625,-40.52734375,-43.45703125,-29.296875,0.0
1740789373.6887064,-42.96875,-36.1328125,-43.9453125,-33.69140625,0.0
1740789373.6926122,-39.0625,-37.109375,-42.96875,-28.80859375,0.0
1740789373.696518,-25.390625,-45.41015625,-44.43359375,-31.25,0.0
1740789373.700424,-28.80859375,-50.29296875,-49.31640625,-35.15625,0.0
1740789373.7043297,-40.0390625,-42.96875,-49.8046875,-35.15625,0.0
1740789373.7082355,-38.57421875,-30.76171875,-45.41015625,-32.2265625,0.0
1740789373.7121415,-32.2265625,-37.109375,-44.43359375,-25.87890625,0.0
1740789373.7160473,-32.71484375,-41.015625,-42.48046875,-32.2265625,0.0
1740789373.7199533,-24.90234375,-30.2734375,-40.0390625,-34.66796875,0.0
1740789373.7238595,-21.97265625,-32.71484375,-39.0625,-31.25,0.0
1740789373.7277653,-26.3671875,-40.0390625,-37.59765625,-31.73828125,0.0
1740789373.7316713,-25.390625,-34.66796875,-34.1796875,-30.76171875,0.0
1740789373.735577,-26.3671875,-32.2265625,-31.73828125,-34.1796875,0.0
1740789373.7394829,-29.78515625,-30.2734375,-30.76171875,-32.71484375,0.0
1740789373.743389,-27.83203125,-36.1328125,-35.15625,-23.4375,0.0
1740789373.7472947,-25.390625,-32.71484375,-40.0390625,-22.94921875,0.0
1740789373.7512004,-31.73828125,-17.08984375,-41.015625,-30.2734375,0.0
1740789373.7551064,-33.203125,-24.4140625,-39.55078125,-29.296875,0.0
1740789373.7590122,-35.15625,-35.64453125,-34.1796875,-20.99609375,0.0
1740789373.7629182,-30.76171875,-31.25,-29.296875,-23.92578125,0.0
1740789373.766824,-24.4140625,-27.34375,-36.62109375,-32.2265625,0.0
1740789373.7707329,-25.390625,-29.296875,-38.57421875,-32.2265625,0.0
1740789373.774639,-29.296875,-28.3203125,-34.1796875,-35.15625,0.0
1740789373.7785447,-27.34375,-32.2265625,-38.57421875,-34.1796875,0.0
1740789373.7824504,-24.4140625,-25.87890625,-38.57421875,-33.69140625,0.0
1740789373.7863564,-20.5078125,-20.01953125,-36.1328125,-34.66796875,0.0
1740789373.7902622,-22.4609375,-29.78515625,-35.15625,-25.87890625,0.0
1740789373.7941682,-23.92578125,-33.69140625,-30.76171875,-25.87890625,0.0
1740789373.798074,-19.04296875,-28.3203125,-32.71484375,-39.0625,0.0
1740789373.8019798,-18.5546875,-27.83203125,-37.59765625,-42.96875,0.0
1740789373.8058858,-20.5078125,-31.25,-38.57421875,-36.1328125,0.0
1740789373.8097916,-24.4140625,-30.76171875,-39.55078125,-37.59765625,0.0
1740789373.8136973,-25.87890625,-28.80859375,-34.1796875,-37.59765625,0.0
1740789373.817606,-31.25,-28.80859375,-33.203125,-33.203125,0.0
1740789373.8215117,-42.48046875,-28.3203125,-36.62109375,-33.203125,0.0
1740789373.8254178,-41.9921875,-36.62109375,-35.64453125,-39.0625,0.0
1740789373.8293235,-39.0625,-40.52734375,-37.59765625,-39.55078125,0.0
1740789373.8332293,-43.45703125,-43.45703125,-41.015625,-37.109375,0.0
1740789373.8371353,-38.0859375,-41.015625,-32.71484375,-34.1796875,0.0
1740789373.841041,-31.73828125,-28.80859375,-25.87890625,-31.73828125,0.0
1740789373.8449469,-32.2265625,-19.53125,-26.3671875,-28.80859375,0.0
1740789373.8488529,-31.73828125,-28.3203125,-28.3203125,-29.296875,0.0
1740789373.8527586,-27.83203125,-34.1796875,-34.1796875,-32.2265625,0.0
1740789373.8566644,-30.2734375,-24.4140625,-45.41015625,-38.0859375,0.0
1740789373.8605704,-30.2734375,-28.80859375,-46.38671875,-45.41015625,0.0
1740789373.8644786,0.0,-31.25,-34.66796875,-42.96875,0.0
1740789373.8683846,0.0,-27.83203125,-33.203125,-38.57421875,0.0
1740789373.8722904,0.0,-22.4609375,-36.62109375,-40.52734375,0.0
1740789373.8761964,0.0,-21.97265625,-37.109375,-39.0625,0.0
1740789373.8801022,0.0,-29.78515625,-39.0625,-37.59765625,0.0
1740789373.884008,0.0,-31.25,-45.41015625,-40.0390625,0.0
