timestamps,TP9,AF7,AF8,TP10,Right AUX
1740789325.2108786,-30.76171875,-34.66796875,-43.45703125,-36.1328125,0.0
1740789325.2147844,-35.15625,-37.109375,-48.33984375,-40.52734375,0.0
1740789325.2186904,-32.2265625,-32.71484375,-43.45703125,-39.0625,0.0
1740789325.2225962,-31.25,-29.78515625,-40.0390625,-29.78515625,0.0
1740789325.226502,-30.76171875,-30.76171875,-44.921875,-26.85546875,0.0
1740789325.230408,-29.296875,-34.66796875,-41.50390625,-29.296875,0.0
1740789325.2343137,-26.3671875,-31.25,-40.52734375,-31.73828125,0.0
1740789325.2382195,-23.92578125,-29.296875,-46.38671875,-36.1328125,0.0
1740789325.2421253,-28.3203125,-32.71484375,-41.9921875,-36.62109375,0.0
1740789325.2460313,-25.390625,-43.9453125,-41.015625,-32.2265625,0.0
1740789325.249937,-18.5546875,-37.59765625,-41.015625,-26.3671875,0.0
1740789325.2538428,-19.04296875,-27.34375,-36.62109375,-24.90234375,0.0
1740789325.2577524,-22.94921875,-34.66796875,-44.43359375,-30.76171875,0.0
1740789325.2616584,-25.390625,-39.0625,-47.36328125,-32.71484375,0.0
1740789325.2655642,-26.85546875,-36.62109375,-41.50390625,-30.2734375,0.0
1740789325.26947,-30.76171875,-39.55078125,-43.9453125,-34.66796875,0.0
1740789325.2733757,-37.59765625,-49.8046875,-48.33984375,-40.52734375,0.0
1740789325.2772818,-44.43359375,-46.875,-49.31640625,-36.1328125,0.0
1740789325.2811875,-40.0390625,-36.1328125,-52.24609375,-31.73828125,0.0
1740789325.2850933,-33.69140625,-33.203125,-52.734375,-35.15625,0.0
1740789325.2889993,-31.25,-34.1796875,-45.41015625,-30.76171875,0.0
1740789325.292905,-28.80859375,-31.25,-47.8515625,-27.34375,0.0
1740789325.2968109,-28.3203125,-27.34375,-53.22265625,-32.2265625,0.0
1740789325.3007166,-22.94921875,-33.69140625,-42.48046875,-26.3671875,0.0
1740789325.3046257,-20.99609375,-37.59765625,-39.0625,-24.4140625,0.0
1740789325.3085318,-20.5078125,-35.15625,-41.9921875,-27.83203125,0.0
1740789325.3124375,-17.578125,-29.78515625,-30.2734375,-24.4140625,0.0
1740789325.3163433,-16.11328125,-25.87890625,-25.390625,-24.90234375,0.0
1740789325.3202493,-22.4609375,-25.87890625,-32.71484375,-30.76171875,0.0
1740789325.324155,-25.390625,-28.3203125,-40.52734375,-36.1328125,0.0
1740789325.3280609,-28.3203125,-25.87890625,-41.50390625,-36.62109375,0.0
1740789325.3319669,-34.1796875,-34.1796875,-41.9921875,-38.0859375,0.0
1740789325.3358727,-32.71484375,-43.9453125,-41.50390625,-36.62109375,0.0
1740789325.3397784,-31.73828125,-38.57421875,-40.52734375,-36.1328125,0.0
1740789325.3436842,-36.1328125,-27.34375,-41.015625,-42.96875,0.0
1740789325.3475902,-33.69140625,-28.80859375,-39.55078125,-41.50390625,0.0
1740789325.3514988,-33.203125,-31.25,-43.45703125,-35.64453125,0.0
1740789325.3554046,-33.69140625,-25.87890625,-47.8515625,-36.1328125,0.0
1740789325.3593106,-35.64453125,-27.83203125,-44.921875,-37.59765625,0.0
1740789325.3632164,-35.15625,-31.73828125,-45.41015625,-37.109375,0.0
1740789325.3671222,-33.203125,-33.203125,-45.8984375,-42.96875,0.0
1740789325.371028,-31.73828125,-29.78515625,-41.50390625,-43.9453125,0.0
1740789325.374934,-28.80859375,-20.99609375,-42.96875,-39.55078125,0.0
1740789325.3788397,-31.25,-19.04296875,-39.0625,-34.1796875,0.0
1740789325.3827455,-39.0625,-31.73828125,-38.0859375,-37.109375,0.0
1740789325.3866515,-33.69140625,-30.76171875,-43.9453125,-41.50390625,0.0
1740789325.3905573,-28.80859375,-17.578125,-45.41015625,-41.50390625,0.0
1740789325.394463,-30.2734375,-20.99609375,-43.9453125,-41.015625,0.0
1740789325.3983717,-22.4609375,-27.34375,-39.0625,-35.15625,0.0
1740789325.4022775,-24.90234375,-25.390625,-45.8984375,-38.57421875,0.0
1740789325.4061832,-31.25,-25.390625,-47.36328125,-35.64453125,0.0
1740789325.4100893,-27.83203125,-24.90234375,-40.0390625,-31.25,0.0
1740789325.413995,-21.484375,-24.90234375,-38.57421875,-39.55078125,0.0
1740789325.4179008,-20.5078125,-25.390625,-39.0625,-36.1328125,0.0
1740789325.4218066,-22.4609375,-21.484375,-43.45703125,-35.15625,0.0
1740789325.4257126,-22.94921875,-26.85546875,-49.31640625,-39.55078125,0.0
1740789325.4296184,-36.1328125,-29.296875,-48.828125,-39.0625,0.0
1740789325.4335241,-39.55078125,-26.85546875,-42.48046875,-44.43359375,0.0
1740789325.4374301,-31.73828125,-38.57421875,-43.9453125,-41.50390625,0.0
1740789325.441336,-39.55078125,-40.52734375,-48.828125,-47.36328125,0.0
1740789325.445244,-45.41015625,-41.50390625,-45.8984375,-53.7109375,0.0
1740789325.4491498,-40.52734375,-39.55078125,-45.41015625,-48.33984375,0.0
1740789325.4530559,-43.45703125,-35.15625,-46.38671875,-41.50390625,0.0
1740789325.4569616,-45.41015625,-34.66796875,-45.41015625,-33.69140625,0.0
1740789325.4608674,-39.55078125,-32.2265625,-48.828125,-29.78515625,0.0
1740789325.4647734,-38.0859375,-42.96875,-52.24609375,-34.66796875,0.0
1740789325.4686792,-38.57421875,-49.8046875,-48.33984375,-40.0390625,0.0
1740789325.472585,-33.203125,-50.29296875,-47.36328125,-32.71484375,0.0
1740789325.476491,-31.25,-41.50390625,-47.8515625,-35.15625,0.0
1740789325.4803967,-30.76171875,-28.80859375,-43.9453125,-41.9921875,0.0
1740789325.4843025,-39.55078125,-35.64453125,-43.9453125,-44.43359375,0.0
1740789325.4882083,-34.66796875,-40.0390625,-47.36328125,-41.015625,0.0
1740789325.4921162,-30.2734375,-34.1796875,-48.33984375,-41.015625,0.0
1740789325.4960222,-31.73828125,-34.1796875,-41.50390625,-40.52734375,0.0
1740789325.499928,-31.25,-40.52734375,-43.45703125,-38.57421875,0.0
1740789325.5038338,-40.52734375,-47.36328125,-44.921875,-34.66796875,0.0
1740789325.5077398,-36.62109375,-40.0390625,-38.0859375,-27.83203125,0.0
1740789325.5116456,-37.109375,-38.0859375,-41.50390625,-36.1328125,0.0
1740789325.5155513,-38.57421875,-42.96875,-44.921875,-40.0390625,0.0
1740789325.519457,-31.73828125,-36.62109375,-43.45703125,-32.71484375,0.0
1740789325.523363,-30.76171875,-26.3671875,-44.43359375,-37.109375,0.0
1740789325.527269,-28.3203125,-29.296875,-45.41015625,-37.109375,0.0
1740789325.5311747,-28.3203125,-27.34375,-49.31640625,-32.2265625,0.0
1740789325.5350807,-30.76171875,-27.34375,-50.78125,-40.0390625,0.0
1740789325.5389879,-30.2734375,-26.85546875,-47.36328125,-41.50390625,0.0
1740789325.5428936,-39.0625,-33.203125,-53.7109375,-41.9921875,0.0
1740789325.5467994,-36.1328125,-36.62109375,-51.26953125,-41.50390625,0.0
1740789325.5507054,-24.4140625,-26.3671875,-41.9921875,-39.55078125,0.0
1740789325.5546112,-19.53125,-20.99609375,-42.96875,-35.64453125,0.0
1740789325.558517,-24.4140625,-20.99609375,-45.8984375,-27.83203125,0.0
1740789325.562423,-34.66796875,-30.76171875,-43.45703125,-27.83203125,0.0
1740789325.5663288,-35.15625,-26.3671875,-40.0390625,-28.80859375,0.0
1740789325.5702345,-34.1796875,-13.671875,-41.50390625,-26.3671875,0.0
1740789325.5741405,-29.78515625,-24.4140625,-42.48046875,-23.4375,0.0
1740789325.5780463,-22.4609375,-30.76171875,-35.15625,-27.83203125,0.0
1740789325.581952,-24.4140625,-26.3671875,-35.64453125,-35.64453125,0.0
1740789325.585859,-26.3671875,-26.85546875,-43.9453125,-36.1328125,0.0
1740789325.589765,-18.5546875,-28.3203125,-43.9453125,-28.3203125,0.0
1740789325.5936708,-23.92578125,-28.80859375,-45.41015625,-32.71484375,0.0
1740789325.5975766,-31.73828125,-28.3203125,-42.96875,-32.71484375,0.0
1740789325.6014826,-21.97265625,-33.203125,-38.0859375,-21.484375,0.0
1740789325.6053884,-24.90234375,-44.921875,-39.0625,-20.5078125,0.0
1740789325.6092942,-26.3671875,-41.9921875,-38.57421875,-22.4609375,0.0
1740789325.6132,-24.4140625,-29.296875,-38.0859375,-23.92578125,0.0
1740789325.617106,-26.3671875,-33.69140625,-40.52734375,-17.578125,0.0
1740789325.6210117,-21.484375,-35.64453125,-43.9453125,-12.20703125,0.0
1740789325.6249175,-22.94921875,-26.85546875,-42.48046875,-14.6484375,0.0
1740789325.6288235,-27.83203125,-30.76171875,-38.57421875,-20.5078125,0.0
1740789325.6327329,-30.2734375,-43.45703125,-38.57421875,-23.92578125,0.0
1740789325.6366389,-26.85546875,-38.57421875,-41.50390625,-21.484375,0.0
1740789325.6405447,-20.5078125,-28.3203125,-39.55078125,-15.625,0.0
1740789325.6444504,-19.53125,-33.69140625,-37.109375,-19.04296875,0.0
1740789325.6483564,-23.4375,-38.0859375,-44.43359375,-24.90234375,0.0
1740789325.6522622,-23.92578125,-37.59765625,-47.36328125,-20.5078125,0.0
1740789325.656168,-31.25,-31.73828125,-42.48046875,-21.484375,0.0
1740789325.6600738,-26.3671875,-25.87890625,-47.8515625,-29.296875,0.0
1740789325.6639798,-14.6484375,-30.2734375,-48.828125,-24.4140625,0.0
1740789325.6678855,-11.71875,-22.4609375,-36.1328125,-13.671875,0.0
1740789325.6717913,-13.18359375,-18.06640625,-35.15625,-12.6953125,0.0
1740789325.6756973,-16.6015625,-34.66796875,-40.52734375,-21.484375,0.0
1740789325.6796064,-20.99609375,-44.921875,-42.48046875,-34.1796875,0.0
1740789325.6835124,-31.25,-39.55078125,-45.8984375,-43.45703125,0.0
1740789325.6874182,-26.85546875,-28.3203125,-39.55078125,-33.203125,0.0
1740789325.691324,-20.99609375,-28.3203125,-37.109375,-25.390625,0.0
1740789325.69523,-26.85546875,-26.85546875,-40.52734375,-32.2265625,0.0
1740789325.6991358,-23.92578125,-27.34375,-36.62109375,-20.01953125,0.0
1740789325.7030416,-21.484375,-33.203125,-34.66796875,-15.13671875,0.0
1740789325.7069476,-29.78515625,-33.69140625,-39.55078125,-23.92578125,0.0
1740789325.7108533,-31.25,-43.45703125,-41.50390625,-25.390625,0.0
1740789325.714759,-26.85546875,-38.0859375,-36.1328125,-23.92578125,0.0
1740789325.718665,-27.83203125,-28.80859375,-38.57421875,-29.296875,0.0
1740789325.722571,-33.203125,-33.203125,-44.921875,-34.1796875,0.0
1740789325.7264795,-34.66796875,-35.15625,-45.8984375,-35.15625,0.0
1740789325.7303855,-35.15625,-37.109375,-46.875,-37.109375,0.0
1740789325.7342913,-28.3203125,-29.78515625,-38.57421875,-30.2734375,0.0
1740789325.738197,-17.578125,-21.484375,-33.69140625,-19.04296875,0.0
1740789325.7421029,-20.5078125,-27.34375,-39.55078125,-22.94921875,0.0
1740789325.7460089,-22.94921875,-36.1328125,-39.55078125,-29.296875,0.0
1740789325.7499146,-28.3203125,-38.0859375,-41.50390625,-32.71484375,0.0
1740789325.7538204,-32.71484375,-35.15625,-37.59765625,-34.66796875,0.0
1740789325.7577264,-32.71484375,-41.50390625,-34.1796875,-29.296875,0.0
1740789325.7616322,-26.3671875,-31.25,-31.25,-28.80859375,0.0
1740789325.765538,-23.92578125,-16.6015625,-26.85546875,-33.69140625,0.0
1740789325.769444,-30.76171875,-27.34375,-36.1328125,-40.0390625,0.0
1740789325.7733524,-28.3203125,-34.66796875,-43.9453125,-43.45703125,0.0
1740789325.7772582,-29.296875,-29.296875,-43.9453125,-40.52734375,0.0
1740789325.7811642,-29.296875,-30.76171875,-41.9921875,-39.0625,0.0
1740789325.78507,-20.99609375,-39.0625,-34.66796875,-30.76171875,0.0
1740789325.7889757,-18.06640625,-39.0625,-34.1796875,-24.90234375,0.0
1740789325.7928815,-21.97265625,-38.57421875,-40.0390625,-27.83203125,0.0
1740789325.7967875,-23.92578125,-31.25,-38.57421875,-26.3671875,0.0
1740789325.8006933,-20.5078125,-28.80859375,-33.69140625,-25.390625,0.0
1740789325.804599,-16.6015625,-29.296875,-32.71484375,-30.2734375,0.0
1740789325.808505,-14.16015625,-22.4609375,-32.2265625,-28.3203125,0.0
1740789325.8124108,-21.484375,-26.3671875,-35.64453125,-32.71484375,0.0
1740789325.8163166,-22.94921875,-27.34375,-29.78515625,-32.71484375,0.0
1740789325.820225,-18.06640625,-24.4140625,-32.71484375,-27.83203125,0.0
1740789325.8241308,-22.4609375,-19.04296875,-44.43359375,-30.2734375,0.0
1740789325.8280365,-24.4140625,-16.6015625,-45.8984375,-30.76171875,0.0
1740789325.8319426,-21.97265625,-26.85546875,-40.52734375,-26.3671875,0.0
1740789325.8358483,-24.4140625,-32.2265625,-34.66796875,-27.34375,0.0
1740789325.839754,-29.78515625,-36.62109375,-33.203125,-29.78515625,0.0
1740789325.8436599,-28.3203125,-36.1328125,-32.2265625,-27.34375,0.0
1740789325.847566,-25.87890625,-35.64453125,-36.62109375,-24.90234375,0.0
1740789325.8514717,-29.78515625,-28.3203125,-41.9921875,-24.90234375,0.0
1740789325.8553774,-32.71484375,-26.3671875,-41.50390625,-27.34375,0.0
1740789325.8592834,-26.3671875,-35.64453125,-37.59765625,-24.90234375,0.0
1740789325.8631892,-23.4375,-28.80859375,-35.15625,-20.01953125,0.0
1740789325.8671,-23.4375,-30.2734375,-28.3203125,-20.5078125,0.0
1740789325.8710058,-21.97265625,-37.109375,-27.34375,-20.5078125,0.0
1740789325.8749115,-34.1796875,-39.0625,-43.9453125,-26.85546875,0.0
1740789325.8788176,-39.0625,-38.57421875,-48.828125,-36.62109375,0.0
1740789325.8827233,-35.64453125,-31.73828125,-39.0625,-34.1796875,0.0
1740789325.886629,-41.50390625,-31.25,-38.57421875,-39.0625,0.0
1740789325.890535,-41.50390625,-40.0390625,-37.109375,-36.1328125,0.0
1740789325.894441,-41.9921875,-45.8984375,-33.69140625,-34.1796875,0.0
1740789325.8983467,-43.45703125,-35.15625,-32.2265625,-42.96875,0.0
1740789325.9022527,-40.0390625,-29.78515625,-38.0859375,-43.9453125,0.0
1740789325.9061584,-38.57421875,-32.2265625,-36.62109375,-36.1328125,0.0
1740789325.9100642,-37.59765625,-34.1796875,-35.15625,-34.1796875,0.0
1740789325.9139714,-41.015625,-35.64453125,-37.109375,-37.109375,0.0
1740789325.9178774,-29.296875,-35.15625,-32.71484375,-32.71484375,0.0
1740789325.9217832,-19.53125,-20.01953125,-34.66796875,-30.2734375,0.0
1740789325.925689,-18.5546875,-12.6953125,-34.66796875,-30.76171875,0.0
1740789325.929595,-16.11328125,-23.92578125,-32.71484375,-27.83203125,0.0
1740789325.9335008,-18.06640625,-30.2734375,-37.109375,-23.4375,0.0
1740789325.9374065,-21.97265625,-28.3203125,-37.109375,-27.83203125,0.0
1740789325.9413126,-23.4375,-25.87890625,-37.109375,-31.73828125,0.0
1740789325.9452183,-23.92578125,-29.296875,-35.64453125,-22.94921875,0.0
1740789325.949124,-20.01953125,-34.1796875,-29.78515625,-22.4609375,0.0
1740789325.9530299,-29.296875,-39.0625,-36.1328125,-29.296875,0.0
1740789325.956936,-33.69140625,-31.73828125,-43.9453125,-26.85546875,0.0
1740789325.9608428,-19.04296875,-26.85546875,-40.0390625,-29.296875,0.0
1740789325.9647486,-23.4375,-31.25,-37.59765625,-25.87890625,0.0
1740789325.9686546,-31.25,-32.2265625,-35.64453125,-24.4140625,0.0
1740789325.9725604,-21.97265625,-27.83203125,-33.203125,-21.97265625,0.0
1740789325.9764662,-15.13671875,-23.92578125,-33.203125,-21.484375,0.0
1740789325.980372,-25.87890625,-34.66796875,-36.62109375,-27.34375,0.0
1740789325.984278,-36.1328125,-32.71484375,-40.52734375,-27.34375,0.0
1740789325.9881837,-36.1328125,-25.87890625,-42.48046875,-26.85546875,0.0
1740789325.9920895,-33.69140625,-35.15625,-43.45703125,-28.80859375,0.0
1740789325.9959955,-36.1328125,-37.109375,-39.55078125,-33.69140625,0.0
1740789325.9999013,-36.1328125,-35.15625,-37.109375,-39.0625,0.0
1740789326.003807,-32.71484375,-34.1796875,-33.69140625,-36.62109375,0.0
1740789326.007717,0.0,-34.1796875,-34.66796875,-33.203125,0.0
1740789326.0116227,0.0,-32.71484375,-41.9921875,-29.78515625,0.0
1740789326.0155284,0.0,-25.390625,-38.57421875,-27.34375,0.0
1740789326.0194345,0.0,-22.94921875,-33.69140625,-25.390625,0.0
1740789326.0233402,0.0,-35.64453125,-39.0625,-24.4140625,0.0
1740789326.027246,0.0,-40.0390625,-41.50390625,-31.73828125,0.0
1740789326.031152,0.0,-25.390625,-37.109375,-29.78515625,0.0
1740789326.0350578,0.0,-23.92578125,-35.64453125,-22.94921875,0.0
1740789326.0389636,0.0,-30.76171875,-38.57421875,-23.4375,0.0
1740789326.0428696,0.0,-35.64453125,-43.45703125,-32.2265625,0.0
1740789326.0467753,0.0,-31.73828125,-45.8984375,-42.48046875,0.0
1740789326.050681,0.0,-22.94921875,-42.96875,-45.8984375,0.0
1740789326.0545905,-34.1796875,-30.2734375,-42.48046875,-43.9453125,0.0
1740789326.0584962,-34.66796875,-36.62109375,-43.45703125,-44.921875,0.0
1740789326.0624022,-27.83203125,-32.71484375,-37.59765625,-42.96875,0.0
1740789326.066308,-21.484375,-31.73828125,-34.66796875,-41.015625,0.0
1740789326.0702138,-20.99609375,-30.76171875,-43.45703125,-40.0390625,0.0
1740789326.0741196,-26.3671875,-34.66796875,-42.96875,-39.0625,0.0
1740789326.0780256,-27.83203125,-35.64453125,-38.57421875,-41.015625,0.0
1740789326.0819314,-21.97265625,-29.296875,-41.9921875,-37.109375,0.0
1740789326.0858371,-27.83203125,-36.62109375,-40.0390625,-30.2734375,0.0
1740789326.0897431,-30.2734375,-35.15625,-38.57421875,-35.64453125,0.0
1740789326.093649,-28.3203125,-22.94921875,-41.50390625,-38.57421875,0.0
1740789326.0975547,-31.73828125,-32.2265625,-45.41015625,-28.80859375,0.0
1740789326.1014633,-29.78515625,-37.59765625,-49.31640625,-26.3671875,0.0
1740789326.1053693,-23.92578125,-36.1328125,-48.33984375,-21.484375,0.0
1740789326.109275,-23.92578125,-29.78515625,-49.31640625,-25.390625,0.0
1740789326.1131809,-26.3671875,-28.80859375,-48.828125,-31.73828125,0.0
1740789326.117087,-26.85546875,-35.15625,-46.38671875,-27.34375,0.0
1740789326.1209927,-28.3203125,-37.59765625,-47.36328125,-28.3203125,0.0
1740789326.1248984,-32.71484375,-29.78515625,-49.31640625,-32.71484375,0.0
1740789326.1288044,-34.66796875,-25.390625,-50.78125,-36.1328125,0.0
1740789326.1327102,-20.99609375,-34.1796875,-47.8515625,-26.85546875,0.0
1740789326.136616,-19.53125,-33.203125,-45.41015625,-17.578125,0.0
1740789326.1405218,-32.2265625,-29.296875,-47.8515625,-28.3203125,0.0
1740789326.1444278,-29.78515625,-36.62109375,-50.29296875,-28.3203125,0.0
1740789326.1483362,-28.80859375,-39.0625,-52.24609375,-24.90234375,0.0
1740789326.152242,-41.015625,-37.109375,-54.19921875,-35.15625,0.0
1740789326.156148,-33.69140625,-34.1796875,-46.875,-36.62109375,0.0
1740789326.1600537,-25.87890625,-24.90234375,-41.50390625,-27.83203125,0.0
1740789326.1639595,-34.1796875,-32.2265625,-42.96875,-25.87890625,0.0
1740789326.1678653,-27.34375,-25.87890625,-30.76171875,-15.625,0.0
1740789326.1717713,-23.92578125,-13.671875,-21.97265625,-13.18359375,0.0
1740789326.175677,-39.0625,-27.34375,-29.78515625,-37.109375,0.0
1740789326.1795828,-71.2890625,-38.57421875,-55.17578125,-76.171875,0.0
1740789326.1834888,-89.84375,-20.5078125,-59.5703125,-87.890625,0.0
1740789326.1873946,-103.02734375,-6.34765625,-60.05859375,-101.07421875,0.0
1740789326.1913004,-113.76953125,-5.859375,-59.5703125,-120.60546875,0.0
1740789326.1952083,-141.6015625,12.6953125,-60.546875,-146.484375,0.0
1740789326.1991143,-208.984375,10.7421875,-97.65625,-208.0078125,0.0
1740789326.20302,-247.0703125,7.32421875,-114.2578125,-248.53515625,0.0
1740789326.2069259,-267.08984375,19.53125,-118.65234375,-277.34375,0.0
1740789326.2108319,-290.52734375,24.90234375,-121.58203125,-300.29296875,0.0
1740789326.2147377,-299.31640625,30.76171875,-120.1171875,-300.29296875,0.0
1740789326.2186434,-303.22265625,35.15625,-119.140625,-298.33984375,0.0
1740789326.2225494,-309.08203125,27.34375,-118.65234375,-300.29296875,0.0
1740789326.2264552,-303.7109375,31.73828125,-108.88671875,-292.96875,0.0
1740789326.230361,-291.9921875,41.9921875,-109.86328125,-285.15625,0.0
1740789326.2342668,-274.90234375,31.73828125,-111.328125,-269.04296875,0.0
1740789326.2381728,-262.20703125,14.6484375,-101.07421875,-251.46484375,0.0
1740789326.2420805,-264.16015625,10.25390625,-95.703125,-243.65234375,0.0
1740789326.2459862,-241.2109375,7.32421875,-96.19140625,-227.05078125,0.0
1740789326.2498922,-208.49609375,-5.859375,-96.6796875,-197.265625,0.0
1740789326.253798,-194.3359375,-13.671875,-87.40234375,-174.8046875,0.0
1740789326.2577038,-172.8515625,-19.53125,-83.49609375,-159.1796875,0.0
1740789326.2616098,-149.90234375,-31.25,-78.125,-142.08984375,0.0
1740789326.2655156,-128.90625,-41.50390625,-62.01171875,-117.1875,0.0
1740789326.2694213,-113.28125,-43.9453125,-60.05859375,-104.00390625,0.0
1740789326.273327,-98.14453125,-35.15625,-58.59375,-98.6328125,0.0
1740789326.2772331,-83.984375,-38.0859375,-51.26953125,-80.078125,0.0
1740789326.281139,-70.80078125,-44.43359375,-49.31640625,-60.546875,0.0
1740789326.2850447,-59.5703125,-55.17578125,-45.41015625,-48.828125,0.0
1740789326.288952,-42.96875,-63.4765625,-42.96875,-37.109375,0.0
1740789326.292858,-28.3203125,-60.05859375,-43.9453125,-28.3203125,0.0
1740789326.2967637,-23.92578125,-64.94140625,-37.109375,-18.5546875,0.0
1740789326.3006697,-6.8359375,-60.546875,-27.83203125,6.34765625,0.0
1740789326.3045754,-2.9296875,-54.6875,-27.83203125,10.7421875,0.0
1740789326.3084812,-4.39453125,-65.4296875,-24.90234375,6.8359375,0.0
1740789326.3123872,24.90234375,-70.80078125,-20.5078125,28.80859375,0.0
1740789326.316293,30.76171875,-64.94140625,-24.4140625,34.1796875,0.0
1740789326.3201988,27.83203125,-65.91796875,-25.390625,32.2265625,0.0
1740789326.3241045,36.1328125,-70.3125,-22.4609375,40.52734375,0.0
1740789326.3280106,37.109375,-73.2421875,-24.90234375,39.0625,0.0
1740789326.3319163,41.9921875,-66.40625,-22.94921875,41.015625,0.0
1740789326.3358262,47.36328125,-58.59375,-15.13671875,51.26953125,0.0
1740789326.339732,55.17578125,-57.6171875,-11.71875,59.5703125,0.0
1740789326.343638,65.4296875,-55.17578125,-17.08984375,55.6640625,0.0
1740789326.3475437,65.4296875,-59.08203125,-22.4609375,54.6875,0.0
1740789326.3514495,62.5,-55.6640625,-22.94921875,55.6640625,0.0
1740789326.3553555,65.91796875,-59.5703125,-16.6015625,59.08203125,0.0
1740789326.3592613,68.359375,-57.12890625,-11.23046875,69.82421875,0.0
1740789326.363167,62.01171875,-41.9921875,-11.23046875,65.4296875,0.0
1740789326.367073,57.12890625,-48.33984375,-16.11328125,58.59375,0.0
1740789326.3709788,61.5234375,-52.734375,-16.6015625,64.453125,0.0
1740789326.3748846,62.98828125,-50.78125,-20.01953125,62.5,0.0
1740789326.3787904,60.546875,-53.7109375,-23.4375,62.98828125,0.0
1740789326.3827,61.03515625,-59.08203125,-20.01953125,63.4765625,0.0
1740789326.386606,64.94140625,-54.19921875,-19.53125,57.12890625,0.0
1740789326.3905118,66.89453125,-52.24609375,-17.578125,52.24609375,0.0
1740789326.3944175,62.5,-49.31640625,-19.53125,53.22265625,0.0
1740789326.3983235,53.22265625,-46.38671875,-19.53125,57.12890625,0.0
1740789326.4022293,56.15234375,-58.59375,-17.08984375,52.734375,0.0
1740789326.406135,58.59375,-59.5703125,-20.99609375,44.921875,0.0
1740789326.4100409,54.19921875,-48.33984375,-18.06640625,43.45703125,0.0
1740789326.4139469,51.26953125,-47.8515625,-18.06640625,43.9453125,0.0
1740789326.4178526,41.9921875,-48.828125,-27.34375,45.8984375,0.0
1740789326.4217584,42.48046875,-40.0390625,-27.34375,43.9453125,0.0
1740789326.4256644,49.8046875,-41.9921875,-19.04296875,39.0625,0.0
1740789326.4295738,0.0,-45.41015625,-20.01953125,35.15625,0.0
1740789326.4334795,0.0,-39.0625,-22.4609375,34.1796875,0.0
1740789326.4373856,0.0,-36.1328125,-22.4609375,32.2265625,0.0
1740789326.4412913,0.0,-34.66796875,-24.4140625,27.34375,0.0
1740789326.445197,0.0,-38.0859375,-23.92578125,20.01953125,0.0
1740789326.4491029,0.0,-40.52734375,-24.4140625,20.01953125,0.0
1740789326.453009,0.0,-36.62109375,-25.390625,21.484375,0.0
1740789326.4569147,0.0,-33.203125,-22.94921875,23.92578125,0.0
1740789326.4608204,0.0,-45.41015625,-23.4375,28.80859375,0.0
1740789326.4647264,0.0,-48.828125,-22.4609375,28.3203125,0.0
1740789326.4686322,0.0,-34.66796875,-23.92578125,20.01953125,0.0
1740789326.472538,0.0,-34.66796875,-29.296875,21.97265625,0.0
1740789326.4764469,22.94921875,-40.0390625,-24.90234375,25.87890625,0.0
1740789326.4803526,27.83203125,-36.1328125,-22.4609375,22.94921875,0.0
1740789326.4842587,22.94921875,-35.15625,-23.4375,20.5078125,0.0
1740789326.4881644,12.6953125,-37.59765625,-28.3203125,16.11328125,0.0
1740789326.4920702,7.8125,-35.64453125,-33.203125,9.27734375,0.0
1740789326.4959762,1.953125,-44.921875,-34.66796875,-3.90625,0.0
1740789326.499882,-0.48828125,-46.38671875,-34.66796875,-12.20703125,0.0
1740789326.5037878,4.39453125,-41.9921875,-37.109375,-10.7421875,0.0
1740789326.5076935,-0.9765625,-43.45703125,-38.57421875,-9.765625,0.0
1740789326.5115995,1.953125,-39.55078125,-36.1328125,-13.671875,0.0
1740789326.5155053,9.765625,-31.25,-35.64453125,-11.23046875,0.0
1740789326.519411,8.30078125,-33.69140625,-36.62109375,-3.90625,0.0
1740789326.5233197,8.30078125,-32.71484375,-31.25,-1.46484375,0.0
1740789326.5272257,8.30078125,-25.390625,-28.3203125,-2.9296875,0.0
1740789326.5311315,4.39453125,-26.85546875,-31.73828125,-4.39453125,0.0
1740789326.5350373,1.46484375,-32.2265625,-34.66796875,-5.37109375,0.0
1740789326.5389433,5.37109375,-31.25,-39.0625,-3.41796875,0.0
1740789326.542849,5.859375,-29.296875,-34.66796875,-3.41796875,0.0
1740789326.5467548,-7.8125,-32.71484375,-33.69140625,-9.765625,0.0
1740789326.5506606,-9.27734375,-38.0859375,-41.015625,-10.25390625,0.0
1740789326.5545666,-5.37109375,-33.203125,-37.59765625,-5.859375,0.0
1740789326.5584724,-8.7890625,-23.4375,-34.66796875,-5.37109375,0.0
1740789326.5623782,-8.30078125,-31.25,-35.64453125,-4.8828125,0.0
1740789326.5662842,-9.765625,-31.25,-33.203125,-11.23046875,0.0
1740789326.5701923,-17.08984375,-30.2734375,-36.62109375,-19.53125,0.0
1740789326.574098,-20.99609375,-27.83203125,-41.50390625,-22.94921875,0.0
1740789326.578004,-17.08984375,-32.2265625,-37.109375,-27.34375,0.0
1740789326.58191,-20.01953125,-33.203125,-38.0859375,-26.85546875,0.0
1740789326.5858157,-27.34375,-30.76171875,-41.50390625,-29.78515625,0.0
1740789326.5897214,-29.296875,-36.62109375,-40.0390625,-34.1796875,0.0
1740789326.5936272,-32.2265625,-36.1328125,-37.59765625,-35.15625,0.0
1740789326.5975332,-25.390625,-43.9453125,-37.109375,-32.71484375,0.0
1740789326.601439,-18.5546875,-42.96875,-36.1328125,-28.80859375,0.0
1740789326.6053448,-18.5546875,-33.69140625,-36.62109375,-30.76171875,0.0
1740789326.6092508,-21.484375,-37.59765625,-39.55078125,-32.71484375,0.0
1740789326.6131566,-22.4609375,-39.55078125,-35.15625,-25.87890625,0.0
1740789326.6170645,0.0,-33.203125,-33.203125,-16.11328125,0.0
1740789326.6209702,0.0,-26.3671875,-32.2265625,-16.11328125,0.0
1740789326.6248763,0.0,-27.83203125,-30.76171875,-16.6015625,0.0
1740789326.628782,0.0,-25.390625,-33.69140625,-13.18359375,0.0
1740789326.6326878,0.0,-30.2734375,-36.62109375,-18.06640625,0.0
1740789326.6365938,0.0,-35.64453125,-38.57421875,-19.04296875,0.0
1740789326.6404996,0.0,-35.15625,-41.015625,-20.01953125,0.0
1740789326.6444054,0.0,-35.64453125,-42.96875,-22.94921875,0.0
1740789326.6483111,0.0,-25.390625,-41.015625,-19.53125,0.0
1740789326.6522171,0.0,-23.92578125,-42.96875,-19.53125,0.0
1740789326.656123,0.0,-27.34375,-46.38671875,-21.484375,0.0
1740789326.6600287,0.0,-31.25,-39.0625,-25.87890625,0.0
1740789326.6639361,-22.94921875,-29.296875,-29.78515625,-20.5078125,0.0
1740789326.667842,-19.53125,-25.87890625,-33.203125,-10.7421875,0.0
1740789326.6717477,-21.97265625,-33.203125,-39.0625,-18.06640625,0.0
1740789326.6756535,-20.5078125,-32.2265625,-40.52734375,-20.99609375,0.0
1740789326.6795595,-16.6015625,-27.34375,-40.52734375,-20.99609375,0.0
1740789326.6834652,-12.6953125,-33.203125,-41.015625,-18.5546875,0.0
1740789326.687371,-13.671875,-35.15625,-38.0859375,-16.11328125,0.0
1740789326.691277,-11.71875,-25.390625,-34.66796875,-20.01953125,0.0
1740789326.6951828,-12.6953125,-19.04296875,-34.66796875,-17.578125,0.0
1740789326.6990886,-16.11328125,-24.90234375,-38.57421875,-19.53125,0.0
1740789326.7029946,-12.6953125,-28.3203125,-41.9921875,-17.578125,0.0
1740789326.7069004,-14.16015625,-29.296875,-41.015625,-17.578125,0.0
1740789326.7108102,-20.5078125,-30.2734375,-41.9921875,-23.92578125,0.0
1740789326.714716,-15.625,-33.203125,-45.41015625,-26.3671875,0.0
1740789326.718622,-16.11328125,-30.2734375,-45.41015625,-22.4609375,0.0
1740789326.7225277,-21.484375,-26.85546875,-43.9453125,-21.97265625,0.0
1740789326.7264335,-17.578125,-25.87890625,-39.55078125,-14.6484375,0.0
1740789326.7303395,-21.97265625,-34.66796875,-41.015625,-18.06640625,0.0
1740789326.7342453,-26.3671875,-30.76171875,-42.48046875,-21.97265625,0.0
1740789326.738151,-24.4140625,-19.04296875,-43.9453125,-22.4609375,0.0
1740789326.742057,-27.83203125,-33.203125,-50.78125,-29.296875,0.0
1740789326.7459629,-30.76171875,-41.50390625,-52.24609375,-28.3203125,0.0
1740789326.7498686,-35.15625,-40.0390625,-49.31640625,-31.25,0.0
1740789326.7537744,-35.64453125,-39.55078125,-42.48046875,-33.69140625,0.0
1740789326.757684,-33.203125,-41.50390625,-43.9453125,-28.80859375,0.0
1740789326.7615898,-30.76171875,-38.0859375,-42.96875,-20.5078125,0.0
1740789326.7654958,-33.69140625,-32.71484375,-42.48046875,-25.390625,0.0
1740789326.7694016,-32.71484375,-31.73828125,-41.50390625,-28.80859375,0.0
1740789326.7733073,-34.66796875,-37.109375,-44.43359375,-25.87890625,0.0
1740789326.777213,-35.64453125,-39.55078125,-47.8515625,-27.83203125,0.0
1740789326.781119,-29.296875,-37.109375,-44.921875,-29.296875,0.0
1740789326.785025,-30.2734375,-31.25,-40.0390625,-28.80859375,0.0
1740789326.7889307,-31.73828125,-32.2265625,-34.1796875,-26.85546875,0.0
1740789326.7928367,-34.1796875,-37.59765625,-33.69140625,-31.25,0.0
1740789326.7967424,-25.87890625,-25.87890625,-37.59765625,-34.66796875,0.0
1740789326.8006482,-18.06640625,-21.97265625,-34.66796875,-22.4609375,0.0
1740789326.8045573,0.0,-29.296875,-36.62109375,-19.04296875,0.0
1740789326.808463,0.0,-31.73828125,-41.015625,-19.53125,0.0
1740789326.812369,0.0,-30.76171875,-38.57421875,-18.5546875,0.0
1740789326.816275,0.0,-36.62109375,-37.109375,-29.78515625,0.0
1740789326.8201807,0.0,-41.50390625,-37.109375,-31.25,0.0
1740789326.8240867,0.0,-40.0390625,-46.875,-35.15625,0.0
1740789326.8279924,0.0,-38.57421875,-49.8046875,-38.57421875,0.0
1740789326.8318982,0.0,-38.0859375,-41.50390625,-31.25,0.0
1740789326.8358042,0.0,-39.55078125,-38.0859375,-21.484375,0.0
1740789326.83971,0.0,-35.64453125,-40.52734375,-20.5078125,0.0
1740789326.8436158,0.0,-27.83203125,-38.57421875,-24.90234375,0.0
1740789326.8475215,0.0,-43.9453125,-44.921875,-22.94921875,0.0
1740789326.8514304,-42.48046875,-56.15234375,-51.7578125,-22.4609375,0.0
1740789326.8553362,-34.66796875,-52.24609375,-48.33984375,-23.4375,0.0
1740789326.859242,-29.78515625,-47.36328125,-42.48046875,-19.04296875,0.0
1740789326.863148,-36.1328125,-48.828125,-42.48046875,-22.94921875,0.0
1740789326.8670537,-35.15625,-47.36328125,-43.45703125,-23.4375,0.0
1740789326.8709595,-26.85546875,-48.33984375,-41.9921875,-17.578125,0.0
1740789326.8748655,-27.83203125,-40.0390625,-40.0390625,-19.53125,0.0
1740789326.8787713,-27.34375,-36.62109375,-40.0390625,-27.34375,0.0
1740789326.882677,-29.296875,-52.734375,-44.921875,-27.34375,0.0
1740789326.886583,-30.76171875,-45.41015625,-45.41015625,-28.3203125,0.0
1740789326.8904889,-29.78515625,-35.64453125,-46.875,-33.203125,0.0
1740789326.8943946,-35.64453125,-42.48046875,-48.33984375,-32.71484375,0.0
1740789326.898303,-29.78515625,-42.96875,-43.45703125,-30.76171875,0.0
1740789326.902209,-21.484375,-31.73828125,-41.50390625,-23.92578125,0.0
1740789326.9061148,-21.97265625,-32.71484375,-44.921875,-22.4609375,0.0
1740789326.9100206,-21.97265625,-35.64453125,-45.41015625,-20.01953125,0.0
1740789326.9139266,-21.97265625,-35.64453125,-39.55078125,-14.6484375,0.0
1740789326.9178324,-25.390625,-40.0390625,-39.0625,-16.6015625,0.0
1740789326.9217381,-25.87890625,-38.0859375,-38.0859375,-19.04296875,0.0
1740789326.925644,-22.94921875,-42.96875,-35.15625,-16.6015625,0.0
1740789326.92955,-22.94921875,-41.9921875,-33.69140625,-13.671875,0.0
1740789326.9334557,-22.94921875,-30.2734375,-37.109375,-16.11328125,0.0
1740789326.9373615,-19.53125,-26.3671875,-39.55078125,-13.671875,0.0
1740789326.9412675,-13.671875,-28.3203125,-41.015625,-18.06640625,0.0
1740789326.9451756,0.0,-34.1796875,-41.50390625,-24.4140625,0.0
1740789326.9490817,0.0,-33.69140625,-40.52734375,-22.94921875,0.0
1740789326.9529874,0.0,-31.25,-37.59765625,-23.92578125,0.0
1740789326.9568932,0.0,-32.2265625,-40.52734375,-27.83203125,0.0
1740789326.960799,0.0,-31.25,-47.8515625,-29.78515625,0.0
1740789326.964705,0.0,-29.296875,-48.33984375,-32.2265625,0.0
1740789326.9686108,0.0,-34.1796875,-45.8984375,-34.66796875,0.0
1740789326.9725165,0.0,-40.0390625,-46.875,-30.2734375,0.0
1740789326.9764225,0.0,-27.83203125,-44.921875,-32.71484375,0.0
1740789326.9803283,0.0,-18.5546875,-36.62109375,-39.0625,0.0
1740789326.984234,0.0,-25.390625,-36.62109375,-38.0859375,0.0
1740789326.98814,0.0,-28.80859375,-37.109375,-33.203125,0.0
1740789326.99204,-12.20703125,-30.2734375,-31.73828125,-22.94921875,0.0
1740789326.9959457,-16.6015625,-33.203125,-38.0859375,-21.484375,0.0
1740789326.9998517,-9.765625,-30.76171875,-43.45703125,-21.484375,0.0
1740789327.0037575,-9.27734375,-34.66796875,-41.9921875,-22.94921875,0.0
1740789327.0076632,-14.6484375,-35.64453125,-40.0390625,-30.2734375,0.0
1740789327.0115693,-17.578125,-33.203125,-44.921875,-31.73828125,0.0
1740789327.015475,-20.99609375,-37.109375,-42.96875,-20.99609375,0.0
1740789327.0193808,-22.4609375,-34.66796875,-41.9921875,-20.01953125,0.0
1740789327.0232868,-25.390625,-26.3671875,-47.36328125,-28.80859375,0.0
1740789327.0271926,-22.4609375,-29.296875,-46.38671875,-26.3671875,0.0
1740789327.0310984,-24.90234375,-36.1328125,-44.921875,-30.76171875,0.0
1740789327.0350041,-27.34375,-34.66796875,-41.9921875,-34.66796875,0.0
1740789327.0389116,-37.109375,-31.25,-43.45703125,-32.71484375,0.0
1740789327.0428174,-36.1328125,-27.34375,-41.50390625,-31.73828125,0.0
1740789327.0467231,-38.0859375,-34.1796875,-37.109375,-35.15625,0.0
1740789327.0506291,-35.64453125,-33.69140625,-40.0390625,-33.203125,0.0
1740789327.054535,-38.0859375,-33.69140625,-44.43359375,-28.80859375,0.0
1740789327.0584407,-37.59765625,-34.1796875,-44.921875,-31.73828125,0.0
1740789327.0623465,-32.2265625,-35.15625,-47.36328125,-38.0859375,0.0
1740789327.0662525,-33.203125,-37.109375,-49.8046875,-37.59765625,0.0
1740789327.0701582,-34.1796875,-29.296875,-49.31640625,-43.9453125,0.0
1740789327.074064,-36.1328125,-36.1328125,-46.38671875,-50.29296875,0.0
1740789327.07797,-32.71484375,-41.9921875,-40.52734375,-38.57421875,0.0
1740789327.0818758,-40.0390625,-37.109375,-42.96875,-39.0625,0.0
1740789327.0857828,-47.36328125,-39.0625,-44.921875,-43.45703125,0.0
1740789327.0896888,-49.31640625,-45.41015625,-45.41015625,-44.43359375,0.0
1740789327.0935946,-48.33984375,-45.41015625,-49.8046875,-48.33984375,0.0
1740789327.0975003,-38.57421875,-36.1328125,-45.41015625,-49.8046875,0.0
1740789327.1014063,-34.1796875,-31.73828125,-32.2265625,-45.41015625,0.0
1740789327.105312,-31.73828125,-40.52734375,-33.69140625,-41.9921875,0.0
1740789327.109218,-33.69140625,-36.1328125,-44.43359375,-46.38671875,0.0
1740789327.1131237,-36.62109375,-26.3671875,-48.828125,-52.24609375,0.0
1740789327.1170297,-33.203125,-31.25,-46.38671875,-51.7578125,0.0
1740789327.1209354,-34.1796875,-30.2734375,-42.96875,-42.48046875,0.0
1740789327.1248412,-28.80859375,-25.87890625,-41.015625,-41.015625,0.0
1740789327.1287472,-27.34375,-27.34375,-38.0859375,-48.33984375,0.0
1740789327.1326597,-26.85546875,-26.85546875,-36.1328125,-49.31640625,0.0
1740789327.1365654,-29.78515625,-21.484375,-45.8984375,-53.22265625,0.0
1740789327.1404715,-34.66796875,-21.97265625,-51.7578125,-54.6875,0.0
1740789327.1443772,-33.69140625,-22.4609375,-46.875,-58.10546875,0.0
1740789327.148283,-34.66796875,-23.92578125,-48.828125,-55.17578125,0.0
1740789327.1521888,-34.66796875,-28.80859375,-46.38671875,-48.33984375,0.0
1740789327.1560948,-27.83203125,-28.3203125,-40.0390625,-45.8984375,0.0
1740789327.1600006,-26.3671875,-24.90234375,-34.1796875,-40.52734375,0.0
1740789327.1639063,-36.1328125,-33.69140625,-37.109375,-43.45703125,0.0
1740789327.1678123,-37.59765625,-39.55078125,-42.96875,-41.9921875,0.0
1740789327.1717181,-21.484375,-33.203125,-44.921875,-41.015625,0.0
1740789327.175624,-23.4375,-31.25,-45.41015625,-42.96875,0.0
1740789327.1795332,-35.15625,-32.2265625,-41.015625,-43.9453125,0.0
1740789327.1834393,-28.80859375,-25.87890625,-40.0390625,-40.0390625,0.0
1740789327.187345,-23.92578125,-22.4609375,-41.015625,-39.0625,0.0
1740789327.1912508,-28.3203125,-27.34375,-35.15625,-38.57421875,0.0
1740789327.1951566,-28.80859375,-30.2734375,-42.48046875,-36.62109375,0.0
1740789327.1990626,-22.94921875,-31.25,-45.41015625,-35.15625,0.0
1740789327.2029684,-20.99609375,-28.3203125,-37.109375,-32.2265625,0.0
1740789327.2068741,-20.99609375,-19.04296875,-32.71484375,-32.71484375,0.0
1740789327.2107801,-18.06640625,-20.99609375,-29.296875,-33.69140625,0.0
1740789327.214686,-22.4609375,-28.3203125,-31.25,-39.0625,0.0
1740789327.2185917,-33.69140625,-28.80859375,-36.1328125,-38.57421875,0.0
1740789327.2224977,-36.62109375,-26.85546875,-38.0859375,-34.66796875,0.0
1740789327.2264063,-28.3203125,-34.66796875,-33.203125,-33.69140625,0.0
1740789327.230312,-25.390625,-31.25,-36.1328125,-32.2265625,0.0
1740789327.2342181,-28.3203125,-20.99609375,-36.62109375,-34.1796875,0.0
1740789327.238124,-35.64453125,-31.73828125,-29.78515625,-36.1328125,0.0
1740789327.2420297,-33.203125,-28.80859375,-33.203125,-36.62109375,0.0
1740789327.2459357,-31.73828125,-25.390625,-38.0859375,-40.0390625,0.0
1740789327.2498415,-31.73828125,-31.25,-37.59765625,-40.52734375,0.0
1740789327.2537472,-29.78515625,-29.296875,-37.109375,-35.64453125,0.0
1740789327.257653,-31.73828125,-38.57421875,-38.57421875,-31.73828125,0.0
1740789327.261559,-32.71484375,-36.1328125,-41.9921875,-40.52734375,0.0
1740789327.2654648,-29.78515625,-27.34375,-41.50390625,-43.9453125,0.0
1740789327.2693706,-32.2265625,-30.2734375,-40.0390625,-34.1796875,0.0
1740789327.273279,-37.59765625,-32.71484375,-44.43359375,-36.1328125,0.0
1740789327.2771847,-28.80859375,-30.2734375,-46.38671875,-44.921875,0.0
1740789327.2810907,-15.13671875,-21.484375,-41.50390625,-39.55078125,0.0
1740789327.2849965,-20.99609375,-27.83203125,-38.0859375,-32.2265625,0.0
1740789327.2889023,-24.90234375,-36.62109375,-42.48046875,-32.71484375,0.0
1740789327.2928083,-22.94921875,-37.109375,-43.9453125,-31.73828125,0.0
1740789327.296714,-24.90234375,-36.1328125,-42.96875,-31.73828125,0.0
1740789327.3006198,-28.3203125,-41.015625,-53.7109375,-34.66796875,0.0
1740789327.3045259,-34.1796875,-42.48046875,-51.26953125,-32.71484375,0.0
1740789327.3084316,-31.25,-27.83203125,-42.96875,-36.62109375,0.0
1740789327.3123374,-35.15625,-29.78515625,-47.8515625,-38.0859375,0.0
1740789327.3162432,-33.69140625,-41.50390625,-49.8046875,-37.109375,0.0
1740789327.3201513,-29.296875,-40.0390625,-46.875,-35.64453125,0.0
1740789327.324057,-33.203125,-30.76171875,-41.50390625,-31.25,0.0
1740789327.327963,-24.90234375,-30.76171875,-42.96875,-28.80859375,0.0
1740789327.331869,-20.99609375,-33.69140625,-44.43359375,-27.83203125,0.0
1740789327.3357747,-28.3203125,-28.3203125,-41.50390625,-26.85546875,0.0
1740789327.3396804,-35.15625,-34.66796875,-44.921875,-29.296875,0.0
1740789327.3435864,-33.69140625,-36.62109375,-37.109375,-26.85546875,0.0
1740789327.3474922,-30.2734375,-35.64453125,-33.203125,-22.94921875,0.0
1740789327.351398,-34.1796875,-34.66796875,-40.52734375,-30.76171875,0.0
1740789327.355304,-35.15625,-25.87890625,-40.0390625,-28.3203125,0.0
1740789327.3592098,-30.2734375,-31.73828125,-38.57421875,-19.04296875,0.0
1740789327.3631155,-30.2734375,-38.57421875,-37.59765625,-23.4375,0.0
1740789327.3670235,-30.76171875,-29.296875,-41.015625,-22.4609375,0.0
1740789327.3709292,-23.92578125,-23.4375,-41.9921875,-21.97265625,0.0
1740789327.374835,-23.4375,-26.85546875,-38.0859375,-22.4609375,0.0
1740789327.378741,-28.80859375,-30.76171875,-33.69140625,-23.92578125,0.0
1740789327.3826468,-28.80859375,-34.66796875,-34.66796875,-28.80859375,0.0
1740789327.3865526,-31.25,-36.62109375,-39.55078125,-31.73828125,0.0
1740789327.3904586,-28.3203125,-29.296875,-35.64453125,-29.78515625,0.0
1740789327.3943644,-25.87890625,-23.92578125,-34.66796875,-28.80859375,0.0
1740789327.3982701,-28.3203125,-20.99609375,-41.50390625,-31.73828125,0.0
1740789327.402176,-28.3203125,-22.94921875,-41.015625,-31.25,0.0
1740789327.406082,-28.3203125,-27.34375,-37.109375,-28.3203125,0.0
1740789327.4099877,-33.69140625,-27.83203125,-36.1328125,-22.94921875,0.0
1740789327.413895,-34.1796875,-22.4609375,-36.62109375,-20.01953125,0.0
1740789327.417801,-36.1328125,-28.3203125,-41.015625,-23.4375,0.0
1740789327.4217067,-39.0625,-29.78515625,-38.57421875,-21.484375,0.0
1740789327.4256124,-34.1796875,-20.5078125,-36.1328125,-22.94921875,0.0
1740789327.4295182,-28.3203125,-21.97265625,-40.0390625,-24.4140625,0.0
1740789327.4334242,-16.6015625,-26.3671875,-39.55078125,-15.13671875,0.0
1740789327.43733,-17.578125,-37.59765625,-35.64453125,-15.13671875,0.0
1740789327.4412358,-23.92578125,-33.69140625,-33.69140625,-21.484375,0.0
1740789327.4451418,-21.484375,-20.01953125,-39.0625,-22.4609375,0.0
1740789327.4490476,-19.04296875,-25.87890625,-41.015625,-19.53125,0.0
1740789327.4529533,-17.578125,-31.73828125,-42.96875,-21.484375,0.0
1740789327.4568594,-19.04296875,-29.78515625,-48.828125,-24.4140625,0.0
1740789327.4607692,-24.4140625,-33.69140625,-42.96875,-25.87890625,0.0
1740789327.464675,-22.94921875,-43.9453125,-37.109375,-23.4375,0.0
1740789327.4685807,-19.04296875,-41.015625,-41.9921875,-21.484375,0.0
1740789327.4724867,-26.85546875,-32.2265625,-49.8046875,-32.2265625,0.0
1740789327.4763925,-25.390625,-30.76171875,-47.36328125,-32.71484375,0.0
1740789327.4802983,-19.04296875,-39.0625,-45.8984375,-24.4140625,0.0
1740789327.4842043,-27.83203125,-39.55078125,-47.36328125,-23.92578125,0.0
1740789327.48811,-25.87890625,-32.2265625,-48.828125,-30.2734375,0.0
1740789327.4920158,-24.90234375,-35.64453125,-51.26953125,-26.85546875,0.0
1740789327.4959216,-28.80859375,-42.48046875,-51.7578125,-23.92578125,0.0
1740789327.4998276,-25.390625,-38.0859375,-52.24609375,-22.94921875,0.0
1740789327.5037334,-23.4375,-30.2734375,-44.43359375,-21.97265625,0.0
1740789327.507643,-28.80859375,-34.1796875,-37.59765625,-20.99609375,0.0
1740789327.5115488,-34.66796875,-25.87890625,-40.52734375,-20.99609375,0.0
1740789327.5154548,-31.25,-21.97265625,-42.48046875,-18.5546875,0.0
1740789327.5193605,-26.85546875,-34.1796875,-42.96875,-19.04296875,0.0
1740789327.5232663,-25.390625,-37.109375,-44.921875,-20.01953125,0.0
1740789327.5271723,-27.83203125,-35.64453125,-39.0625,-16.6015625,0.0
1740789327.531078,-25.87890625,-33.203125,-40.52734375,-13.18359375,0.0
1740789327.5349839,-18.5546875,-25.390625,-41.9921875,-12.20703125,0.0
1740789327.53889,-14.16015625,-27.83203125,-40.52734375,-17.08984375,0.0
1740789327.5427957,-15.13671875,-39.0625,-43.9453125,-17.578125,0.0
1740789327.5467014,-16.6015625,-32.71484375,-37.109375,-15.13671875,0.0
1740789327.5506072,-23.4375,-31.73828125,-34.1796875,-20.5078125,0.0
1740789327.5545166,-25.87890625,-41.015625,-39.0625,-25.87890625,0.0
1740789327.5584226,-21.97265625,-34.66796875,-41.50390625,-28.80859375,0.0
1740789327.5623283,-20.99609375,-31.73828125,-35.15625,-24.90234375,0.0
1740789327.566234,-19.53125,-30.2734375,-32.2265625,-17.578125,0.0
1740789327.5701401,-25.87890625,-29.78515625,-38.57421875,-20.5078125,0.0
1740789327.574046,-24.90234375,-31.73828125,-41.50390625,-23.4375,0.0
1740789327.5779517,-25.87890625,-24.4140625,-41.015625,-22.94921875,0.0
1740789327.5818577,-31.73828125,-30.2734375,-40.0390625,-18.5546875,0.0
1740789327.5857635,-24.90234375,-43.9453125,-33.69140625,-13.18359375,0.0
1740789327.5896692,-27.83203125,-42.96875,-33.69140625,-19.53125,0.0
1740789327.593575,-33.69140625,-33.69140625,-36.62109375,-28.3203125,0.0
1740789327.597481,-31.73828125,-34.1796875,-39.0625,-31.73828125,0.0
1740789327.6013896,-35.64453125,-31.25,-44.921875,-30.2734375,0.0
1740789327.6052954,-40.0390625,-30.76171875,-44.921875,-32.2265625,0.0
1740789327.6092014,-38.0859375,-31.25,-42.48046875,-32.71484375,0.0
1740789327.6131072,-32.71484375,-28.80859375,-45.41015625,-23.92578125,0.0
1740789327.617013,-31.25,-30.2734375,-43.9453125,-23.4375,0.0
1740789327.620919,-29.296875,-34.1796875,-41.9921875,-25.390625,0.0
1740789327.6248248,-20.99609375,-30.76171875,-41.015625,-24.90234375,0.0
1740789327.6287305,-25.390625,-32.71484375,-36.62109375,-30.76171875,0.0
1740789327.6326363,-32.71484375,-45.8984375,-38.0859375,-34.1796875,0.0
1740789327.6365423,-34.1796875,-33.69140625,-43.9453125,-34.1796875,0.0
1740789327.640448,-32.2265625,-30.76171875,-47.36328125,-32.71484375,0.0
1740789327.6443539,-23.92578125,-45.8984375,-45.8984375,-29.78515625,0.0
1740789327.6482623,-27.34375,-40.0390625,-41.015625,-31.73828125,0.0
1740789327.652168,-35.64453125,-30.76171875,-45.8984375,-29.78515625,0.0
1740789327.656074,-39.0625,-38.0859375,-48.33984375,-27.34375,0.0
1740789327.6599798,-27.83203125,-42.96875,-41.9921875,-29.296875,0.0
1740789327.6638856,-24.90234375,-40.0390625,-44.43359375,-32.2265625,0.0
1740789327.6677916,-31.25,-36.62109375,-45.8984375,-32.2265625,0.0
1740789327.6716974,-32.2265625,-30.76171875,-47.8515625,-32.71484375,0.0
1740789327.6756032,-29.78515625,-34.1796875,-46.38671875,-32.71484375,0.0
1740789327.6795092,-28.3203125,-41.50390625,-36.62109375,-32.71484375,0.0
1740789327.683415,-31.25,-32.71484375,-40.52734375,-31.73828125,0.0
1740789327.6873207,-22.94921875,-27.34375,-41.9921875,-20.99609375,0.0
1740789327.6912265,-20.5078125,-35.15625,-34.1796875,-20.01953125,0.0
1740789327.6951349,-31.73828125,-40.52734375,-37.59765625,-20.99609375,0.0
1740789327.6990407,-24.90234375,-34.66796875,-40.0390625,-16.6015625,0.0
1740789327.7029464,-20.5078125,-29.296875,-39.0625,-18.06640625,0.0
1740789327.7068522,-23.92578125,-27.83203125,-41.9921875,-16.11328125,0.0
1740789327.7107582,-18.5546875,-31.73828125,-40.0390625,-18.06640625,0.0
1740789327.714664,-20.5078125,-34.66796875,-38.0859375,-22.4609375,0.0
