timestamps,TP9,AF7,AF8,TP10,Right AUX
1740373970.3137248,-24.90234375,-24.90234375,-48.33984375,-37.59765625,0.0
1740373970.3176303,-13.18359375,-20.5078125,-45.8984375,-51.26953125,0.0
1740373970.3215358,-19.53125,-28.80859375,-45.41015625,-51.26953125,0.0
1740373970.3254414,-35.15625,-28.80859375,-54.19921875,-41.9921875,0.0
1740373970.329347,-25.87890625,-30.2734375,-55.6640625,-43.45703125,0.0
1740373970.3332524,-12.20703125,-38.0859375,-52.734375,-49.31640625,0.0
1740373970.337158,-14.16015625,-33.203125,-47.8515625,-56.640625,0.0
1740373970.3410635,-38.57421875,-29.78515625,-48.33984375,-45.41015625,0.0
1740373970.344969,-47.8515625,-41.015625,-42.48046875,-26.85546875,0.0
1740373970.3488746,-27.83203125,-34.1796875,-34.66796875,-38.57421875,0.0
1740373970.35278,-21.97265625,-29.78515625,-32.71484375,-52.24609375,0.0
1740373970.3566856,-41.50390625,-35.64453125,-31.73828125,-32.71484375,0.0
1740373970.3605957,-56.15234375,-28.3203125,-27.34375,-29.78515625,0.0
1740373970.3645012,-40.52734375,-25.87890625,-35.15625,-40.52734375,0.0
1740373970.3684068,-30.2734375,-31.73828125,-41.50390625,-36.62109375,0.0
1740373970.3723123,-36.1328125,-31.73828125,-39.55078125,-30.76171875,0.0
1740373970.3762178,-35.15625,-30.76171875,-42.48046875,-34.1796875,0.0
1740373970.3801234,-34.1796875,-31.73828125,-41.50390625,-24.90234375,0.0
1740373970.384029,-31.25,-31.73828125,-35.64453125,-20.5078125,0.0
1740373970.3879344,-32.71484375,-32.2265625,-30.76171875,-16.11328125,0.0
1740373970.39184,-45.8984375,-30.2734375,-34.66796875,-16.6015625,0.0
1740373970.3957455,-52.734375,-25.390625,-32.2265625,-29.296875,0.0
1740373970.399651,-28.3203125,-30.2734375,-30.76171875,-20.01953125,0.0
1740373970.4035566,-28.80859375,-38.57421875,-33.203125,-11.71875,0.0
1740373970.4074662,-55.17578125,-38.0859375,-27.34375,-20.5078125,0.0
1740373970.4113717,-56.15234375,-39.0625,-35.64453125,-20.99609375,0.0
1740373970.4152772,-37.109375,-37.109375,-40.0390625,-23.4375,0.0
1740373970.4191828,-27.83203125,-37.109375,-41.50390625,-25.87890625,0.0
1740373970.4230883,-33.69140625,-33.203125,-41.015625,-20.5078125,0.0
1740373970.4269938,-39.0625,-33.203125,-23.92578125,-29.296875,0.0
1740373970.4308994,-28.3203125,-40.52734375,-26.3671875,-30.76171875,0.0
1740373970.434805,-14.6484375,-44.921875,-42.48046875,-22.94921875,0.0
1740373970.4387105,-29.78515625,-29.296875,-42.48046875,-30.76171875,0.0
1740373970.442616,-47.36328125,-24.90234375,-33.203125,-42.48046875,0.0
1740373970.4465215,-42.48046875,-34.66796875,-31.25,-47.8515625,0.0
1740373970.450427,-36.1328125,-31.25,-40.52734375,-57.12890625,0.0
1740373970.4543362,-37.109375,-26.3671875,-45.8984375,-56.640625,0.0
1740373970.4582417,-43.9453125,-27.34375,-39.55078125,-41.015625,0.0
1740373970.4621472,-39.55078125,-32.71484375,-33.203125,-39.55078125,0.0
1740373970.4660528,-24.4140625,-32.71484375,-29.78515625,-36.62109375,0.0
1740373970.4699583,-22.94921875,-30.76171875,-31.25,-46.875,0.0
1740373970.4738638,-43.45703125,-33.203125,-37.109375,-48.33984375,0.0
1740373970.4777694,-46.38671875,-36.62109375,-35.15625,-34.66796875,0.0
1740373970.481675,-37.109375,-36.62109375,-43.45703125,-42.48046875,0.0
1740373970.4855804,-34.1796875,-32.2265625,-48.33984375,-50.78125,0.0
1740373970.489486,-46.38671875,-32.71484375,-45.8984375,-56.640625,0.0
1740373970.4933915,-56.640625,-38.0859375,-42.48046875,-58.59375,0.0
1740373970.497297,-46.38671875,-33.203125,-40.0390625,-55.6640625,0.0
1740373970.5012097,-33.69140625,-33.69140625,-38.0859375,-50.78125,0.0
1740373970.5051153,-41.015625,-41.9921875,-30.2734375,-38.0859375,0.0
1740373970.5090208,-60.05859375,-43.9453125,-33.69140625,-37.59765625,0.0
1740373970.5129263,-47.36328125,-39.55078125,-39.0625,-36.62109375,0.0
1740373970.5168319,-28.80859375,-37.109375,-31.73828125,-24.4140625,0.0
1740373970.5207374,-37.109375,-39.0625,-28.80859375,-18.06640625,0.0
1740373970.524643,-62.5,-44.921875,-29.296875,-16.6015625,0.0
1740373970.5285485,-63.4765625,-44.43359375,-31.25,-22.4609375,0.0
1740373970.532454,-45.8984375,-39.55078125,-32.71484375,-21.484375,0.0
1740373970.5363595,-42.96875,-39.0625,-37.59765625,-27.83203125,0.0
1740373970.540265,-51.26953125,-38.57421875,-38.57421875,-39.55078125,0.0
1740373970.5441706,-58.59375,-33.203125,-37.109375,-29.78515625,0.0
1740373970.5480828,-54.6875,-34.1796875,-36.62109375,-32.71484375,0.0
1740373970.5519884,-45.41015625,-36.1328125,-38.57421875,-41.50390625,0.0
1740373970.555894,-47.8515625,-29.296875,-48.33984375,-37.109375,0.0
1740373970.5597994,-53.7109375,-27.83203125,-46.38671875,-32.71484375,0.0
1740373970.563705,-41.015625,-24.90234375,-37.59765625,-37.59765625,0.0
1740373970.5676105,-13.18359375,-29.78515625,-38.0859375,-48.828125,0.0
1740373970.571516,-17.08984375,-31.25,-42.96875,-44.43359375,0.0
1740373970.5754216,-47.36328125,-20.01953125,-31.25,-40.52734375,0.0
1740373970.579327,-47.8515625,-19.04296875,-28.3203125,-41.9921875,0.0
1740373970.5832326,-19.04296875,-22.94921875,-31.73828125,-26.3671875,0.0
1740373970.5871382,-19.04296875,-27.34375,-38.57421875,-31.73828125,0.0
1740373970.5910437,-40.52734375,-26.85546875,-46.38671875,-47.36328125,0.0
1740373970.5949557,-29.296875,-19.04296875,-36.62109375,-38.57421875,0.0
1740373970.5988612,-10.7421875,-17.578125,-34.1796875,-33.69140625,0.0
1740373970.6027665,-10.7421875,-21.484375,-32.71484375,-42.96875,0.0
1740373970.606672,-25.87890625,-24.4140625,-39.0625,-47.36328125,0.0
1740373970.6105776,-32.2265625,-22.94921875,-44.43359375,-39.55078125,0.0
1740373970.614483,-15.13671875,-23.4375,-39.0625,-39.0625,0.0
1740373970.6183887,-15.13671875,-26.85546875,-45.8984375,-53.22265625,0.0
1740373970.6222942,-31.73828125,-29.78515625,-52.24609375,-61.5234375,0.0
1740373970.6261997,-32.2265625,-29.296875,-56.640625,-49.31640625,0.0
1740373970.6301053,-29.78515625,-34.66796875,-51.26953125,-43.9453125,0.0
1740373970.6340108,-35.15625,-40.0390625,-52.734375,-56.640625,0.0
1740373970.6379163,-35.64453125,-41.50390625,-50.29296875,-40.52734375,0.0
1740373970.6418276,-40.52734375,-33.69140625,-46.875,-38.57421875,0.0
1740373970.645733,-37.109375,-33.203125,-47.36328125,-40.52734375,0.0
1740373970.6496387,-35.64453125,-40.52734375,-42.48046875,-38.0859375,0.0
1740373970.6535442,-39.0625,-34.66796875,-38.57421875,-41.50390625,0.0
1740373970.6574497,-39.0625,-37.59765625,-31.73828125,-33.203125,0.0
1740373970.6613553,-48.828125,-40.0390625,-30.2734375,-20.99609375,0.0
1740373970.6652608,-44.921875,-40.0390625,-22.94921875,-21.97265625,0.0
1740373970.6691663,-43.45703125,-41.50390625,-21.484375,-27.34375,0.0
1740373970.6730719,-51.26953125,-50.29296875,-26.3671875,-19.04296875,0.0
1740373970.6769774,-44.921875,-45.8984375,-27.34375,-18.5546875,0.0
1740373970.680883,-26.85546875,-28.3203125,-26.85546875,-20.99609375,0.0
1740373970.6847885,-22.94921875,-29.78515625,-29.78515625,-18.5546875,0.0
1740373970.6886992,-28.80859375,-36.62109375,-34.1796875,-28.80859375,0.0
1740373970.6926048,-38.0859375,-28.3203125,-29.78515625,-41.9921875,0.0
1740373970.6965103,-43.9453125,-26.85546875,-35.64453125,-51.26953125,0.0
1740373970.7004158,-44.921875,-35.64453125,-31.25,-39.0625,0.0
1740373970.7043211,-40.0390625,-33.69140625,-36.62109375,-32.2265625,0.0
1740373970.7082267,-48.828125,-36.62109375,-43.45703125,-34.66796875,0.0
1740373970.7121322,-50.78125,-38.0859375,-26.85546875,-36.1328125,0.0
1740373970.7160378,-29.78515625,-35.15625,-22.94921875,-39.0625,0.0
1740373970.7199433,-23.92578125,-41.015625,-26.3671875,-30.2734375,0.0
1740373970.7238488,-36.62109375,-36.62109375,-36.1328125,-36.62109375,0.0
1740373970.7277544,-39.0625,-34.1796875,-37.109375,-30.2734375,0.0
1740373970.73166,-19.53125,-34.1796875,-32.71484375,-31.73828125,0.0
1740373970.7355702,-10.25390625,-31.73828125,-37.109375,-36.62109375,0.0
1740373970.7394757,-22.94921875,-26.85546875,-40.52734375,-26.3671875,0.0
1740373970.7433813,-31.25,-23.92578125,-35.15625,-22.4609375,0.0
1740373970.7472868,-18.06640625,-22.4609375,-32.71484375,-33.69140625,0.0
1740373970.7511923,-4.39453125,-23.4375,-41.9921875,-40.52734375,0.0
1740373970.7550979,-21.484375,-29.78515625,-46.38671875,-44.921875,0.0
1740373970.7590034,-47.8515625,-32.71484375,-46.875,-52.24609375,0.0
1740373970.762909,-36.62109375,-28.3203125,-43.9453125,-41.50390625,0.0
1740373970.7668145,-10.25390625,-26.85546875,-36.62109375,-32.71484375,0.0
1740373970.77072,-12.20703125,-25.87890625,-41.50390625,-43.45703125,0.0
1740373970.7746255,-36.1328125,-30.2734375,-40.52734375,-45.41015625,0.0
1740373970.778531,-41.50390625,-31.25,-41.50390625,-44.43359375,0.0
1740373970.7824407,-28.3203125,-28.80859375,-41.9921875,-36.62109375,0.0
1740373970.7863462,-25.87890625,-29.78515625,-33.203125,-25.390625,0.0
1740373970.7902517,-39.0625,-30.76171875,-29.78515625,-22.94921875,0.0
1740373970.7941573,-39.0625,-27.34375,-38.57421875,-20.01953125,0.0
1740373970.7980628,-17.578125,-19.53125,-34.1796875,-11.71875,0.0
1740373970.8019683,-11.23046875,-25.390625,-26.85546875,-14.6484375,0.0
1740373970.8058739,-26.85546875,-34.1796875,-25.390625,-18.5546875,0.0
1740373970.8097794,-36.62109375,-32.2265625,-24.90234375,-18.06640625,0.0
1740373970.813685,-35.15625,-26.85546875,-28.3203125,-14.16015625,0.0
1740373970.8175902,-27.34375,-28.3203125,-20.99609375,-21.484375,0.0
1740373970.8214958,-35.15625,-33.203125,-30.2734375,-30.2734375,0.0
1740373970.8254013,-46.38671875,-33.69140625,-41.50390625,-24.4140625,0.0
1740373970.8293107,-43.9453125,-28.3203125,-35.64453125,-23.92578125,0.0
1740373970.8332162,-32.71484375,-22.94921875,-29.78515625,-33.69140625,0.0
1740373970.8371215,-27.83203125,-25.390625,-22.94921875,-38.0859375,0.0
1740373970.841027,-49.8046875,-26.3671875,-23.92578125,-30.2734375,0.0
1740373970.8449326,-46.875,-26.85546875,-19.53125,-20.99609375,0.0
1740373970.848838,-26.3671875,-34.66796875,-20.5078125,-21.484375,0.0
1740373970.8527436,-19.53125,-38.0859375,-29.296875,-18.06640625,0.0
1740373970.8566492,-29.296875,-31.25,-26.85546875,-16.11328125,0.0
1740373970.8605547,-45.8984375,-29.296875,-28.3203125,-24.90234375,0.0
1740373970.8644602,-33.203125,-37.59765625,-24.90234375,-24.90234375,0.0
1740373970.8683658,-17.08984375,-39.55078125,-25.390625,-26.85546875,0.0
1740373970.8722713,-24.90234375,-31.25,-37.59765625,-28.80859375,0.0
1740373970.87618,-27.34375,-27.34375,-34.66796875,-23.92578125,0.0
1740373970.8800855,-8.30078125,-30.76171875,-28.3203125,-32.2265625,0.0
1740373970.883991,-0.48828125,-32.71484375,-28.80859375,-27.83203125,0.0
1740373970.8878965,-6.34765625,-31.25,-39.0625,-23.4375,0.0
1740373970.891802,-20.5078125,-28.80859375,-40.52734375,-24.90234375,0.0
1740373970.8957076,-17.578125,-29.296875,-34.66796875,-15.625,0.0
1740373970.8996131,-2.44140625,-32.71484375,-28.80859375,-10.7421875,0.0
1740373970.9035187,-4.8828125,-34.66796875,-31.25,-21.484375,0.0
1740373970.9074242,-26.85546875,-33.69140625,-32.71484375,-17.578125,0.0
1740373970.9113297,-42.48046875,-30.2734375,-26.3671875,-27.34375,0.0
1740373970.9152353,-30.2734375,-33.69140625,-30.76171875,-33.203125,0.0
1740373970.9191408,-25.87890625,-35.15625,-39.0625,-27.34375,0.0
1740373970.923053,-42.48046875,-37.109375,-41.9921875,-31.73828125,0.0
1740373970.9269586,-58.59375,-35.15625,-37.109375,-33.69140625,0.0
1740373970.930864,-48.828125,-29.78515625,-28.80859375,-42.48046875,0.0
1740373970.9347696,-30.2734375,-29.296875,-23.92578125,-48.828125,0.0
1740373970.9386752,-38.0859375,-36.1328125,-28.80859375,-30.2734375,0.0
1740373970.9425807,-44.921875,-41.9921875,-33.69140625,-25.390625,0.0
1740373970.9464862,-41.015625,-39.0625,-34.1796875,-44.43359375,0.0
1740373970.9503918,-33.203125,-29.78515625,-29.296875,-41.015625,0.0
1740373970.9542973,-25.87890625,-24.90234375,-25.87890625,-29.296875,0.0
1740373970.9582028,-37.59765625,-28.80859375,-25.390625,-32.71484375,0.0
1740373970.9621084,-41.015625,-35.15625,-40.52734375,-32.2265625,0.0
1740373970.966014,-34.1796875,-38.0859375,-46.875,-35.15625,0.0
1740373970.9699256,-33.203125,-34.1796875,-30.76171875,-41.015625,0.0
1740373970.9738312,-41.015625,-35.64453125,-32.2265625,-50.29296875,0.0
1740373970.9777367,-53.7109375,-32.2265625,-33.69140625,-41.015625,0.0
1740373970.9816422,-48.828125,-29.296875,-37.109375,-37.109375,0.0
1740373970.9855478,-50.78125,-41.50390625,-30.76171875,-48.828125,0.0
1740373970.9894533,-57.12890625,-40.52734375,-25.87890625,-42.48046875,0.0
1740373970.9933589,-62.01171875,-28.3203125,-34.66796875,-38.57421875,0.0
1740373970.9972644,-49.31640625,-28.3203125,-36.1328125,-47.36328125,0.0
1740373971.00117,-32.2265625,-33.203125,-30.76171875,-34.66796875,0.0
1740373971.0050755,-35.64453125,-32.2265625,-25.87890625,-19.04296875,0.0
1740373971.008981,-51.7578125,-30.76171875,-28.3203125,-29.296875,0.0
1740373971.0128865,-54.19921875,-35.15625,-37.109375,-38.57421875,0.0
1740373971.0167978,-40.52734375,-29.78515625,-39.0625,-39.0625,0.0
1740373971.0207033,-37.59765625,-28.3203125,-32.2265625,-38.0859375,0.0
1740373971.0246086,-52.24609375,-26.85546875,-34.66796875,-28.3203125,0.0
1740373971.0285141,-67.3828125,-27.83203125,-42.48046875,-45.41015625,0.0
1740373971.0324197,-47.8515625,-39.55078125,-39.55078125,-56.640625,0.0
1740373971.0363252,-27.34375,-40.0390625,-38.57421875,-36.62109375,0.0
1740373971.0402308,-46.875,-37.59765625,-43.45703125,-42.96875,0.0
1740373971.0441363,-62.5,-33.203125,-36.1328125,-50.78125,0.0
1740373971.0480418,-55.17578125,-40.52734375,-28.80859375,-41.9921875,0.0
1740373971.0519474,-44.921875,-39.0625,-38.0859375,-41.50390625,0.0
1740373971.055853,-52.24609375,-34.66796875,-38.0859375,-50.29296875,0.0
1740373971.0597584,-54.6875,-38.0859375,-36.62109375,-42.96875,0.0
1740373971.0636692,-39.0625,-31.73828125,-36.1328125,-40.52734375,0.0
1740373971.0675747,-24.4140625,-26.3671875,-30.76171875,-47.36328125,0.0
1740373971.0714803,-38.0859375,-31.25,-38.57421875,-46.875,0.0
1740373971.0753858,-49.31640625,-32.71484375,-41.50390625,-39.0625,0.0
1740373971.0792913,-49.31640625,-33.69140625,-38.0859375,-32.2265625,0.0
1740373971.0831969,-35.15625,-34.66796875,-38.57421875,-40.52734375,0.0
1740373971.0871024,-22.4609375,-26.3671875,-36.62109375,-43.45703125,0.0
1740373971.091008,-35.64453125,-28.80859375,-31.25,-39.0625,0.0
1740373971.0949135,-37.109375,-33.69140625,-27.83203125,-38.0859375,0.0
1740373971.0988188,-28.80859375,-20.99609375,-32.2265625,-49.8046875,0.0
1740373971.1027243,-25.390625,-16.6015625,-31.25,-47.36328125,0.0
1740373971.1066298,-42.48046875,-25.87890625,-33.69140625,-47.36328125,0.0
1740373971.1105402,-53.22265625,-30.76171875,-41.50390625,-42.48046875,0.0
1740373971.1144457,-28.80859375,-25.87890625,-34.66796875,-32.2265625,0.0
1740373971.1183512,-18.06640625,-31.73828125,-29.78515625,-35.64453125,0.0
1740373971.1222568,-39.0625,-38.0859375,-37.59765625,-37.59765625,0.0
1740373971.1261623,-52.24609375,-30.2734375,-42.96875,-30.2734375,0.0
1740373971.1300678,-44.43359375,-30.76171875,-46.875,-38.57421875,0.0
1740373971.1339734,-28.80859375,-35.15625,-42.48046875,-47.36328125,0.0
1740373971.137879,-26.3671875,-35.15625,-32.2265625,-43.9453125,0.0
1740373971.1417844,-44.43359375,-33.69140625,-36.62109375,-41.50390625,0.0
1740373971.14569,-47.8515625,-26.3671875,-40.0390625,-41.015625,0.0
1740373971.1495955,-28.3203125,-26.3671875,-29.78515625,-36.62109375,0.0
1740373971.153501,-16.11328125,-27.34375,-33.69140625,-25.390625,0.0
1740373971.1574109,-28.80859375,-22.4609375,-40.52734375,-22.94921875,0.0
1740373971.1613164,-40.0390625,-23.92578125,-35.15625,-28.3203125,0.0
1740373971.165222,-26.3671875,-28.3203125,-33.69140625,-21.484375,0.0
1740373971.1691275,-14.6484375,-32.71484375,-36.1328125,-29.78515625,0.0
1740373971.173033,-21.484375,-27.34375,-34.66796875,-47.8515625,0.0
1740373971.1769385,-33.203125,-30.2734375,-35.64453125,-35.15625,0.0
1740373971.180844,-27.34375,-31.25,-37.109375,-26.3671875,0.0
1740373971.1847496,-10.7421875,-32.2265625,-41.9921875,-28.3203125,0.0
1740373971.1886551,-18.5546875,-32.2265625,-50.29296875,-27.34375,0.0
1740373971.1925607,-39.55078125,-21.97265625,-48.828125,-39.55078125,0.0
1740373971.196466,-31.73828125,-24.4140625,-38.57421875,-38.57421875,0.0
1740373971.2003715,-18.06640625,-35.15625,-37.59765625,-28.80859375,0.0
1740373971.2042806,-28.3203125,-32.2265625,-43.45703125,-29.296875,0.0
1740373971.2081861,-38.57421875,-26.85546875,-39.55078125,-33.69140625,0.0
1740373971.2120917,-31.73828125,-29.296875,-26.3671875,-31.25,0.0
1740373971.2159972,-25.390625,-32.2265625,-28.80859375,-32.71484375,0.0
1740373971.2199028,-24.4140625,-35.15625,-41.9921875,-36.1328125,0.0
1740373971.2238083,-40.0390625,-38.57421875,-47.8515625,-44.921875,0.0
1740373971.2277138,-40.0390625,-38.0859375,-36.62109375,-33.203125,0.0
1740373971.2316194,-34.66796875,-36.62109375,-28.3203125,-29.296875,0.0
1740373971.235525,-27.83203125,-31.25,-33.203125,-33.69140625,0.0
1740373971.2394304,-33.69140625,-29.78515625,-33.69140625,-30.2734375,0.0
1740373971.243336,-50.29296875,-35.15625,-31.25,-22.4609375,0.0
1740373971.2472415,-40.0390625,-31.73828125,-36.1328125,-16.11328125,0.0
1740373971.2511501,-21.484375,-29.296875,-39.55078125,-26.85546875,0.0
1740373971.2550557,-21.484375,-33.203125,-37.109375,-27.83203125,0.0
1740373971.2589612,-37.109375,-35.15625,-32.71484375,-32.71484375,0.0
1740373971.2628667,-31.73828125,-23.92578125,-36.1328125,-29.296875,0.0
1740373971.2667723,-19.53125,-19.04296875,-38.0859375,-27.34375,0.0
1740373971.2706778,-21.97265625,-27.34375,-41.015625,-24.4140625,0.0
1740373971.2745833,-29.296875,-29.78515625,-45.8984375,-21.484375,0.0
1740373971.2784889,-39.0625,-27.34375,-41.50390625,-35.15625,0.0
1740373971.2823944,-21.97265625,-26.3671875,-34.1796875,-28.3203125,0.0
1740373971.2863,-4.8828125,-24.4140625,-31.25,-33.203125,0.0
1740373971.2902055,-16.6015625,-20.5078125,-33.203125,-30.76171875,0.0
1740373971.294111,-32.2265625,-22.94921875,-41.015625,-34.1796875,0.0
1740373971.298019,-20.99609375,-25.390625,-32.2265625,-28.80859375,0.0
1740373971.3019245,-14.16015625,-24.4140625,-28.80859375,-19.53125,0.0
1740373971.30583,-23.4375,-26.85546875,-45.8984375,-31.25,0.0
1740373971.3097355,-40.52734375,-37.109375,-39.55078125,-31.73828125,0.0
1740373971.313641,-46.38671875,-37.109375,-28.3203125,-36.62109375,0.0
1740373971.3175466,-33.69140625,-34.1796875,-29.78515625,-29.78515625,0.0
1740373971.3214521,-35.15625,-32.71484375,-37.109375,-34.1796875,0.0
1740373971.3253577,-53.22265625,-30.76171875,-40.52734375,-44.43359375,0.0
1740373971.3292632,-49.31640625,-31.73828125,-38.0859375,-49.31640625,0.0
1740373971.3331687,-32.2265625,-26.85546875,-36.62109375,-52.24609375,0.0
1740373971.3370743,-33.69140625,-25.87890625,-39.55078125,-28.80859375,0.0
1740373971.3409798,-51.7578125,-28.3203125,-40.0390625,-33.69140625,0.0
1740373971.3448915,-51.26953125,-35.15625,-41.50390625,-42.48046875,0.0
1740373971.348797,-31.73828125,-43.45703125,-42.96875,-26.85546875,0.0
1740373971.3527026,-23.92578125,-33.203125,-36.62109375,-30.2734375,0.0
1740373971.3566082,-38.57421875,-33.203125,-35.15625,-31.73828125,0.0
1740373971.3605137,-46.875,-42.48046875,-47.36328125,-35.15625,0.0
1740373971.3644192,-26.3671875,-38.57421875,-32.2265625,-20.01953125,0.0
1740373971.3683248,-10.25390625,-30.2734375,-18.5546875,-2.9296875,0.0
1740373971.3722303,-22.94921875,-26.85546875,-31.73828125,-15.625,0.0
1740373971.3761358,-27.83203125,-24.90234375,-26.3671875,-9.27734375,0.0
1740373971.3800414,-12.20703125,-24.4140625,-23.92578125,-1.953125,0.0
1740373971.383947,-9.27734375,-26.3671875,-34.66796875,-9.27734375,0.0
1740373971.3878524,-17.578125,-32.2265625,-37.59765625,-8.30078125,0.0
1740373971.3917637,-23.92578125,-33.69140625,-32.71484375,-9.765625,0.0
1740373971.3956692,-17.578125,-30.76171875,-24.4140625,-1.953125,0.0
1740373971.3995748,-7.8125,-23.92578125,-21.97265625,-10.25390625,0.0
1740373971.4034803,-12.20703125,-25.390625,-26.85546875,-25.390625,0.0
1740373971.4073858,-23.92578125,-27.83203125,-28.80859375,-14.6484375,0.0
1740373971.4112914,-23.4375,-23.92578125,-27.34375,-9.765625,0.0
1740373971.415197,-9.765625,-25.390625,-32.2265625,-11.23046875,0.0
1740373971.4191024,-9.27734375,-27.83203125,-41.015625,-13.18359375,0.0
1740373971.423008,-26.85546875,-34.66796875,-38.57421875,-30.2734375,0.0
1740373971.4269135,-37.109375,-36.62109375,-33.203125,-45.8984375,0.0
1740373971.430819,-32.71484375,-33.69140625,-30.2734375,-56.15234375,0.0
1740373971.4347246,-27.83203125,-34.66796875,-31.25,-63.96484375,0.0
1740373971.4386353,-31.25,-31.73828125,-36.1328125,-50.78125,0.0
1740373971.442541,-43.45703125,-29.78515625,-34.66796875,-47.36328125,0.0
1740373971.4464464,-42.48046875,-33.69140625,-24.4140625,-57.12890625,0.0
1740373971.4503517,-33.203125,-45.41015625,-29.296875,-44.43359375,0.0
1740373971.4542572,-32.71484375,-47.8515625,-30.76171875,-38.57421875,0.0
1740373971.4581628,-36.1328125,-44.921875,-21.484375,-49.31640625,0.0
1740373971.4620683,-37.109375,-45.41015625,-25.390625,-42.48046875,0.0
1740373971.4659739,-29.78515625,-48.33984375,-32.2265625,-40.52734375,0.0
1740373971.4698794,-23.4375,-43.9453125,-32.2265625,-43.9453125,0.0
1740373971.473785,-42.96875,-30.76171875,-41.50390625,-31.25,0.0
1740373971.4776905,-57.6171875,-36.1328125,-45.8984375,-30.76171875,0.0
1740373971.481596,-33.203125,-39.0625,-40.0390625,-36.1328125,0.0
1740373971.4855063,-28.80859375,-30.2734375,-41.015625,-48.33984375,0.0
1740373971.4894118,-46.38671875,-26.3671875,-35.15625,-45.41015625,0.0
1740373971.4933174,-45.8984375,-29.78515625,-29.296875,-23.4375,0.0
1740373971.497223,-35.64453125,-30.76171875,-33.203125,-21.484375,0.0
1740373971.5011284,-25.390625,-28.80859375,-40.52734375,-29.296875,0.0
1740373971.505034,-31.73828125,-30.76171875,-44.43359375,-23.4375,0.0
1740373971.5089395,-44.921875,-28.80859375,-43.45703125,-21.97265625,0.0
1740373971.512845,-38.57421875,-34.66796875,-36.62109375,-23.92578125,0.0
1740373971.5167506,-23.4375,-34.66796875,-39.55078125,-25.87890625,0.0
1740373971.520656,-27.34375,-21.97265625,-39.55078125,-25.390625,0.0
1740373971.5245616,-32.2265625,-22.94921875,-32.71484375,-20.01953125,0.0
1740373971.5284672,-27.34375,-28.80859375,-41.015625,-25.390625,0.0
1740373971.5323768,-17.08984375,-30.76171875,-43.9453125,-26.3671875,0.0
1740373971.5362823,-15.625,-27.34375,-43.45703125,-29.296875,0.0
1740373971.5401878,-36.62109375,-27.34375,-46.875,-36.62109375,0.0
1740373971.5440934,-42.48046875,-31.25,-41.50390625,-41.50390625,0.0
1740373971.547999,-24.90234375,-27.83203125,-40.0390625,-33.203125,0.0
1740373971.5519044,-12.6953125,-29.296875,-39.0625,-27.34375,0.0
1740373971.55581,-31.25,-33.69140625,-41.015625,-33.203125,0.0
1740373971.5597155,-43.45703125,-34.66796875,-39.0625,-28.3203125,0.0
1740373971.563621,-30.76171875,-31.73828125,-34.1796875,-46.875,0.0
1740373971.5675266,-24.90234375,-34.66796875,-38.57421875,-42.96875,0.0
1740373971.571432,-24.90234375,-38.57421875,-36.1328125,-31.25,0.0
1740373971.5753376,-40.52734375,-40.52734375,-37.109375,-48.33984375,0.0
1740373971.5792468,-50.78125,-42.48046875,-42.96875,-44.921875,0.0
1740373971.5831523,-32.2265625,-38.0859375,-41.50390625,-37.109375,0.0
1740373971.5870578,-27.83203125,-33.69140625,-39.0625,-45.8984375,0.0
1740373971.5909634,-45.8984375,-23.92578125,-33.69140625,-39.55078125,0.0
1740373971.594869,-50.29296875,-21.484375,-30.2734375,-38.57421875,0.0
1740373971.5987744,-33.203125,-21.97265625,-27.83203125,-53.7109375,0.0
1740373971.60268,-30.76171875,-28.3203125,-32.71484375,-52.734375,0.0
1740373971.6065855,-54.6875,-31.73828125,-43.9453125,-44.43359375,0.0
1740373971.610491,-61.5234375,-25.390625,-44.43359375,-40.0390625,0.0
1740373971.6143966,-31.25,-25.390625,-39.55078125,-32.2265625,0.0
1740373971.618302,-26.85546875,-30.2734375,-41.015625,-49.8046875,0.0
1740373971.6222076,-43.9453125,-32.2265625,-54.19921875,-47.36328125,0.0
1740373971.6261163,-47.8515625,-31.73828125,-49.8046875,-40.52734375,0.0
1740373971.6300218,-43.9453125,-32.2265625,-40.52734375,-51.26953125,0.0
1740373971.6339273,-34.66796875,-37.109375,-45.41015625,-36.1328125,0.0
1740373971.6378329,-43.9453125,-41.50390625,-52.734375,-45.41015625,0.0
1740373971.6417384,-53.22265625,-44.43359375,-50.29296875,-55.17578125,0.0
1740373971.645644,-31.25,-43.9453125,-29.78515625,-38.57421875,0.0
1740373971.6495495,-19.53125,-44.921875,-28.3203125,-32.2265625,0.0
1740373971.653455,-27.34375,-33.203125,-42.96875,-36.62109375,0.0
1740373971.6573606,-32.2265625,-27.83203125,-41.9921875,-36.1328125,0.0
1740373971.661266,-43.45703125,-41.015625,-39.55078125,-24.90234375,0.0
1740373971.6651716,-34.1796875,-45.41015625,-35.15625,-20.01953125,0.0
1740373971.6690772,-18.06640625,-36.62109375,-41.50390625,-23.4375,0.0
1740373971.6729853,-29.296875,-32.2265625,-48.33984375,-26.3671875,0.0
1740373971.6768906,-39.55078125,-38.0859375,-35.64453125,-30.2734375,0.0
1740373971.6807961,-26.3671875,-38.0859375,-35.64453125,-30.76171875,0.0
1740373971.6847017,-20.5078125,-34.1796875,-37.59765625,-36.62109375,0.0
1740373971.6886072,-24.4140625,-32.71484375,-37.59765625,-41.50390625,0.0
1740373971.6925128,-31.25,-35.64453125,-37.109375,-38.0859375,0.0
1740373971.6964183,-33.203125,-35.64453125,-34.66796875,-38.57421875,0.0
1740373971.7003238,-30.2734375,-34.1796875,-34.66796875,-50.78125,0.0
1740373971.7042294,-34.1796875,-33.69140625,-30.76171875,-52.734375,0.0
1740373971.708135,-43.9453125,-33.203125,-35.15625,-29.296875,0.0
1740373971.7120404,-49.8046875,-30.2734375,-41.50390625,-35.64453125,0.0
1740373971.715946,-36.62109375,-31.73828125,-38.57421875,-52.734375,0.0
1740373971.719858,-31.73828125,-32.2265625,-34.1796875,-48.33984375,0.0
1740373971.7237635,-55.6640625,-29.296875,-38.0859375,-46.875,0.0
1740373971.727669,-55.6640625,-22.4609375,-34.1796875,-53.22265625,0.0
1740373971.7315745,-45.8984375,-20.99609375,-24.4140625,-51.26953125,0.0
1740373971.73548,-40.52734375,-24.90234375,-28.3203125,-52.24609375,0.0
1740373971.7393856,-43.45703125,-33.203125,-31.73828125,-51.26953125,0.0
1740373971.7432911,-72.265625,-34.66796875,-34.1796875,-57.6171875,0.0
1740373971.7471967,-88.37890625,-22.4609375,-38.0859375,-70.80078125,0.0
1740373971.751102,-62.01171875,-21.484375,-25.390625,-64.453125,0.0
1740373971.7550075,-74.21875,-20.5078125,-13.671875,-65.91796875,0.0
1740373971.758913,-111.328125,-12.6953125,-21.97265625,-97.16796875,0.0
1740373971.7628186,-126.46484375,-16.6015625,-34.1796875,-117.1875,0.0
1740373971.76673,-126.46484375,-12.6953125,-27.34375,-118.65234375,0.0
1740373971.7706356,-143.5546875,-10.25390625,-19.53125,-143.5546875,0.0
1740373971.7745411,-183.10546875,-5.859375,-26.85546875,-184.5703125,0.0
1740373971.7784467,-210.9375,0.48828125,-20.5078125,-198.73046875,0.0
1740373971.7823522,-211.9140625,-3.90625,-14.6484375,-204.58984375,0.0
1740373971.7862577,-231.4453125,-7.8125,-22.4609375,-239.2578125,0.0
1740373971.7901633,-266.6015625,-2.44140625,-19.04296875,-250.0,0.0
1740373971.7940686,-277.83203125,1.953125,-17.578125,-251.953125,0.0
1740373971.797974,-251.953125,0.0,-20.01953125,-253.90625,0.0
1740373971.8018796,-235.3515625,-1.46484375,-13.671875,-249.51171875,0.0
1740373971.8057852,-252.9296875,2.9296875,-15.625,-252.44140625,0.0
1740373971.8096907,-250.9765625,0.9765625,-29.296875,-232.421875,0.0
1740373971.8136017,-227.05078125,-2.9296875,-29.78515625,-216.30859375,0.0
1740373971.8175073,-206.0546875,-1.953125,-23.4375,-208.0078125,0.0
1740373971.8214128,-199.21875,-8.7890625,-24.4140625,-192.3828125,0.0
1740373971.825318,-196.77734375,-7.32421875,-13.671875,-179.6875,0.0
1740373971.8292236,-189.94140625,-6.8359375,-8.7890625,-174.31640625,0.0
1740373971.8331292,-160.64453125,-14.6484375,-14.16015625,-160.15625,0.0
1740373971.8370347,-147.94921875,-5.37109375,-15.625,-148.92578125,0.0
1740373971.8409402,-155.76171875,-10.7421875,-35.64453125,-147.4609375,0.0
1740373971.8448458,-132.8125,-20.01953125,-31.25,-119.62890625,0.0
1740373971.8487513,-98.6328125,-19.53125,-27.83203125,-113.28125,0.0
1740373971.8526568,-77.63671875,-33.203125,-47.36328125,-112.3046875,0.0
1740373971.8565624,-76.171875,-31.25,-42.96875,-67.87109375,0.0
1740373971.8604727,-72.265625,-27.34375,-28.80859375,-42.48046875,0.0
1740373971.8643782,-51.7578125,-33.203125,-32.2265625,-39.55078125,0.0
1740373971.8682837,-37.109375,-37.109375,-42.96875,-29.78515625,0.0
1740373971.8721893,-32.71484375,-35.64453125,-49.8046875,-23.92578125,0.0
1740373971.8760948,-32.2265625,-34.66796875,-58.10546875,-26.3671875,0.0
1740373971.8800004,-23.92578125,-40.52734375,-48.828125,-18.06640625,0.0
1740373971.883906,-2.9296875,-51.7578125,-41.015625,-12.6953125,0.0
1740373971.8878114,0.0,-60.05859375,-41.9921875,-10.25390625,0.0
1740373971.891717,-19.04296875,-53.22265625,-44.43359375,-0.9765625,0.0
1740373971.8956225,-24.4140625,-41.50390625,-49.8046875,6.8359375,0.0
1740373971.899528,-7.8125,-40.52734375,-46.875,18.06640625,0.0
1740373971.9034336,0.48828125,-46.875,-38.0859375,9.765625,0.0
1740373971.9073474,-4.8828125,-48.33984375,-38.57421875,13.671875,0.0
1740373971.911253,-0.48828125,-42.96875,-42.96875,25.390625,0.0
1740373971.9151585,19.04296875,-49.31640625,-43.45703125,23.4375,0.0
1740373971.919064,23.92578125,-58.10546875,-50.78125,17.578125,0.0
1740373971.9229696,3.90625,-55.17578125,-60.05859375,30.76171875,0.0
1740373971.926875,0.9765625,-59.08203125,-38.57421875,26.3671875,0.0
1740373971.9307806,12.6953125,-62.98828125,-28.3203125,22.94921875,0.0
1740373971.9346862,31.25,-57.6171875,-39.0625,40.0390625,0.0
1740373971.9385917,38.57421875,-46.875,-39.0625,35.15625,0.0
1740373971.9424973,25.390625,-49.31640625,-36.1328125,34.66796875,0.0
1740373971.9464028,29.296875,-50.29296875,-42.48046875,44.43359375,0.0
1740373971.9503083,50.78125,-40.0390625,-44.921875,44.43359375,0.0
1740373971.9542174,38.0859375,-35.64453125,-37.59765625,43.45703125,0.0
1740373971.958123,16.6015625,-43.9453125,-38.57421875,45.41015625,0.0
1740373971.9620285,26.3671875,-41.50390625,-38.57421875,44.43359375,0.0
1740373971.965934,42.48046875,-33.203125,-38.0859375,30.76171875,0.0
1740373971.9698396,47.8515625,-39.55078125,-53.22265625,21.97265625,0.0
1740373971.973745,33.69140625,-46.38671875,-58.10546875,33.69140625,0.0
1740373971.9776506,18.5546875,-49.31640625,-52.734375,34.66796875,0.0
1740373971.9815562,30.76171875,-40.0390625,-52.734375,28.80859375,0.0
1740373971.9854617,42.48046875,-33.203125,-43.9453125,32.71484375,0.0
1740373971.9893672,35.64453125,-31.73828125,-34.66796875,32.71484375,0.0
1740373971.9932728,24.90234375,-37.59765625,-29.78515625,31.73828125,0.0
1740373971.9971783,26.85546875,-37.109375,-35.15625,29.78515625,0.0
1740373972.001087,36.62109375,-35.64453125,-37.109375,21.484375,0.0
1740373972.0049925,36.1328125,-44.921875,-35.15625,23.92578125,0.0
1740373972.008898,12.6953125,-40.0390625,-45.41015625,29.78515625,0.0
1740373972.0128036,12.20703125,-35.64453125,-43.45703125,22.4609375,0.0
1740373972.016709,38.0859375,-43.9453125,-28.80859375,18.5546875,0.0
1740373972.0206146,43.45703125,-46.875,-31.73828125,25.87890625,0.0
1740373972.0245202,30.2734375,-47.8515625,-38.57421875,35.64453125,0.0
1740373972.0284257,20.01953125,-46.875,-43.9453125,29.296875,0.0
1740373972.0323312,19.04296875,-38.0859375,-45.8984375,21.484375,0.0
1740373972.0362368,24.4140625,-34.66796875,-47.8515625,24.4140625,0.0
1740373972.0401423,31.25,-39.55078125,-44.921875,20.5078125,0.0
1740373972.0440478,26.3671875,-43.45703125,-41.50390625,19.53125,0.0
1740373972.04796,26.3671875,-51.7578125,-39.55078125,20.01953125,0.0
1740373972.0518656,37.109375,-51.26953125,-42.48046875,21.484375,0.0
1740373972.055771,35.64453125,-42.96875,-46.875,31.25,0.0
1740373972.0596766,20.5078125,-36.62109375,-36.1328125,23.92578125,0.0
1740373972.0635822,20.5078125,-34.1796875,-37.109375,12.6953125,0.0
1740373972.0674877,32.71484375,-43.45703125,-41.50390625,27.34375,0.0
1740373972.0713933,28.80859375,-40.52734375,-38.57421875,32.71484375,0.0
1740373972.0752988,12.20703125,-28.3203125,-47.8515625,23.4375,0.0
1740373972.0792043,9.27734375,-37.109375,-51.7578125,21.484375,0.0
1740373972.0831099,25.390625,-46.875,-44.43359375,23.92578125,0.0
1740373972.0870154,28.80859375,-37.109375,-43.9453125,5.37109375,0.0
1740373972.090921,7.8125,-29.78515625,-38.57421875,8.30078125,0.0
1740373972.094833,3.41796875,-37.59765625,-34.1796875,19.04296875,0.0
1740373972.0987384,12.6953125,-40.52734375,-39.55078125,17.08984375,0.0
1740373972.102644,14.16015625,-37.109375,-37.109375,9.765625,0.0
1740373972.1065495,1.953125,-30.2734375,-28.80859375,-1.953125,0.0
1740373972.110455,-9.765625,-28.80859375,-30.76171875,-8.7890625,0.0
1740373972.1143606,-3.90625,-38.0859375,-37.59765625,-13.671875,0.0
1740373972.1182659,8.7890625,-34.66796875,-40.0390625,-10.7421875,0.0
1740373972.1221714,-0.9765625,-24.4140625,-42.48046875,-3.41796875,0.0
1740373972.126077,-18.5546875,-28.80859375,-36.1328125,-6.8359375,0.0
1740373972.1299825,-8.30078125,-37.109375,-36.1328125,-5.859375,0.0
1740373972.133888,0.9765625,-35.64453125,-42.96875,-14.6484375,0.0
1740373972.1377935,3.41796875,-32.71484375,-37.109375,-13.18359375,0.0
1740373972.1417048,-20.99609375,-32.2265625,-45.8984375,-12.20703125,0.0
1740373972.1456103,-32.71484375,-35.15625,-56.640625,-16.6015625,0.0
1740373972.1495159,-5.37109375,-31.25,-53.7109375,-5.859375,0.0
1740373972.1534214,1.46484375,-25.390625,-48.33984375,-11.71875,0.0
1740373972.157327,-12.20703125,-29.78515625,-37.59765625,-17.08984375,0.0
1740373972.1612325,-24.4140625,-35.15625,-29.296875,-14.6484375,0.0
1740373972.165138,-18.06640625,-31.73828125,-28.80859375,-27.83203125,0.0
1740373972.1690435,-14.16015625,-35.64453125,-34.1796875,-29.78515625,0.0
1740373972.172949,-32.2265625,-43.45703125,-36.62109375,-19.04296875,0.0
1740373972.1768546,-44.43359375,-42.48046875,-35.15625,-13.18359375,0.0
1740373972.1807601,-22.94921875,-35.64453125,-38.57421875,-20.99609375,0.0
1740373972.1846657,-10.7421875,-31.25,-36.62109375,-39.0625,0.0
1740373972.1885765,-34.66796875,-30.76171875,-32.2265625,-32.2265625,0.0
1740373972.192482,-49.31640625,-31.25,-36.62109375,-33.69140625,0.0
1740373972.1963875,-48.828125,-31.73828125,-50.29296875,-46.38671875,0.0
1740373972.200293,-34.66796875,-32.2265625,-46.38671875,-42.96875,0.0
1740373972.2041986,-20.99609375,-33.69140625,-33.69140625,-26.3671875,0.0
1740373972.2081041,-44.921875,-43.45703125,-38.0859375,-34.1796875,0.0
1740373972.2120097,-49.31640625,-45.41015625,-44.921875,-41.50390625,0.0
1740373972.2159152,-26.85546875,-35.15625,-38.57421875,-29.78515625,0.0
1740373972.2198207,-14.6484375,-37.109375,-25.390625,-22.4609375,0.0
1740373972.2237263,-39.0625,-41.015625,-32.2265625,-32.71484375,0.0
1740373972.2276318,-51.26953125,-39.55078125,-36.62109375,-37.59765625,0.0
1740373972.2315373,-23.92578125,-38.57421875,-30.76171875,-27.83203125,0.0
1740373972.2354476,-17.578125,-35.64453125,-32.71484375,-30.76171875,0.0
1740373972.2393532,-37.59765625,-33.69140625,-44.921875,-56.15234375,0.0
1740373972.2432587,-45.41015625,-31.25,-49.8046875,-49.8046875,0.0
1740373972.2471642,-39.0625,-38.0859375,-34.1796875,-31.25,0.0
1740373972.2510698,-32.71484375,-42.48046875,-47.8515625,-37.109375,0.0
1740373972.2549753,-35.64453125,-41.50390625,-57.6171875,-47.36328125,0.0
1740373972.2588806,-44.43359375,-37.109375,-46.875,-57.6171875,0.0
1740373972.2627861,-41.50390625,-34.66796875,-47.8515625,-43.45703125,0.0
1740373972.2666917,-18.06640625,-30.2734375,-37.109375,-25.87890625,0.0
1740373972.2705972,-15.625,-27.34375,-35.64453125,-32.2265625,0.0
1740373972.2745028,-35.64453125,-37.59765625,-38.0859375,-28.80859375,0.0
1740373972.2784083,-40.52734375,-38.0859375,-28.80859375,-26.3671875,0.0
1740373972.282318,-37.59765625,-34.1796875,-31.73828125,-31.25,0.0
1740373972.2862236,-36.1328125,-30.2734375,-44.921875,-36.62109375,0.0
1740373972.2901292,-41.015625,-26.3671875,-42.48046875,-31.25,0.0
1740373972.2940347,-39.55078125,-28.80859375,-29.78515625,-21.97265625,0.0
1740373972.2979403,-28.3203125,-28.80859375,-37.109375,-21.97265625,0.0
1740373972.3018458,-13.18359375,-27.34375,-43.45703125,-25.87890625,0.0
1740373972.3057513,-25.390625,-33.69140625,-42.96875,-19.04296875,0.0
1740373972.3096569,-41.50390625,-33.203125,-39.55078125,-4.8828125,0.0
1740373972.3135624,-37.109375,-26.3671875,-39.55078125,-16.11328125,0.0
1740373972.317468,-28.80859375,-28.80859375,-37.109375,-28.3203125,0.0
1740373972.3213735,-23.4375,-30.2734375,-31.73828125,-13.671875,0.0
1740373972.325279,-32.71484375,-28.80859375,-32.71484375,-13.671875,0.0
1740373972.329188,-33.69140625,-30.76171875,-44.43359375,-29.296875,0.0
1740373972.3330936,-13.18359375,-35.64453125,-41.50390625,-20.01953125,0.0
1740373972.3369992,-11.23046875,-36.1328125,-38.0859375,-23.92578125,0.0
1740373972.3409047,-31.73828125,-31.73828125,-43.45703125,-32.71484375,0.0
1740373972.3448102,-33.203125,-28.3203125,-31.73828125,-23.92578125,0.0
1740373972.3487158,-17.08984375,-24.90234375,-29.296875,-32.2265625,0.0
1740373972.3526213,-7.8125,-29.78515625,-32.71484375,-17.08984375,0.0
1740373972.3565269,-19.53125,-28.80859375,-29.296875,-16.11328125,0.0
1740373972.3604324,-31.73828125,-16.11328125,-29.78515625,-37.109375,0.0
1740373972.364338,-21.484375,-20.5078125,-33.203125,-17.578125,0.0
1740373972.3682435,-11.23046875,-28.3203125,-38.0859375,-27.34375,0.0
1740373972.3721488,-24.4140625,-37.59765625,-36.62109375,-40.0390625,0.0
1740373972.3760576,-36.1328125,-42.96875,-34.66796875,-27.34375,0.0
1740373972.379963,-26.85546875,-33.203125,-27.83203125,-23.4375,0.0
1740373972.3838685,-14.6484375,-27.83203125,-25.390625,-18.06640625,0.0
1740373972.387774,-26.85546875,-33.69140625,-38.0859375,-25.87890625,0.0
1740373972.3916795,-42.96875,-30.2734375,-37.59765625,-31.25,0.0
1740373972.395585,-35.64453125,-21.97265625,-25.87890625,-33.203125,0.0
1740373972.3994906,-34.66796875,-32.71484375,-31.25,-40.52734375,0.0
1740373972.4033961,-40.52734375,-31.25,-46.875,-38.57421875,0.0
1740373972.4073017,-43.9453125,-21.97265625,-39.0625,-32.71484375,0.0
1740373972.4112072,-43.9453125,-27.34375,-31.73828125,-37.109375,0.0
1740373972.4151127,-35.64453125,-25.87890625,-33.203125,-47.8515625,0.0
1740373972.4190183,-32.71484375,-22.4609375,-32.2265625,-34.1796875,0.0
1740373972.4229267,-46.875,-26.3671875,-34.1796875,-27.34375,0.0
1740373972.4268322,-53.7109375,-30.76171875,-34.1796875,-27.83203125,0.0
1740373972.4307377,-38.57421875,-34.1796875,-43.45703125,-28.3203125,0.0
1740373972.4346433,-33.203125,-45.41015625,-39.55078125,-41.50390625,0.0
1740373972.4385488,-44.921875,-43.45703125,-28.3203125,-40.0390625,0.0
1740373972.4424543,-53.22265625,-41.50390625,-39.55078125,-29.78515625,0.0
1740373972.4463599,-50.29296875,-43.9453125,-51.26953125,-40.52734375,0.0
1740373972.4502654,-39.55078125,-39.55078125,-51.26953125,-49.31640625,0.0
1740373972.454171,-37.59765625,-38.0859375,-48.33984375,-41.015625,0.0
1740373972.4580765,-45.41015625,-38.57421875,-35.64453125,-32.71484375,0.0
1740373972.461982,-49.31640625,-36.62109375,-40.0390625,-40.52734375,0.0
1740373972.4658875,-36.1328125,-37.109375,-53.22265625,-35.15625,0.0
1740373972.4697995,-25.390625,-40.52734375,-37.59765625,-29.296875,0.0
1740373972.4737048,-38.0859375,-45.8984375,-28.3203125,-44.921875,0.0
1740373972.4776103,-45.41015625,-34.66796875,-33.69140625,-36.62109375,0.0
1740373972.481516,-32.2265625,-32.2265625,-46.38671875,-18.5546875,0.0
1740373972.4854214,-21.484375,-39.0625,-37.59765625,-17.08984375,0.0
1740373972.489327,-28.80859375,-38.0859375,-24.4140625,-14.16015625,0.0
1740373972.4932325,-40.52734375,-37.109375,-34.1796875,-12.6953125,0.0
1740373972.497138,-32.71484375,-33.203125,-42.48046875,-18.5546875,0.0
1740373972.5010436,-15.13671875,-34.66796875,-36.1328125,-18.5546875,0.0
1740373972.504949,-19.53125,-36.62109375,-36.1328125,-11.71875,0.0
1740373972.5088546,-34.1796875,-31.25,-42.96875,-16.11328125,0.0
1740373972.5127602,-29.78515625,-32.2265625,-45.41015625,-27.83203125,0.0
1740373972.5166714,-23.4375,-38.57421875,-39.55078125,-31.73828125,0.0
1740373972.520577,-27.83203125,-30.76171875,-36.62109375,-20.99609375,0.0
1740373972.5244825,-37.109375,-25.87890625,-29.296875,-8.7890625,0.0
1740373972.528388,-42.96875,-40.0390625,-38.57421875,-22.4609375,0.0
1740373972.5322936,-34.1796875,-43.9453125,-43.45703125,-38.57421875,0.0
1740373972.536199,-29.296875,-35.15625,-37.109375,-31.73828125,0.0
1740373972.5401046,-41.9921875,-29.78515625,-41.015625,-34.1796875,0.0
1740373972.5440102,-57.12890625,-35.15625,-35.15625,-42.48046875,0.0
1740373972.5479157,-54.6875,-40.52734375,-37.59765625,-40.52734375,0.0
1740373972.5518212,-32.2265625,-37.109375,-44.43359375,-42.96875,0.0
1740373972.5557268,-38.0859375,-34.66796875,-43.9453125,-39.55078125,0.0
1740373972.5596323,-51.7578125,-35.64453125,-41.015625,-41.015625,0.0
1740373972.563543,-38.57421875,-28.80859375,-32.2265625,-42.48046875,0.0
1740373972.5674486,-29.78515625,-24.4140625,-33.69140625,-39.55078125,0.0
1740373972.5713542,-32.2265625,-23.4375,-49.8046875,-44.43359375,0.0
1740373972.5752597,-46.38671875,-33.203125,-45.41015625,-45.8984375,0.0
1740373972.579165,-48.828125,-42.48046875,-33.203125,-54.6875,0.0
1740373972.5830705,-28.3203125,-36.1328125,-42.48046875,-69.3359375,0.0
1740373972.586976,-20.01953125,-26.85546875,-38.0859375,-58.10546875,0.0
1740373972.5908816,-38.57421875,-30.2734375,-34.66796875,-41.9921875,0.0
1740373972.5947871,-47.36328125,-41.50390625,-32.2265625,-42.96875,0.0
1740373972.5986927,-38.57421875,-32.71484375,-30.2734375,-56.15234375,0.0
1740373972.6025982,-35.15625,-31.73828125,-40.0390625,-52.734375,0.0
1740373972.6065037,-53.7109375,-35.64453125,-36.62109375,-50.29296875,0.0
1740373972.6104143,-62.5,-30.2734375,-40.52734375,-56.15234375,0.0
1740373972.6143198,-40.52734375,-37.59765625,-52.734375,-57.6171875,0.0
1740373972.6182253,-22.4609375,-41.9921875,-39.55078125,-41.015625,0.0
1740373972.6221309,-36.62109375,-39.55078125,-31.25,-31.73828125,0.0
1740373972.6260364,-49.8046875,-36.62109375,-37.109375,-26.3671875,0.0
1740373972.629942,-40.52734375,-35.64453125,-33.69140625,-24.90234375,0.0
1740373972.6338475,-20.99609375,-32.71484375,-23.4375,-40.52734375,0.0
1740373972.637753,-17.578125,-28.3203125,-13.671875,-23.92578125,0.0
1740373972.6416585,-39.0625,-25.87890625,-17.578125,-9.765625,0.0
1740373972.645564,-41.9921875,-28.3203125,-32.71484375,-33.69140625,0.0
1740373972.6494696,-25.87890625,-36.1328125,-34.1796875,-34.66796875,0.0
1740373972.6533751,-24.4140625,-30.76171875,-30.76171875,-27.34375,0.0
1740373972.6572847,-37.109375,-19.53125,-26.85546875,-23.4375,0.0
1740373972.6611903,-35.64453125,-19.53125,-23.92578125,-16.11328125,0.0
1740373972.6650958,-24.90234375,-25.87890625,-25.87890625,-21.484375,0.0
1740373972.6690013,-28.3203125,-25.87890625,-26.3671875,-19.04296875,0.0
1740373972.6729069,-36.1328125,-25.87890625,-43.45703125,-17.578125,0.0
1740373972.6768124,-38.0859375,-32.2265625,-32.71484375,-13.18359375,0.0
1740373972.680718,-29.78515625,-33.203125,-25.390625,-7.8125,0.0
1740373972.6846235,-12.20703125,-32.2265625,-38.57421875,-16.11328125,0.0
1740373972.688529,-22.4609375,-27.34375,-35.15625,-37.109375,0.0
1740373972.6924345,-38.0859375,-22.4609375,-25.390625,-37.59765625,0.0
1740373972.69634,-33.203125,-30.76171875,-28.80859375,-35.64453125,0.0
1740373972.7002456,-32.71484375,-38.0859375,-39.0625,-46.875,0.0
1740373972.7041547,-42.48046875,-30.2734375,-39.0625,-52.24609375,0.0
1740373972.7080603,-53.22265625,-22.94921875,-38.57421875,-47.8515625,0.0
1740373972.7119658,-58.59375,-28.3203125,-42.96875,-62.5,0.0
1740373972.7158713,-52.734375,-36.1328125,-40.0390625,-74.70703125,0.0
1740373972.7197769,-49.8046875,-41.015625,-43.45703125,-63.4765625,0.0
1740373972.7236824,-59.5703125,-33.203125,-35.64453125,-52.734375,0.0
1740373972.727588,-66.40625,-35.64453125,-38.57421875,-44.921875,0.0
1740373972.7314935,-44.921875,-38.57421875,-41.015625,-40.52734375,0.0
1740373972.735399,-31.73828125,-29.78515625,-35.15625,-42.48046875,0.0
1740373972.7393045,-49.8046875,-30.76171875,-46.875,-46.38671875,0.0
1740373972.74321,-61.5234375,-39.55078125,-48.33984375,-44.43359375,0.0
1740373972.7471156,-56.15234375,-39.55078125,-53.7109375,-49.8046875,0.0
1740373972.7510245,-46.38671875,-40.52734375,-62.01171875,-59.08203125,0.0
1740373972.75493,-43.9453125,-41.50390625,-50.78125,-52.24609375,0.0
1740373972.7588356,-50.78125,-38.0859375,-53.7109375,-52.24609375,0.0
1740373972.762741,-57.6171875,-37.109375,-73.73046875,-56.15234375,0.0
1740373972.7666466,-43.9453125,-32.71484375,-49.31640625,-32.2265625,0.0
1740373972.7705522,-39.55078125,-31.73828125,-23.4375,-34.66796875,0.0
1740373972.7744577,-45.41015625,-41.50390625,-25.390625,-37.59765625,0.0
1740373972.7783632,-45.8984375,-36.62109375,-33.203125,-35.15625,0.0
1740373972.7822688,-31.73828125,-28.3203125,-36.1328125,-34.66796875,0.0
1740373972.7861743,-21.97265625,-28.80859375,-35.15625,-31.73828125,0.0
1740373972.7900796,-39.0625,-27.83203125,-36.62109375,-42.48046875,0.0
1740373972.7939851,-52.24609375,-29.296875,-34.66796875,-41.015625,0.0
1740373972.7978935,-42.48046875,-27.83203125,-38.57421875,-33.203125,0.0
1740373972.801799,-27.83203125,-27.83203125,-50.78125,-35.15625,0.0
1740373972.8057046,-32.71484375,-29.296875,-55.17578125,-50.78125,0.0
1740373972.8096101,-37.109375,-22.94921875,-54.6875,-46.38671875,0.0
1740373972.8135157,-29.296875,-24.90234375,-47.8515625,-39.55078125,0.0
1740373972.8174212,-9.27734375,-31.25,-36.1328125,-40.52734375,0.0
