timestamps,TP9,AF7,AF8,TP10,Right AUX
1740797055.86356,-51.26953125,-79.58984375,-37.109375,-50.29296875,0.0
1740797055.867466,-64.453125,-84.47265625,-35.64453125,-50.29296875,0.0
1740797055.8713717,-59.5703125,-87.40234375,-38.57421875,-50.29296875,0.0
1740797055.8752778,-51.7578125,-88.37890625,-43.45703125,-63.4765625,0.0
1740797055.8791835,-56.15234375,-88.8671875,-38.57421875,-54.6875,0.0
1740797055.8830895,-60.05859375,-80.56640625,-34.1796875,-41.015625,0.0
1740797055.8869953,-57.6171875,-73.73046875,-35.64453125,-42.96875,0.0
1740797055.8909013,-46.38671875,-70.80078125,-36.1328125,-41.50390625,0.0
1740797055.8948073,-40.52734375,-77.1484375,-37.109375,-40.52734375,0.0
1740797055.898713,-45.8984375,-72.265625,-40.52734375,-35.15625,0.0
1740797055.9026191,-55.6640625,-60.546875,-44.921875,-39.0625,0.0
1740797055.906525,-47.8515625,-66.40625,-45.8984375,-44.43359375,0.0
1740797055.910433,-29.296875,-73.2421875,-45.8984375,-28.80859375,0.0
1740797055.914339,-43.45703125,-69.82421875,-43.9453125,-28.80859375,0.0
1740797055.9182448,-54.19921875,-66.89453125,-46.38671875,-31.73828125,0.0
1740797055.9221509,-43.45703125,-68.359375,-46.38671875,-31.25,0.0
1740797055.9260566,-41.015625,-67.87109375,-42.96875,-31.25,0.0
1740797055.9299626,-37.109375,-68.359375,-41.9921875,-26.85546875,0.0
1740797055.9338686,-27.34375,-65.4296875,-41.015625,-24.90234375,0.0
1740797055.9377744,-27.83203125,-62.5,-36.62109375,-17.578125,0.0
1740797055.9416804,-28.3203125,-63.4765625,-39.55078125,-20.01953125,0.0
1740797055.9455862,-29.78515625,-55.6640625,-35.64453125,-27.34375,0.0
1740797055.9494922,-33.69140625,-54.19921875,-33.69140625,-20.5078125,0.0
1740797055.953398,-24.90234375,-49.8046875,-35.15625,-13.671875,0.0
1740797055.957306,-20.01953125,-47.36328125,-35.64453125,-21.97265625,0.0
1740797055.961212,-6.8359375,-35.64453125,-42.96875,-15.625,0.0
1740797055.9651177,-4.39453125,-31.25,-39.55078125,-8.30078125,0.0
1740797055.9690237,-25.87890625,-40.0390625,-32.2265625,-11.23046875,0.0
1740797055.9729297,-24.4140625,-41.9921875,-32.71484375,-18.5546875,0.0
1740797055.9768355,-8.30078125,-37.59765625,-38.57421875,-20.01953125,0.0
1740797055.9807415,-20.99609375,-42.96875,-40.0390625,-19.04296875,0.0
1740797055.9846473,-36.62109375,-54.19921875,-33.69140625,-14.6484375,0.0
1740797055.9885533,-38.0859375,-42.96875,-33.203125,-14.6484375,0.0
1740797055.992459,-39.55078125,-40.0390625,-34.66796875,-27.83203125,0.0
1740797055.996365,-39.55078125,-59.5703125,-37.59765625,-36.62109375,0.0
1740797056.000271,-54.6875,-66.40625,-41.50390625,-40.0390625,0.0
1740797056.0041785,-58.10546875,-63.4765625,-37.109375,-37.109375,0.0
1740797056.0080845,-42.96875,-65.91796875,-35.64453125,-38.57421875,0.0
1740797056.0119905,-44.43359375,-67.87109375,-40.52734375,-34.66796875,0.0
1740797056.0158963,-52.734375,-70.3125,-38.57421875,-33.203125,0.0
1740797056.0198023,-54.6875,-65.91796875,-36.1328125,-35.64453125,0.0
1740797056.023708,-52.734375,-60.546875,-33.69140625,-47.36328125,0.0
1740797056.027614,-50.78125,-67.3828125,-31.73828125,-49.31640625,0.0
1740797056.03152,-52.24609375,-67.3828125,-34.66796875,-41.50390625,0.0
1740797056.035426,-61.03515625,-52.734375,-36.1328125,-42.48046875,0.0
1740797056.039332,-56.640625,-49.8046875,-35.64453125,-40.0390625,0.0
1740797056.0432377,-43.45703125,-47.8515625,-33.69140625,-42.96875,0.0
1740797056.0471437,-38.57421875,-45.41015625,-32.2265625,-46.38671875,0.0
1740797056.0510511,-44.43359375,-43.9453125,-35.64453125,-30.76171875,0.0
1740797056.054957,-35.64453125,-40.0390625,-34.66796875,-21.97265625,0.0
1740797056.058863,-18.06640625,-41.50390625,-31.25,-28.80859375,0.0
1740797056.062769,-25.390625,-44.43359375,-34.66796875,-29.296875,0.0
1740797056.0666747,-29.296875,-42.48046875,-37.109375,-20.99609375,0.0
1740797056.0705807,-28.80859375,-40.0390625,-30.76171875,-15.625,0.0
1740797056.0744865,-23.92578125,-41.9921875,-31.73828125,-18.5546875,0.0
1740797056.0783925,-19.04296875,-35.64453125,-34.66796875,-20.5078125,0.0
1740797056.0822983,-32.2265625,-28.3203125,-30.76171875,-24.4140625,0.0
1740797056.0862043,-28.80859375,-34.66796875,-26.85546875,-20.5078125,0.0
1740797056.0901103,-16.11328125,-36.62109375,-29.78515625,-15.13671875,0.0
1740797056.094016,-10.7421875,-26.3671875,-39.0625,-25.87890625,0.0
1740797056.0979235,-11.23046875,-24.4140625,-37.109375,-26.85546875,0.0
1740797056.1018293,-26.3671875,-33.203125,-26.3671875,-22.94921875,0.0
1740797056.1057353,-26.3671875,-36.62109375,-28.80859375,-13.671875,0.0
1740797056.109641,-19.04296875,-32.2265625,-37.59765625,-17.578125,0.0
1740797056.113547,-25.390625,-33.69140625,-38.57421875,-26.3671875,0.0
1740797056.1174529,-28.80859375,-48.33984375,-38.57421875,-19.53125,0.0
1740797056.1213589,-17.578125,-48.33984375,-42.96875,-18.5546875,0.0
1740797056.125265,-23.92578125,-45.8984375,-42.48046875,-4.39453125,0.0
1740797056.1291707,-22.94921875,-52.734375,-30.76171875,-7.32421875,0.0
1740797056.1330767,-29.78515625,-49.8046875,-37.59765625,-27.83203125,0.0
1740797056.1369824,-25.390625,-47.36328125,-45.8984375,-25.87890625,0.0
1740797056.1408885,-19.53125,-47.8515625,-41.015625,-3.90625,0.0
1740797056.1447973,-21.97265625,-51.26953125,-45.41015625,-4.8828125,0.0
1740797056.148703,-12.6953125,-48.828125,-44.921875,-34.1796875,0.0
1740797056.152609,-36.1328125,-40.52734375,-42.48046875,-32.2265625,0.0
1740797056.156515,-35.15625,-35.64453125,-42.96875,-29.296875,0.0
1740797056.160421,-8.7890625,-40.52734375,-31.73828125,-26.85546875,0.0
1740797056.1643267,-2.9296875,-46.38671875,-31.73828125,-27.83203125,0.0
1740797056.1682327,-17.08984375,-43.45703125,-34.1796875,-20.01953125,0.0
1740797056.1721387,-18.06640625,-41.015625,-26.85546875,-12.6953125,0.0
1740797056.1760445,-26.3671875,-37.109375,-30.76171875,-16.11328125,0.0
1740797056.1799505,-9.765625,-34.1796875,-41.9921875,-23.4375,0.0
1740797056.1838562,-11.71875,-30.76171875,-34.1796875,-31.25,0.0
1740797056.1877623,-27.34375,-38.0859375,-26.3671875,-23.4375,0.0
1740797056.191671,-9.27734375,-46.875,-32.2265625,-22.94921875,0.0
1740797056.1955767,-17.578125,-46.875,-36.62109375,-9.765625,0.0
1740797056.1994827,-36.62109375,-42.48046875,-39.55078125,-2.9296875,0.0
1740797056.2033885,-25.87890625,-46.875,-39.0625,-10.7421875,0.0
1740797056.2072945,-22.4609375,-41.015625,-32.71484375,0.9765625,0.0
1740797056.2112005,-21.97265625,-42.96875,-28.80859375,3.90625,0.0
1740797056.2151062,-10.25390625,-47.36328125,-31.25,6.34765625,0.0
1740797056.2190123,-16.6015625,-40.0390625,-34.66796875,3.41796875,0.0
1740797056.222918,-8.7890625,-41.50390625,-40.0390625,-6.8359375,0.0
1740797056.226824,-0.9765625,-46.875,-38.0859375,-5.37109375,0.0
1740797056.2307298,-20.5078125,-39.55078125,-40.52734375,2.44140625,0.0
1740797056.2346358,6.8359375,-34.66796875,-65.4296875,-1.953125,0.0
1740797056.2385442,35.15625,-34.1796875,-67.87109375,6.34765625,0.0
1740797056.24245,19.04296875,-29.296875,-47.36328125,38.57421875,0.0
1740797056.246356,-9.27734375,-34.66796875,-33.69140625,28.80859375,0.0
1740797056.250262,-26.85546875,-35.64453125,-34.66796875,-17.578125,0.0
1740797056.2541678,-16.6015625,-33.203125,-35.15625,-1.46484375,0.0
1740797056.2580738,-10.7421875,-32.2265625,-36.62109375,13.671875,0.0
1740797056.2619796,17.578125,-36.62109375,-32.2265625,11.23046875,0.0
1740797056.2658856,35.64453125,-40.52734375,-34.1796875,15.625,0.0
1740797056.2697914,22.4609375,-38.57421875,-42.48046875,45.8984375,0.0
1740797056.2736974,38.57421875,-38.0859375,-43.45703125,26.85546875,0.0
1740797056.2776034,32.71484375,-42.48046875,-45.41015625,-16.6015625,0.0
1740797056.2815092,-13.671875,-49.8046875,-40.52734375,-6.34765625,0.0
1740797056.2854173,-28.80859375,-47.36328125,-33.69140625,9.765625,0.0
1740797056.2893233,-22.94921875,-41.50390625,-39.0625,7.8125,0.0
1740797056.293229,-2.44140625,-35.64453125,-39.0625,-7.32421875,0.0
1740797056.297135,-11.71875,-48.33984375,-35.64453125,11.23046875,0.0
1740797056.301041,-9.27734375,-56.15234375,-36.1328125,16.6015625,0.0
1740797056.304947,12.6953125,-51.7578125,-28.80859375,22.94921875,0.0
1740797056.308853,-15.13671875,-46.38671875,-29.296875,0.0,0.0
1740797056.3127587,-27.83203125,-56.640625,-34.1796875,-8.7890625,0.0
1740797056.3166647,-6.34765625,-63.96484375,-29.78515625,24.4140625,0.0
1740797056.3205705,-14.16015625,-46.875,-28.80859375,-1.953125,0.0
1740797056.3244765,-32.71484375,-49.8046875,-25.390625,-14.6484375,0.0
1740797056.3283823,-6.8359375,-52.24609375,-30.2734375,-2.9296875,0.0
1740797056.3322902,9.765625,-42.48046875,-38.0859375,-26.85546875,0.0
1740797056.3361962,-9.765625,-46.38671875,-37.59765625,-34.66796875,0.0
1740797056.3401022,-42.48046875,-52.24609375,-41.9921875,-25.390625,0.0
1740797056.344008,-46.38671875,-50.78125,-46.875,-32.2265625,0.0
1740797056.347914,-32.2265625,-50.29296875,-46.38671875,-32.2265625,0.0
1740797056.3518198,-25.87890625,-51.7578125,-42.48046875,-28.3203125,0.0
1740797056.3557258,-20.01953125,-49.8046875,-39.0625,-34.66796875,0.0
1740797056.3596315,-23.4375,-55.6640625,-44.921875,-16.11328125,0.0
1740797056.3635375,-30.2734375,-50.29296875,-45.8984375,-10.7421875,0.0
1740797056.3674436,-29.296875,-37.59765625,-42.48046875,-18.06640625,0.0
1740797056.3713493,-20.99609375,-49.31640625,-42.48046875,-11.23046875,0.0
1740797056.3752553,-1.953125,-54.19921875,-41.9921875,-17.08984375,0.0
1740797056.379163,-1.953125,-54.19921875,-44.43359375,-22.94921875,0.0
1740797056.3830688,-35.64453125,-57.6171875,-45.8984375,-19.53125,0.0
1740797056.3869748,-44.921875,-59.5703125,-43.9453125,-6.34765625,0.0
1740797056.3908806,-31.25,-62.5,-40.0390625,-2.9296875,0.0
1740797056.3947866,-3.41796875,-60.546875,-45.41015625,-5.859375,0.0
1740797056.3986926,-14.6484375,-56.640625,-41.9921875,-2.44140625,0.0
1740797056.4025984,-37.109375,-59.5703125,-37.59765625,1.46484375,0.0
1740797056.4065044,-18.5546875,-48.33984375,-38.57421875,-9.27734375,0.0
1740797056.4104102,-21.484375,-31.25,-42.96875,-17.08984375,0.0
1740797056.4143162,-18.06640625,-34.1796875,-42.96875,-26.3671875,0.0
1740797056.418222,-26.3671875,-35.15625,-43.9453125,-31.73828125,0.0
1740797056.422128,-23.4375,-37.109375,-48.33984375,-28.80859375,0.0
1740797056.4260354,-0.48828125,-34.66796875,-44.43359375,-38.0859375,0.0
1740797056.4299414,-25.390625,-33.69140625,-39.0625,-35.15625,0.0
1740797056.4338472,-47.36328125,-38.0859375,-34.66796875,-14.6484375,0.0
1740797056.4377532,-44.43359375,-34.66796875,-32.71484375,-13.18359375,0.0
1740797056.441659,-29.296875,-36.1328125,-31.73828125,-41.015625,0.0
1740797056.445565,-20.01953125,-37.109375,-32.71484375,-41.50390625,0.0
1740797056.449471,-29.296875,-38.57421875,-34.1796875,-19.04296875,0.0
1740797056.4533768,-38.57421875,-37.109375,-33.69140625,-27.34375,0.0
1740797056.4572828,-16.11328125,-22.94921875,-33.69140625,-33.203125,0.0
1740797056.4611886,-8.7890625,-30.2734375,-36.62109375,-36.1328125,0.0
1740797056.4650946,-27.83203125,-41.015625,-33.69140625,-49.31640625,0.0
1740797056.4690003,-20.99609375,-34.66796875,-39.0625,-39.0625,0.0
1740797056.4729095,-17.08984375,-27.83203125,-40.52734375,-32.2265625,0.0
1740797056.4768152,-16.6015625,-25.87890625,-33.69140625,-36.62109375,0.0
1740797056.4807212,-26.3671875,-23.4375,-35.64453125,-29.78515625,0.0
1740797056.4846272,-12.6953125,-18.06640625,-42.96875,-28.3203125,0.0
1740797056.488533,-23.4375,-29.296875,-40.52734375,-23.4375,0.0
1740797056.492439,-24.4140625,-44.43359375,-41.9921875,-27.34375,0.0
1740797056.4963448,-20.5078125,-43.9453125,-47.8515625,-34.66796875,0.0
1740797056.5002508,-45.8984375,-34.66796875,-50.78125,-44.921875,0.0
1740797056.5041566,-50.29296875,-33.69140625,-53.22265625,-51.7578125,0.0
1740797056.5080626,-33.69140625,-38.57421875,-50.78125,-39.55078125,0.0
1740797056.5119686,-32.71484375,-38.57421875,-45.41015625,-34.1796875,0.0
1740797056.5158744,-24.4140625,-30.76171875,-45.41015625,-38.0859375,0.0
1740797056.5197833,-42.48046875,-35.64453125,-45.41015625,-39.55078125,0.0
1740797056.5236893,-77.63671875,-42.48046875,-45.41015625,-46.875,0.0
1740797056.527595,-63.4765625,-34.66796875,-46.38671875,-53.22265625,0.0
1740797056.531501,-50.78125,-36.1328125,-36.62109375,-41.9921875,0.0
1740797056.5354068,-67.3828125,-43.9453125,-40.0390625,-40.52734375,0.0
1740797056.5393128,-57.12890625,-50.78125,-45.8984375,-42.48046875,0.0
1740797056.5432186,-44.43359375,-53.22265625,-41.015625,-37.59765625,0.0
1740797056.5471246,-46.38671875,-49.8046875,-45.41015625,-50.78125,0.0
1740797056.5510306,-55.6640625,-48.828125,-45.8984375,-51.7578125,0.0
1740797056.5549364,-60.546875,-57.6171875,-37.59765625,-44.43359375,0.0
1740797056.5588424,-40.52734375,-42.48046875,-38.57421875,-36.1328125,0.0
1740797056.5627482,-37.109375,-23.4375,-41.50390625,-34.66796875,0.0
1740797056.5666568,-44.921875,-29.78515625,-42.96875,-42.48046875,0.0
1740797056.5705628,-47.8515625,-39.55078125,-42.48046875,-37.109375,0.0
1740797056.5744686,-32.71484375,-40.0390625,-43.45703125,-31.25,0.0
1740797056.5783746,-18.06640625,-31.73828125,-41.9921875,-27.34375,0.0
1740797056.5822804,-22.4609375,-23.92578125,-44.921875,-20.99609375,0.0
1740797056.5861864,-16.6015625,-23.4375,-42.96875,-4.39453125,0.0
1740797056.5900922,-5.859375,-15.13671875,-36.62109375,-4.39453125,0.0
1740797056.5939982,-2.9296875,-8.7890625,-44.43359375,-35.64453125,0.0
1740797056.5979042,2.9296875,-24.4140625,-46.875,-33.69140625,0.0
1740797056.60181,-4.8828125,-27.34375,-40.0390625,-13.18359375,0.0
1740797056.605716,-13.18359375,-6.34765625,-41.9921875,-3.90625,0.0
1740797056.6096218,-2.44140625,-3.90625,-45.41015625,-15.13671875,0.0
1740797056.6135302,-10.25390625,-9.765625,-48.33984375,-51.7578125,0.0
1740797056.617436,-5.37109375,-14.6484375,-45.41015625,-55.6640625,0.0
1740797056.621342,2.9296875,-24.90234375,-46.875,-28.80859375,0.0
1740797056.625248,-14.16015625,-26.85546875,-47.8515625,-20.5078125,0.0
1740797056.6291537,-29.296875,-25.87890625,-47.36328125,-34.1796875,0.0
1740797056.6330597,-37.59765625,-34.66796875,-48.33984375,-41.015625,0.0
1740797056.6369655,-44.921875,-28.3203125,-46.875,-42.48046875,0.0
1740797056.6408715,-20.99609375,-17.08984375,-50.78125,-37.59765625,0.0
1740797056.6447773,-15.625,-25.87890625,-51.26953125,-31.25,0.0
1740797056.6486833,-28.80859375,-25.390625,-42.48046875,-41.015625,0.0
1740797056.6525893,-18.06640625,-27.83203125,-35.64453125,-38.57421875,0.0
1740797056.656495,-36.62109375,-32.2265625,-38.57421875,-31.73828125,0.0
1740797056.6604033,-21.97265625,-27.34375,-40.52734375,-44.921875,0.0
1740797056.6643093,-25.87890625,-26.3671875,-34.1796875,-49.31640625,0.0
1740797056.668215,-55.6640625,-30.76171875,-28.80859375,-32.2265625,0.0
1740797056.672121,-44.43359375,-32.71484375,-31.73828125,-51.7578125,0.0
1740797056.6760268,-35.15625,-35.64453125,-37.109375,-60.05859375,0.0
1740797056.6799328,-38.57421875,-36.1328125,-32.71484375,-47.36328125,0.0
1740797056.6838386,-45.41015625,-36.1328125,-34.1796875,-47.36328125,0.0
1740797056.6877446,-37.109375,-46.38671875,-33.203125,-48.828125,0.0
1740797056.6916506,-28.80859375,-51.7578125,-27.34375,-47.8515625,0.0
1740797056.6955564,-41.50390625,-40.52734375,-32.2265625,-45.8984375,0.0
1740797056.6994624,-43.45703125,-34.1796875,-37.109375,-50.78125,0.0
1740797056.7033682,-54.6875,-41.50390625,-39.55078125,-57.6171875,0.0
1740797056.707276,-53.22265625,-44.43359375,-44.43359375,-55.6640625,0.0
1740797056.711182,-31.73828125,-38.0859375,-49.31640625,-55.17578125,0.0
1740797056.715088,-34.66796875,-37.59765625,-40.52734375,-44.43359375,0.0
1740797056.718994,-49.8046875,-35.15625,-36.62109375,-36.1328125,0.0
1740797056.7228997,-37.109375,-36.1328125,-42.48046875,-32.2265625,0.0
1740797056.7268057,-11.71875,-48.33984375,-43.9453125,-37.109375,0.0
1740797056.7307117,-11.23046875,-47.8515625,-41.50390625,-39.55078125,0.0
1740797056.7346175,-22.94921875,-50.78125,-45.8984375,-22.94921875,0.0
1740797056.7385235,-6.8359375,-40.52734375,-54.6875,-22.94921875,0.0
1740797056.7424293,8.7890625,-25.87890625,-53.22265625,-28.3203125,0.0
1740797056.7463353,-9.27734375,-19.04296875,-51.7578125,-36.1328125,0.0
1740797056.750241,6.8359375,-17.08984375,-58.10546875,-47.8515625,0.0
1740797056.7541487,5.37109375,-20.01953125,-53.22265625,-29.296875,0.0
1740797056.7580547,-14.6484375,-16.11328125,-40.52734375,-10.25390625,0.0
1740797056.7619605,-18.06640625,-28.80859375,-41.50390625,-33.69140625,0.0
1740797056.7658665,-11.71875,-38.0859375,-45.8984375,-32.71484375,0.0
1740797056.7697725,12.20703125,-30.2734375,-40.52734375,-20.01953125,0.0
1740797056.7736783,12.6953125,-29.296875,-38.0859375,-19.53125,0.0
1740797056.7775843,-11.23046875,-31.73828125,-41.50390625,-27.83203125,0.0
1740797056.78149,-17.578125,-31.25,-42.48046875,-31.25,0.0
1740797056.785396,-23.4375,-25.87890625,-42.96875,-31.25,0.0
1740797056.7893019,-31.73828125,-32.2265625,-39.0625,-40.52734375,0.0
1740797056.793208,-6.34765625,-39.0625,-42.48046875,-34.1796875,0.0
1740797056.797114,-8.30078125,-38.0859375,-40.52734375,-31.73828125,0.0
1740797056.801021,-35.64453125,-46.38671875,-32.71484375,-56.640625,0.0
1740797056.804927,-43.9453125,-56.640625,-40.52734375,-62.5,0.0
1740797056.8088331,-40.52734375,-53.7109375,-43.45703125,-59.08203125,0.0
1740797056.812739,-37.59765625,-55.17578125,-39.0625,-54.19921875,0.0
1740797056.816645,-31.25,-62.01171875,-36.1328125,-39.55078125,0.0
1740797056.8205507,-46.38671875,-69.3359375,-41.015625,-46.38671875,0.0
1740797056.8244567,-64.94140625,-73.2421875,-39.0625,-60.546875,0.0
1740797056.8283625,-60.546875,-62.5,-35.15625,-75.68359375,0.0
1740797056.8322685,-48.828125,-52.734375,-39.0625,-74.70703125,0.0
1740797056.8361745,-48.33984375,-62.98828125,-40.52734375,-58.59375,0.0
1740797056.8400803,-23.92578125,-68.359375,-40.52734375,-52.734375,0.0
1740797056.8439863,-28.3203125,-60.05859375,-43.9453125,-51.7578125,0.0
1740797056.8478951,-51.26953125,-54.19921875,-49.8046875,-64.453125,0.0
1740797056.8518012,-38.0859375,-54.19921875,-42.96875,-57.6171875,0.0
1740797056.8557072,-44.43359375,-60.05859375,-35.64453125,-45.41015625,0.0
1740797056.859613,-30.76171875,-57.12890625,-41.9921875,-66.40625,0.0
1740797056.863519,-33.69140625,-52.24609375,-45.41015625,-70.3125,0.0
1740797056.8674247,-51.7578125,-65.4296875,-40.52734375,-55.6640625,0.0
1740797056.8713307,-56.640625,-62.01171875,-32.71484375,-58.59375,0.0
1740797056.8752365,-24.90234375,-44.921875,-41.015625,-62.01171875,0.0
1740797056.8791425,7.8125,-41.015625,-48.33984375,-53.22265625,0.0
1740797056.8830485,-5.37109375,-46.875,-44.921875,-52.734375,0.0
1740797056.8869543,-27.83203125,-45.8984375,-41.50390625,-40.52734375,0.0
1740797056.8908603,-44.43359375,-40.52734375,-42.48046875,-48.828125,0.0
1740797056.8947692,-25.390625,-41.9921875,-51.7578125,-63.96484375,0.0
1740797056.898675,-15.625,-34.66796875,-50.78125,-54.19921875,0.0
1740797056.902581,-6.34765625,-29.296875,-43.45703125,-41.015625,0.0
1740797056.9064867,31.25,-28.3203125,-37.59765625,-48.33984375,0.0
1740797056.9103928,15.625,-35.15625,-39.55078125,-47.36328125,0.0
1740797056.9142985,-20.01953125,-32.71484375,-42.96875,-19.04296875,0.0
1740797056.9182045,-7.8125,-25.390625,-38.0859375,-17.578125,0.0
1740797056.9221106,2.44140625,-30.2734375,-48.828125,-38.0859375,0.0
1740797056.9260163,-11.23046875,-34.66796875,-51.26953125,-41.9921875,0.0
1740797056.9299223,-20.01953125,-45.41015625,-44.921875,-50.29296875,0.0
1740797056.933828,-11.71875,-41.015625,-50.78125,-27.34375,0.0
1740797056.9377341,-20.01953125,-25.390625,-43.9453125,-18.5546875,0.0
1740797056.9416428,18.5546875,-38.0859375,-36.62109375,-32.71484375,0.0
1740797056.9455485,20.5078125,-43.45703125,-30.76171875,-8.30078125,0.0
1740797056.9494545,-22.94921875,-31.73828125,-23.4375,-18.06640625,0.0
1740797056.9533606,-9.27734375,-39.55078125,-27.34375,-26.85546875,0.0
1740797056.9572663,-1.46484375,-42.96875,-39.0625,-5.37109375,0.0
1740797056.9611723,4.39453125,-37.59765625,-33.203125,-19.04296875,0.0
1740797056.965078,9.27734375,-35.64453125,-30.2734375,-16.11328125,0.0
1740797056.9689841,-4.39453125,-32.71484375,-31.25,-7.32421875,0.0
1740797056.97289,-35.64453125,-42.96875,-30.76171875,-25.390625,0.0
1740797056.976796,-9.27734375,-52.734375,-35.64453125,-21.97265625,0.0
1740797056.980702,-14.6484375,-45.8984375,-29.78515625,-5.859375,0.0
1740797056.9846077,-46.38671875,-54.6875,-20.99609375,-29.296875,0.0
1740797056.988516,-42.96875,-45.8984375,-31.25,-50.29296875,0.0
1740797056.992422,-27.34375,-41.9921875,-31.25,-16.6015625,0.0
1740797056.9963279,-13.671875,-68.359375,-31.73828125,-16.6015625,0.0
1740797057.000234,-42.96875,-71.77734375,-41.50390625,-24.90234375,0.0
1740797057.0041397,-48.828125,-64.94140625,-30.76171875,-19.04296875,0.0
1740797057.0080457,-26.3671875,-67.87109375,-32.71484375,-37.59765625,0.0
1740797057.0119517,-51.7578125,-34.66796875,-38.0859375,-82.51953125,0.0
1740797057.0158575,-84.47265625,-20.5078125,-41.9921875,-104.00390625,0.0
1740797057.0197635,-122.0703125,-55.17578125,-52.24609375,-112.79296875,0.0
1740797057.0236692,-191.40625,3.41796875,-41.015625,-153.80859375,0.0
1740797057.0275753,-110.3515625,-30.2734375,-48.828125,-104.00390625,0.0
1740797057.031481,-175.29296875,-13.18359375,-32.71484375,-192.87109375,0.0
1740797057.0353892,-273.4375,-8.30078125,-19.04296875,-255.859375,0.0
1740797057.0392952,-182.12890625,-48.33984375,-41.015625,-163.57421875,0.0
1740797057.043201,-291.015625,-3.90625,32.2265625,-314.94140625,0.0
1740797057.047107,-380.37109375,-43.9453125,-7.32421875,-311.03515625,0.0
1740797057.051013,-278.3203125,-60.05859375,-67.3828125,-174.8046875,0.0
1740797057.0549188,-233.3984375,-77.1484375,0.48828125,-349.609375,0.0
1740797057.0588248,-309.08203125,-46.38671875,-72.75390625,-229.98046875,0.0
1740797057.0627306,-134.765625,-68.359375,-98.14453125,7.32421875,0.0
1740797057.0666366,65.91796875,-47.8515625,-36.1328125,-133.30078125,0.0
1740797057.0705423,-138.671875,-8.30078125,-22.4609375,-243.1640625,0.0
1740797057.0744483,-234.86328125,-23.4375,-56.15234375,-128.41796875,0.0
1740797057.0783544,-150.390625,-50.29296875,-75.68359375,-63.4765625,0.0
1740797057.0822623,25.87890625,-61.5234375,-22.94921875,-11.71875,0.0
1740797057.086168,16.11328125,-31.73828125,0.48828125,25.390625,0.0
1740797057.090074,105.95703125,-58.10546875,-25.87890625,176.26953125,0.0
1740797057.0939798,141.11328125,-56.15234375,-43.9453125,220.21484375,0.0
1740797057.0978858,84.47265625,-88.8671875,-32.2265625,157.71484375,0.0
1740797057.1017919,121.09375,14.16015625,-65.4296875,91.796875,0.0
1740797057.1056976,12.20703125,-25.87890625,-62.5,111.328125,0.0
1740797057.1096036,250.0,-114.2578125,-83.49609375,250.0,0.0
1740797057.1135094,241.2109375,-73.2421875,-25.87890625,150.390625,0.0
1740797057.1174154,-270.01953125,46.875,11.71875,-429.19921875,0.0
1740797057.1213212,62.01171875,-31.25,-44.43359375,-81.0546875,0.0
1740797057.1252272,687.5,-146.97265625,-94.7265625,714.35546875,0.0
1740797057.129135,452.63671875,-65.4296875,-58.10546875,371.09375,0.0
1740797057.1330407,240.72265625,-49.8046875,-43.9453125,121.09375,0.0
1740797057.1369467,195.80078125,-59.5703125,-36.62109375,98.14453125,0.0
1740797057.1408527,-150.87890625,39.0625,-36.1328125,-177.734375,0.0
1740797057.1447585,-448.2421875,-28.3203125,16.11328125,-480.46875,0.0
1740797057.1486645,-372.55859375,-140.625,11.71875,-436.5234375,0.0
1740797057.1525702,55.6640625,17.578125,-62.01171875,-97.16796875,0.0
1740797057.1564763,536.1328125,-25.87890625,-51.7578125,370.1171875,0.0
1740797057.160382,345.703125,-111.328125,-33.203125,377.9296875,0.0
1740797057.164288,81.54296875,-102.5390625,-41.50390625,150.87890625,0.0
1740797057.168194,128.41796875,-92.7734375,-73.2421875,229.4921875,0.0
1740797057.1720998,214.35546875,-51.7578125,-18.5546875,40.52734375,0.0
1740797057.1760075,220.21484375,-34.66796875,4.39453125,-106.4453125,0.0
1740797057.1799133,198.73046875,-67.3828125,-100.09765625,97.65625,0.0
1740797057.1838193,92.28515625,-33.69140625,-59.5703125,27.34375,0.0
1740797057.187725,1.953125,-28.80859375,-52.734375,-68.359375,0.0
1740797057.191631,159.1796875,-141.6015625,-26.3671875,37.59765625,0.0
1740797057.1955369,185.546875,-94.7265625,-30.2734375,-40.0390625,0.0
1740797057.1994429,30.76171875,-66.89453125,-78.61328125,-50.78125,0.0
1740797057.2033489,24.4140625,-86.42578125,-29.296875,-13.18359375,0.0
1740797057.2072546,134.765625,-73.2421875,-36.1328125,41.015625,0.0
1740797057.2111607,219.7265625,-51.26953125,-67.87109375,52.24609375,0.0
1740797057.2150664,27.83203125,-85.9375,-59.5703125,78.61328125,0.0
1740797057.2189724,-26.85546875,-55.6640625,-27.34375,-9.27734375,0.0
1740797057.2228816,0.0,4.8828125,-37.109375,-49.8046875,0.0
1740797057.2267876,0.0,-83.984375,-39.55078125,-66.89453125,0.0
1740797057.2306933,0.0,-93.26171875,-45.41015625,-22.94921875,0.0
1740797057.2345994,0.0,-33.69140625,-68.359375,54.6875,0.0
1740797057.2385051,0.0,-80.078125,-1.953125,28.3203125,0.0
1740797057.2424111,0.0,-86.9140625,-10.25390625,-12.6953125,0.0
1740797057.2463171,0.0,-27.83203125,-88.37890625,5.859375,0.0
1740797057.250223,0.0,-34.66796875,-37.109375,-9.27734375,0.0
1740797057.254129,0.0,-60.546875,-30.2734375,-1.953125,0.0
1740797057.2580347,0.0,0.48828125,-50.29296875,-26.3671875,0.0
1740797057.2619407,0.0,10.25390625,-7.32421875,-81.54296875,0.0
1740797057.2658465,0.0,-85.9375,-20.5078125,70.3125,0.0
1740797057.2697556,182.12890625,-79.58984375,-65.4296875,147.94921875,0.0
1740797057.2736614,231.93359375,-64.453125,-34.1796875,94.7265625,0.0
1740797057.2775674,86.9140625,-47.8515625,-5.37109375,-17.08984375,0.0
1740797057.2814732,41.015625,-6.34765625,-20.01953125,-21.97265625,0.0
1740797057.2853792,29.296875,-28.3203125,-25.390625,-1.46484375,0.0
1740797057.289285,73.2421875,-46.875,-38.57421875,-11.71875,0.0
1740797057.293191,115.234375,-10.7421875,-60.05859375,20.01953125,0.0
1740797057.297097,111.81640625,-26.85546875,-37.59765625,-19.04296875,0.0
1740797057.3010027,72.75390625,-73.2421875,-27.34375,0.9765625,0.0
1740797057.3049088,-7.32421875,-60.546875,-34.66796875,10.7421875,0.0
1740797057.3088145,46.38671875,-42.48046875,-29.296875,20.99609375,0.0
1740797057.3127205,83.49609375,-43.45703125,-35.15625,10.7421875,0.0
1740797057.3166292,-30.76171875,9.765625,-36.1328125,-21.484375,0.0
1740797057.320535,-1.46484375,-30.76171875,-41.9921875,-13.671875,0.0
1740797057.324441,25.390625,-101.07421875,-32.2265625,-49.8046875,0.0
1740797057.3283467,-4.39453125,-48.33984375,-43.9453125,-102.05078125,0.0
1740797057.3322527,51.7578125,-45.8984375,-44.921875,0.9765625,0.0
1740797057.3361585,-10.7421875,-19.53125,-39.0625,12.20703125,0.0
1740797057.3400645,-5.859375,-46.38671875,-36.62109375,-21.484375,0.0
1740797057.3439705,67.3828125,-55.17578125,-35.15625,-14.16015625,0.0
1740797057.3478763,53.7109375,-66.89453125,-20.99609375,-1.953125,0.0
1740797057.3517823,10.25390625,-70.3125,-30.2734375,-33.203125,0.0
1740797057.355688,12.20703125,-82.03125,-42.96875,-34.66796875,0.0
1740797057.359594,22.94921875,-78.125,-41.9921875,-27.83203125,0.0
1740797057.3635025,27.34375,-64.94140625,-52.734375,-25.87890625,0.0
1740797057.3674083,-39.0625,-73.2421875,-31.73828125,-62.98828125,0.0
1740797057.3713143,-34.66796875,-68.359375,-38.57421875,-79.58984375,0.0
1740797057.37522,-2.9296875,-83.984375,-24.90234375,-7.32421875,0.0
1740797057.379126,-3.41796875,-77.1484375,-24.90234375,-38.57421875,0.0
1740797057.3830318,-0.9765625,-62.98828125,-46.38671875,-54.19921875,0.0
1740797057.3869379,-1.953125,-74.70703125,-50.29296875,-29.296875,0.0
1740797057.3908439,27.83203125,-68.84765625,-46.875,-49.31640625,0.0
1740797057.3947496,25.390625,-61.03515625,-31.73828125,-66.89453125,0.0
1740797057.3986557,15.625,-72.265625,-33.69140625,-4.8828125,0.0
1740797057.4025614,2.44140625,-57.12890625,-35.15625,-67.3828125,0.0
1740797057.4064674,-20.01953125,-46.38671875,-41.9921875,-98.6328125,0.0
1740797057.4103756,-22.94921875,-59.5703125,-31.73828125,-54.6875,0.0
1740797057.4142814,-14.16015625,-41.50390625,-41.015625,-59.08203125,0.0
1740797057.4181874,-7.8125,-44.921875,-39.55078125,-53.22265625,0.0
1740797057.4220932,-7.32421875,-51.26953125,-20.5078125,-48.828125,0.0
1740797057.4259992,-15.625,-42.96875,-38.57421875,-61.5234375,0.0
1740797057.4299052,-7.32421875,-55.6640625,-48.828125,-96.19140625,0.0
1740797057.433811,-34.1796875,-69.3359375,-37.59765625,-96.6796875,0.0
1740797057.437717,-28.80859375,-72.265625,-36.62109375,-81.0546875,0.0
1740797057.4416227,6.8359375,-54.19921875,-27.83203125,-109.375,0.0
1740797057.4455287,-14.16015625,-36.1328125,-26.3671875,-170.41015625,0.0
1740797057.4494345,-29.296875,-37.59765625,-38.57421875,-128.90625,0.0
1740797057.4533405,-28.3203125,-46.875,-32.2265625,-126.953125,0.0
1740797057.4572484,-35.15625,-21.484375,-37.59765625,-195.80078125,0.0
1740797057.4611542,-27.83203125,-31.25,-40.52734375,-190.4296875,0.0
1740797057.4650602,-45.41015625,-48.828125,-26.3671875,-163.57421875,0.0
1740797057.4689662,-55.17578125,-39.0625,-28.80859375,-157.71484375,0.0
1740797057.472872,-41.50390625,-43.9453125,-32.2265625,-143.5546875,0.0
1740797057.476778,-60.546875,-41.9921875,-24.90234375,-183.59375,0.0
1740797057.4806838,-62.01171875,-42.48046875,-24.4140625,-174.8046875,0.0
1740797057.4845898,-61.03515625,-62.5,-30.76171875,-118.1640625,0.0
1740797057.4884956,-87.40234375,-56.15234375,-28.3203125,-170.8984375,0.0
1740797057.4924016,-66.89453125,-25.390625,-29.296875,-203.61328125,0.0
1740797057.4963076,-57.12890625,-32.71484375,-37.109375,-179.6875,0.0
1740797057.5002134,-64.453125,-51.26953125,-45.8984375,-193.84765625,0.0
1740797057.504121,-83.49609375,-54.19921875,-35.64453125,-235.3515625,0.0
1740797057.508027,-63.4765625,-53.7109375,-37.109375,-276.85546875,0.0
1740797057.5119328,-68.84765625,-62.5,-35.64453125,-271.484375,0.0
1740797057.5158389,-117.67578125,-52.734375,-36.62109375,-267.08984375,0.0
1740797057.5197446,-123.046875,-46.38671875,-41.015625,-268.06640625,0.0
1740797057.5236506,-96.19140625,-72.75390625,-31.25,-264.6484375,0.0
1740797057.5275567,-78.61328125,-60.546875,-37.109375,-256.34765625,0.0
1740797057.5314624,-86.42578125,-49.8046875,-39.0625,-231.4453125,0.0
1740797057.5353684,-80.56640625,-56.15234375,-34.66796875,-194.3359375,0.0
1740797057.5392742,-66.89453125,-59.5703125,-31.73828125,-173.828125,0.0
1740797057.5431802,-91.796875,-57.12890625,-19.53125,-166.50390625,0.0
1740797057.547086,-91.30859375,-51.26953125,-26.3671875,-144.53125,0.0
1740797057.5509937,-85.9375,-40.0390625,-44.921875,-115.72265625,0.0
1740797057.5548995,-84.47265625,-48.33984375,-35.15625,-85.44921875,0.0
1740797057.5588055,-63.96484375,-54.19921875,-31.73828125,-83.984375,0.0
1740797057.5627112,-66.40625,-46.875,-32.2265625,-80.56640625,0.0
1740797057.5666173,-80.078125,-41.9921875,-31.73828125,-71.77734375,0.0
1740797057.570523,-83.0078125,-41.50390625,-36.62109375,-74.70703125,0.0
1740797057.574429,-60.05859375,-55.17578125,-32.71484375,-55.6640625,0.0
1740797057.578335,-23.4375,-54.6875,-24.4140625,-26.3671875,0.0
1740797057.5822408,-38.0859375,-40.0390625,-21.97265625,-28.80859375,0.0
1740797057.5861468,-62.98828125,-33.203125,-27.34375,-32.71484375,0.0
1740797057.5900526,-68.84765625,-29.296875,-27.34375,-43.45703125,0.0
1740797057.5939586,-59.5703125,-34.1796875,-16.11328125,-36.1328125,0.0
1740797057.5978658,0.0,-38.57421875,-12.6953125,-26.85546875,0.0
1740797057.6017718,0.0,-32.2265625,-20.99609375,-28.3203125,0.0
1740797057.6056778,0.0,-36.1328125,-21.484375,-18.06640625,0.0
1740797057.6095836,0.0,-36.1328125,-26.3671875,-26.85546875,0.0
1740797057.6134896,0.0,-41.50390625,-30.2734375,-36.1328125,0.0
1740797057.6173954,0.0,-59.5703125,-27.83203125,-5.859375,0.0
1740797057.6213014,0.0,-54.19921875,-27.34375,-43.45703125,0.0
1740797057.6252072,0.0,-41.015625,-29.296875,-61.5234375,0.0
1740797057.6291132,0.0,-60.546875,-23.4375,-28.3203125,0.0
1740797057.6330192,0.0,-67.3828125,-27.34375,-30.76171875,0.0
1740797057.636925,0.0,-54.19921875,-32.2265625,-13.18359375,0.0
1740797057.640831,0.0,-62.98828125,-21.97265625,-15.625,0.0
1740797057.6447399,-38.0859375,-68.84765625,-25.390625,-25.87890625,0.0
1740797057.6486456,-45.41015625,-62.98828125,-36.62109375,-21.484375,0.0
1740797057.6525517,-56.15234375,-64.453125,-32.2265625,-11.23046875,0.0
1740797057.6564577,-72.75390625,-71.2890625,-27.83203125,-24.4140625,0.0
1740797057.6603634,-75.68359375,-78.125,-33.69140625,-31.25,0.0
1740797057.6642694,-56.15234375,-81.0546875,-35.15625,-8.7890625,0.0
1740797057.6681752,-79.58984375,-75.68359375,-30.2734375,-16.11328125,0.0
1740797057.6720812,-87.40234375,-71.2890625,-34.66796875,-30.76171875,0.0
1740797057.675987,-61.5234375,-74.21875,-30.76171875,-32.2265625,0.0
1740797057.679893,-49.8046875,-84.47265625,-18.06640625,-26.85546875,0.0
1740797057.683799,-82.51953125,-76.66015625,-23.4375,-29.296875,0.0
1740797057.6877048,-104.98046875,-67.3828125,-25.390625,-20.5078125,0.0
1740797057.6916134,-86.9140625,-86.9140625,-26.85546875,-5.859375,0.0
1740797057.6955192,-69.82421875,-90.8203125,-37.59765625,-12.20703125,0.0
1740797057.6994252,-74.70703125,-83.0078125,-41.9921875,-18.5546875,0.0
1740797057.7033312,-82.51953125,-94.7265625,-39.0625,-20.99609375,0.0
1740797057.707237,-72.75390625,-97.65625,-36.62109375,-5.37109375,0.0
1740797057.711143,-55.17578125,-91.30859375,-35.15625,-0.48828125,0.0
1740797057.7150488,-62.5,-83.0078125,-41.9921875,-14.16015625,0.0
1740797057.7189548,-79.58984375,-85.9375,-40.52734375,-13.671875,0.0
1740797057.7228606,-57.12890625,-100.09765625,-33.203125,-19.53125,0.0
1740797057.7267666,-37.109375,-97.65625,-35.64453125,-17.08984375,0.0
1740797057.7306726,-66.40625,-77.1484375,-33.203125,5.37109375,0.0
1740797057.7345784,-75.68359375,-85.44921875,-27.34375,6.34765625,0.0
1740797057.7384868,-59.5703125,-104.4921875,-30.76171875,7.8125,0.0
1740797057.7423925,-38.57421875,-96.19140625,-36.1328125,12.20703125,0.0
1740797057.7462986,-30.76171875,-84.47265625,-36.62109375,10.25390625,0.0
1740797057.7502046,-41.50390625,-90.8203125,-32.71484375,-3.41796875,0.0
1740797057.7541103,-51.7578125,-93.75,-30.76171875,1.953125,0.0
1740797057.7580163,-48.828125,-96.6796875,-34.66796875,11.71875,0.0
1740797057.7619221,-37.59765625,-102.5390625,-29.296875,1.953125,0.0
1740797057.7658281,-55.6640625,-101.07421875,-26.3671875,12.20703125,0.0
1740797057.769734,-61.5234375,-105.95703125,-26.3671875,18.5546875,0.0
1740797057.77364,-51.7578125,-95.21484375,-29.78515625,2.9296875,0.0
1740797057.777546,-28.80859375,-87.40234375,-35.64453125,-2.9296875,0.0
1740797057.7814517,-25.87890625,-93.26171875,-27.83203125,11.71875,0.0
1740797057.7853599,-50.29296875,-89.35546875,-25.87890625,-10.25390625,0.0
1740797057.7892659,-50.78125,-87.40234375,-33.69140625,-19.04296875,0.0
1740797057.793172,-37.59765625,-89.84375,-36.62109375,-1.46484375,0.0
1740797057.7970777,-46.38671875,-89.84375,-37.109375,-20.01953125,0.0
1740797057.8009837,-50.29296875,-90.8203125,-31.25,-18.5546875,0.0
1740797057.8048894,-35.64453125,-89.35546875,-28.80859375,-3.90625,0.0
1740797057.8087955,-36.62109375,-86.9140625,-31.25,-9.765625,0.0
1740797057.8127012,-41.9921875,-100.09765625,-31.25,-6.34765625,0.0
1740797057.8166072,-48.33984375,-102.5390625,-33.203125,-11.71875,0.0
1740797057.8205132,-55.17578125,-90.8203125,-31.25,-18.5546875,0.0
1740797057.824419,-57.6171875,-93.26171875,-32.2265625,-38.57421875,0.0
1740797057.828325,-59.08203125,-94.7265625,-43.45703125,-49.31640625,0.0
1740797057.832233,-62.98828125,-101.5625,-42.96875,-31.25,0.0
1740797057.836139,-69.3359375,-104.4921875,-34.66796875,-21.484375,0.0
1740797057.8400447,-63.96484375,-108.3984375,-35.64453125,-19.53125,0.0
1740797057.8439507,-52.24609375,-103.02734375,-35.64453125,-28.80859375,0.0
1740797057.8478565,-54.19921875,-95.21484375,-36.1328125,-27.34375,0.0
1740797057.8517625,-65.4296875,-104.00390625,-41.9921875,-38.57421875,0.0
1740797057.8556685,-52.24609375,-114.2578125,-40.52734375,-42.48046875,0.0
1740797057.8595743,-59.08203125,-111.81640625,-42.48046875,-33.203125,0.0
1740797057.8634803,-75.1953125,-102.5390625,-48.828125,-35.15625,0.0
1740797057.867386,-73.2421875,-98.14453125,-41.015625,-34.66796875,0.0
1740797057.871292,-84.47265625,-102.05078125,-32.71484375,-47.36328125,0.0
1740797057.875198,-63.96484375,-106.4453125,-33.69140625,-42.48046875,0.0
1740797057.8791056,-44.43359375,-95.21484375,-44.43359375,-27.34375,0.0
1740797057.8830116,-67.87109375,-95.21484375,-45.8984375,-36.62109375,0.0
1740797057.8869176,-65.91796875,-104.4921875,-40.0390625,-32.71484375,0.0
1740797057.8908234,-56.15234375,-107.421875,-42.48046875,-41.015625,0.0
1740797057.8947294,-70.3125,-100.5859375,-36.1328125,-36.1328125,0.0
1740797057.8986351,-69.82421875,-97.65625,-30.2734375,-28.3203125,0.0
1740797057.9025412,-79.1015625,-99.12109375,-34.1796875,-24.4140625,0.0
1740797057.906447,-64.94140625,-95.703125,-28.80859375,-14.6484375,0.0
1740797057.910353,-33.203125,-86.9140625,-22.94921875,-21.97265625,0.0
1740797057.914259,-36.62109375,-88.37890625,-25.390625,-20.01953125,0.0
1740797057.9181647,-54.19921875,-85.9375,-26.85546875,-21.484375,0.0
1740797057.9220707,-42.96875,-89.35546875,-24.90234375,-24.90234375,0.0
1740797057.9259782,-38.57421875,-90.33203125,-25.87890625,-30.2734375,0.0
1740797057.929884,-46.875,-85.44921875,-29.296875,-24.4140625,0.0
1740797057.93379,-48.33984375,-87.890625,-25.87890625,-24.90234375,0.0
1740797057.937696,-50.78125,-83.984375,-24.4140625,-39.55078125,0.0
1740797057.9416018,-35.64453125,-84.47265625,-30.2734375,-41.50390625,0.0
1740797057.9455078,-31.73828125,-88.37890625,-31.73828125,-39.55078125,0.0
1740797057.9494135,-45.41015625,-91.796875,-32.2265625,-35.15625,0.0
1740797057.9533195,-54.6875,-81.0546875,-35.15625,-46.38671875,0.0
1740797057.9572256,-42.96875,-68.359375,-37.109375,-58.59375,0.0
1740797057.9611313,-40.0390625,-70.80078125,-37.59765625,-48.828125,0.0
1740797057.9650373,-56.640625,-69.82421875,-40.0390625,-48.828125,0.0
1740797057.968943,-72.75390625,-69.82421875,-44.921875,-59.5703125,0.0
1740797057.9728506,-81.54296875,-71.2890625,-44.43359375,-64.94140625,0.0
1740797057.9767563,-73.2421875,-75.1953125,-41.015625,-59.08203125,0.0
1740797057.9806623,-64.453125,-80.56640625,-41.50390625,-40.52734375,0.0
1740797057.9845684,-69.3359375,-75.1953125,-46.875,-40.52734375,0.0
1740797057.9884741,-68.84765625,-71.77734375,-46.875,-50.29296875,0.0
1740797057.9923801,-54.19921875,-89.35546875,-41.015625,-30.2734375,0.0
1740797057.996286,-58.10546875,-93.75,-43.9453125,-32.71484375,0.0
1740797058.000192,-53.22265625,-72.265625,-41.50390625,-44.43359375,0.0
1740797058.0040977,-65.4296875,-70.3125,-39.0625,-44.43359375,0.0
1740797058.0080037,-86.9140625,-86.9140625,-37.59765625,-41.015625,0.0
1740797058.0119097,-72.75390625,-83.0078125,-36.62109375,-32.2265625,0.0
1740797058.0158155,-69.82421875,-69.3359375,-41.015625,-35.64453125,0.0
1740797058.0197244,-87.890625,-80.078125,-32.71484375,-36.1328125,0.0
1740797058.0236304,-77.1484375,-80.078125,-34.1796875,-34.66796875,0.0
1740797058.0275362,-59.5703125,-67.3828125,-33.69140625,-36.62109375,0.0
1740797058.0314422,-64.94140625,-69.3359375,-36.62109375,-40.52734375,0.0
1740797058.0353482,-60.05859375,-72.265625,-40.0390625,-30.76171875,0.0
1740797058.039254,-54.19921875,-79.1015625,-36.1328125,-29.78515625,0.0
1740797058.04316,-50.78125,-76.66015625,-39.0625,-42.96875,0.0
1740797058.0470657,-48.33984375,-74.21875,-40.0390625,-39.0625,0.0
1740797058.0509717,-61.5234375,-77.1484375,-36.62109375,-35.15625,0.0
1740797058.0548775,-77.63671875,-90.33203125,-30.2734375,-38.0859375,0.0
1740797058.0587835,-74.21875,-84.9609375,-28.3203125,-41.50390625,0.0
1740797058.0626895,-57.6171875,-69.82421875,-34.66796875,-49.31640625,0.0
1740797058.066598,-67.87109375,-73.2421875,-35.64453125,-42.96875,0.0
1740797058.070504,-72.75390625,-69.82421875,-31.73828125,-37.109375,0.0
1740797058.0744097,-57.6171875,-65.4296875,-38.0859375,-43.9453125,0.0
1740797058.0783157,-46.38671875,-67.87109375,-35.15625,-34.1796875,0.0
1740797058.0822215,-58.59375,-69.82421875,-30.76171875,-32.2265625,0.0
1740797058.0861275,-59.5703125,-66.89453125,-32.2265625,-37.59765625,0.0
1740797058.0900335,-42.48046875,-60.546875,-33.69140625,-26.85546875,0.0
1740797058.0939393,-18.5546875,-65.91796875,-28.3203125,-30.2734375,0.0
1740797058.0978453,-22.94921875,-71.2890625,-25.87890625,-26.85546875,0.0
1740797058.101751,-42.96875,-68.84765625,-31.73828125,-22.94921875,0.0
1740797058.105657,-53.7109375,-64.453125,-28.80859375,-38.57421875,0.0
1740797058.109563,-54.19921875,-63.4765625,-28.3203125,-35.64453125,0.0
1740797058.1134713,-50.29296875,-61.03515625,-33.69140625,-30.2734375,0.0
1740797058.1173773,-68.84765625,-49.31640625,-37.59765625,-13.18359375,0.0
1740797058.121283,-62.98828125,-50.78125,-40.52734375,-14.16015625,0.0
1740797058.125189,-38.57421875,-60.05859375,-37.109375,-33.203125,0.0
1740797058.129095,-26.3671875,-62.01171875,-28.80859375,-15.625,0.0
1740797058.1330009,-35.15625,-59.5703125,-26.3671875,-1.953125,0.0
1740797058.1369069,-40.0390625,-62.01171875,-27.83203125,-14.16015625,0.0
1740797058.1408126,-29.296875,-69.82421875,-23.4375,-8.7890625,0.0
1740797058.1447186,-48.33984375,-74.70703125,-24.90234375,6.34765625,0.0
1740797058.1486244,-70.80078125,-65.4296875,-29.78515625,-22.94921875,0.0
1740797058.1525304,-68.84765625,-62.5,-29.296875,-36.62109375,0.0
1740797058.1564364,-60.05859375,-72.75390625,-31.25,-18.06640625,0.0
1740797058.1603463,-56.15234375,-67.87109375,-36.62109375,-27.83203125,0.0
1740797058.1642523,-47.8515625,-69.82421875,-35.15625,-38.57421875,0.0
1740797058.168158,-54.19921875,-72.75390625,-32.71484375,-34.66796875,0.0
1740797058.172064,-61.5234375,-76.171875,-37.109375,-38.57421875,0.0
1740797058.1759698,-55.17578125,-74.70703125,-36.1328125,-49.31640625,0.0
1740797058.1798759,-46.875,-76.66015625,-37.109375,-30.76171875,0.0
1740797058.1837816,-46.875,-74.21875,-41.9921875,-21.97265625,0.0
1740797058.1876876,-52.24609375,-89.84375,-40.0390625,-35.15625,0.0
1740797058.1915936,-48.33984375,-105.46875,-35.15625,-32.71484375,0.0
1740797058.1954994,-62.98828125,-88.37890625,-33.203125,-55.6640625,0.0
1740797058.1994054,-62.01171875,-86.9140625,-36.62109375,-54.19921875,0.0
1740797058.2033112,-47.36328125,-82.03125,-35.15625,-25.390625,0.0
1740797058.2072194,-44.921875,-74.21875,-28.80859375,-28.80859375,0.0
1740797058.2111251,-44.43359375,-69.82421875,-25.87890625,-28.80859375,0.0
1740797058.2150311,-49.31640625,-66.40625,-26.3671875,-23.4375,0.0
1740797058.218937,-57.12890625,-68.359375,-29.78515625,-25.390625,0.0
1740797058.222843,-64.94140625,-69.82421875,-33.203125,-25.87890625,0.0
1740797058.226749,-49.8046875,-76.171875,-35.15625,-27.34375,0.0
1740797058.2306547,-48.33984375,-82.03125,-37.59765625,-29.296875,0.0
1740797058.2345607,-66.89453125,-77.63671875,-39.55078125,-28.3203125,0.0
1740797058.2384665,-67.87109375,-73.73046875,-38.0859375,-32.71484375,0.0
1740797058.2423725,-57.12890625,-79.1015625,-35.64453125,-28.3203125,0.0
1740797058.2462783,-51.7578125,-84.47265625,-34.1796875,-22.4609375,0.0
1740797058.2501843,-59.08203125,-89.35546875,-29.78515625,-18.06640625,0.0
1740797058.2540936,-55.17578125,-76.66015625,-29.296875,-25.390625,0.0
1740797058.2579997,-36.1328125,-64.94140625,-27.34375,-33.69140625,0.0
1740797058.2619057,-28.3203125,-70.3125,-28.3203125,-25.390625,0.0
1740797058.2658114,-51.26953125,-73.73046875,-33.203125,-23.92578125,0.0
1740797058.2697175,-49.31640625,-75.1953125,-33.203125,-14.6484375,0.0
1740797058.2736232,-35.64453125,-74.21875,-31.25,-14.16015625,0.0
1740797058.2775292,-41.015625,-76.66015625,-28.80859375,-23.92578125,0.0
1740797058.281435,-49.8046875,-67.87109375,-35.64453125,-17.08984375,0.0
1740797058.285341,-55.17578125,-49.8046875,-37.109375,-15.13671875,0.0
1740797058.289247,-45.8984375,-58.59375,-31.73828125,-18.06640625,0.0
1740797058.2931528,-36.62109375,-69.3359375,-38.57421875,-21.484375,0.0
1740797058.2970588,-31.25,-77.1484375,-36.1328125,-31.73828125,0.0
1740797058.3009663,-35.64453125,-70.80078125,-39.55078125,-30.2734375,0.0
1740797058.304872,-50.78125,-60.05859375,-44.921875,-37.109375,0.0
1740797058.308778,-35.15625,-72.265625,-37.109375,-30.2734375,0.0
1740797058.3126838,-33.203125,-74.21875,-36.62109375,-20.5078125,0.0
1740797058.3165898,-62.01171875,-73.2421875,-43.45703125,-31.25,0.0
1740797058.3204958,-66.40625,-79.1015625,-38.57421875,-25.87890625,0.0
1740797058.3244016,-54.19921875,-75.68359375,-31.25,-31.25,0.0
1740797058.3283076,-43.45703125,-68.84765625,-34.1796875,-32.71484375,0.0
1740797058.3322134,-48.33984375,-68.359375,-39.0625,-36.62109375,0.0
1740797058.3361194,-64.94140625,-70.80078125,-39.55078125,-39.0625,0.0
1740797058.3400252,-60.546875,-76.171875,-37.109375,-33.203125,0.0
1740797058.3439312,-45.41015625,-67.87109375,-38.57421875,-33.69140625,0.0
1740797058.3478384,-49.8046875,-60.05859375,-43.9453125,-40.52734375,0.0
1740797058.3517444,-59.5703125,-65.91796875,-44.43359375,-34.66796875,0.0
1740797058.3556502,-64.453125,-68.84765625,-37.59765625,-22.94921875,0.0
1740797058.3595562,-58.59375,-68.84765625,-37.109375,-28.80859375,0.0
1740797058.3634622,-35.15625,-69.82421875,-36.62109375,-33.69140625,0.0
1740797058.367368,-45.41015625,-82.03125,-34.66796875,-32.2265625,0.0
