timestamps,TP9,AF7,AF8,TP10,Right AUX
1740797050.0044305,-41.50390625,-33.203125,-25.390625,-20.99609375,0.0
1740797050.0083365,-24.90234375,-32.71484375,-29.78515625,-11.23046875,0.0
1740797050.0122423,-22.4609375,-41.50390625,-30.2734375,-12.6953125,0.0
1740797050.0161483,-32.2265625,-36.1328125,-28.80859375,-16.11328125,0.0
1740797050.020054,-33.69140625,-35.64453125,-32.71484375,-14.16015625,0.0
1740797050.02396,-28.80859375,-45.8984375,-36.1328125,-23.92578125,0.0
1740797050.027866,-17.578125,-52.734375,-30.2734375,-20.99609375,0.0
1740797050.031772,-19.53125,-47.36328125,-27.34375,-19.53125,0.0
1740797050.035678,-29.78515625,-37.109375,-32.2265625,-29.296875,0.0
1740797050.0395837,-16.6015625,-40.0390625,-31.73828125,-28.80859375,0.0
1740797050.0434897,-17.08984375,-35.15625,-32.71484375,-37.109375,0.0
1740797050.0473955,-35.64453125,-36.62109375,-37.109375,-40.0390625,0.0
1740797050.051303,-41.9921875,-40.0390625,-37.109375,-36.62109375,0.0
1740797050.055209,-33.203125,-45.8984375,-37.109375,-38.57421875,0.0
1740797050.059115,-21.484375,-55.17578125,-42.48046875,-40.52734375,0.0
1740797050.0630207,-22.94921875,-41.9921875,-42.48046875,-35.15625,0.0
1740797050.0669267,-31.73828125,-34.1796875,-38.0859375,-39.0625,0.0
1740797050.0708325,-22.4609375,-43.45703125,-40.52734375,-45.41015625,0.0
1740797050.0747385,-10.25390625,-43.45703125,-39.0625,-41.015625,0.0
1740797050.0786443,-19.53125,-32.71484375,-40.0390625,-38.57421875,0.0
1740797050.0825503,-33.69140625,-29.78515625,-40.0390625,-34.1796875,0.0
1740797050.0864563,-33.203125,-33.203125,-34.66796875,-30.76171875,0.0
1740797050.090362,-30.76171875,-34.66796875,-35.15625,-42.48046875,0.0
1740797050.094268,-37.109375,-31.25,-33.203125,-41.50390625,0.0
1740797050.0981772,-46.875,-28.80859375,-30.2734375,-38.57421875,0.0
1740797050.102083,-44.43359375,-33.203125,-34.1796875,-42.48046875,0.0
1740797050.105989,-40.0390625,-37.59765625,-33.203125,-46.38671875,0.0
1740797050.1098948,-40.52734375,-37.59765625,-33.203125,-47.8515625,0.0
1740797050.1138008,-45.8984375,-35.64453125,-34.66796875,-40.0390625,0.0
1740797050.1177065,-58.59375,-34.1796875,-32.71484375,-35.15625,0.0
1740797050.1216125,-58.10546875,-37.109375,-37.59765625,-38.57421875,0.0
1740797050.1255186,-47.8515625,-31.73828125,-40.0390625,-35.15625,0.0
1740797050.1294243,-40.0390625,-25.87890625,-31.73828125,-37.59765625,0.0
1740797050.1333303,-41.015625,-41.015625,-41.9921875,-39.0625,0.0
1740797050.137236,-44.921875,-40.52734375,-45.8984375,-30.76171875,0.0
1740797050.1411421,-45.8984375,-31.73828125,-35.64453125,-29.296875,0.0
1740797050.145051,0.0,-38.57421875,-34.66796875,-30.76171875,0.0
1740797050.1489568,0.0,-42.48046875,-32.2265625,-21.97265625,0.0
1740797050.1528628,0.0,-38.57421875,-31.73828125,-13.671875,0.0
1740797050.1567686,0.0,-36.62109375,-35.15625,-14.16015625,0.0
1740797050.1606746,0.0,-40.0390625,-30.2734375,-14.16015625,0.0
1740797050.1645806,0.0,-40.0390625,-31.73828125,-11.71875,0.0
1740797050.1684864,0.0,-40.0390625,-32.2265625,-1.46484375,0.0
1740797050.1723924,0.0,-33.203125,-31.73828125,-5.859375,0.0
1740797050.1762981,0.0,-32.71484375,-39.0625,-16.11328125,0.0
1740797050.1802042,0.0,-36.1328125,-41.50390625,-15.13671875,0.0
1740797050.18411,0.0,-24.90234375,-41.50390625,-17.08984375,0.0
1740797050.188016,0.0,-24.90234375,-39.0625,-18.06640625,0.0
1740797050.1919243,-9.765625,-32.2265625,-37.109375,-21.484375,0.0
1740797050.1958303,-18.5546875,-29.296875,-41.015625,-25.390625,0.0
1740797050.1997364,-29.296875,-23.4375,-40.52734375,-24.90234375,0.0
1740797050.2036421,-24.90234375,-23.92578125,-37.109375,-25.87890625,0.0
1740797050.2075481,-30.2734375,-29.296875,-44.921875,-35.15625,0.0
1740797050.211454,-31.25,-31.25,-42.48046875,-38.57421875,0.0
1740797050.21536,-34.66796875,-28.80859375,-35.64453125,-31.73828125,0.0
1740797050.2192657,-44.43359375,-29.78515625,-35.15625,-39.0625,0.0
1740797050.2231717,-42.96875,-36.62109375,-31.73828125,-41.50390625,0.0
1740797050.2270777,-49.31640625,-35.64453125,-34.1796875,-43.9453125,0.0
1740797050.2309835,-59.08203125,-26.3671875,-44.921875,-52.734375,0.0
1740797050.2348895,-66.89453125,-33.203125,-48.33984375,-55.6640625,0.0
1740797050.2387977,-67.87109375,-40.0390625,-46.38671875,-61.5234375,0.0
1740797050.2427037,-65.4296875,-32.2265625,-46.38671875,-54.6875,0.0
1740797050.2466097,-60.05859375,-30.2734375,-43.9453125,-45.41015625,0.0
1740797050.2505155,-59.5703125,-48.33984375,-35.64453125,-44.43359375,0.0
1740797050.2544215,-67.3828125,-56.15234375,-34.66796875,-51.7578125,0.0
1740797050.2583272,-51.7578125,-47.8515625,-35.64453125,-61.03515625,0.0
1740797050.2622333,-40.0390625,-46.38671875,-33.69140625,-55.17578125,0.0
1740797050.266139,-49.31640625,-47.36328125,-34.66796875,-41.015625,0.0
1740797050.270045,-52.734375,-42.96875,-34.1796875,-30.76171875,0.0
1740797050.273951,-48.33984375,-32.71484375,-36.62109375,-30.2734375,0.0
1740797050.2778568,-38.57421875,-27.34375,-36.1328125,-27.83203125,0.0
1740797050.2817628,-36.62109375,-37.59765625,-35.64453125,-28.3203125,0.0
1740797050.285671,0.0,-41.9921875,-39.0625,-25.87890625,0.0
1740797050.289577,0.0,-31.25,-37.59765625,-20.01953125,0.0
1740797050.2934828,0.0,-31.73828125,-34.1796875,-20.99609375,0.0
1740797050.2973888,0.0,-32.71484375,-33.69140625,-19.04296875,0.0
1740797050.3012946,0.0,-27.34375,-34.66796875,-19.04296875,0.0
1740797050.3052006,0.0,-26.85546875,-29.296875,-17.08984375,0.0
1740797050.3091066,0.0,-28.80859375,-25.390625,-13.671875,0.0
1740797050.3130124,0.0,-35.15625,-30.2734375,-10.7421875,0.0
1740797050.3169184,0.0,-31.73828125,-35.64453125,-5.859375,0.0
1740797050.3208241,0.0,-20.99609375,-33.69140625,-11.23046875,0.0
1740797050.3247302,0.0,-22.94921875,-33.203125,-19.53125,0.0
1740797050.328636,0.0,-19.04296875,-35.15625,-25.87890625,0.0
1740797050.332544,-37.109375,-10.7421875,-34.66796875,-22.4609375,0.0
1740797050.3364499,-36.62109375,-15.13671875,-33.69140625,-24.90234375,0.0
1740797050.3403559,-31.25,-27.34375,-34.66796875,-35.15625,0.0
1740797050.3442616,-21.484375,-25.390625,-38.57421875,-41.9921875,0.0
1740797050.3481677,-19.53125,-17.578125,-36.62109375,-29.78515625,0.0
1740797050.3520737,-27.83203125,-22.94921875,-38.0859375,-18.06640625,0.0
1740797050.3559794,-24.4140625,-21.97265625,-41.015625,-24.90234375,0.0
1740797050.3598855,0.0,-15.13671875,-29.296875,-12.20703125,0.0
1740797050.3637912,-12.6953125,-6.34765625,-31.73828125,-12.6953125,0.0
1740797050.3676972,-17.578125,-2.44140625,-43.45703125,-16.11328125,0.0
1740797050.371603,7.8125,-10.25390625,-41.015625,3.90625,0.0
1740797050.375509,-6.8359375,-20.5078125,-24.90234375,-3.90625,0.0
1740797050.3794167,-38.0859375,-22.94921875,-24.4140625,-22.4609375,0.0
1740797050.3833225,-41.50390625,-31.73828125,-30.76171875,-18.06640625,0.0
1740797050.3872285,-28.3203125,-35.64453125,-27.34375,-19.53125,0.0
1740797050.3911343,-28.80859375,-22.4609375,-26.85546875,-33.69140625,0.0
1740797050.3950403,-33.69140625,-25.390625,-30.76171875,-26.3671875,0.0
1740797050.3989463,-41.015625,-35.64453125,-30.76171875,-9.27734375,0.0
1740797050.402852,-37.109375,-48.828125,-30.76171875,-5.859375,0.0
1740797050.406758,-20.01953125,-48.33984375,-29.78515625,-5.37109375,0.0
1740797050.4106638,-20.5078125,-33.69140625,-25.87890625,-14.16015625,0.0
1740797050.4145699,-41.9921875,-38.57421875,-29.296875,-28.80859375,0.0
1740797050.4184756,-41.50390625,-41.50390625,-39.55078125,-26.85546875,0.0
1740797050.4223816,-21.484375,-38.0859375,-39.0625,-18.06640625,0.0
1740797050.426289,-17.08984375,-36.62109375,-42.48046875,-12.20703125,0.0
1740797050.4301949,-18.5546875,-42.96875,-45.41015625,-9.27734375,0.0
1740797050.4341009,-4.8828125,-40.0390625,-40.52734375,-0.48828125,0.0
1740797050.4380066,-7.8125,-23.92578125,-45.41015625,-12.20703125,0.0
1740797050.4419127,-4.39453125,-33.203125,-42.96875,-13.671875,0.0
1740797050.4458187,5.859375,-43.9453125,-36.62109375,-1.953125,0.0
1740797050.4497244,2.44140625,-40.52734375,-35.15625,-0.48828125,0.0
1740797050.4536304,-5.37109375,-26.85546875,-41.9921875,2.44140625,0.0
1740797050.4575362,-17.08984375,-22.4609375,-47.8515625,-9.765625,0.0
1740797050.4614422,3.41796875,-31.25,-42.96875,-10.25390625,0.0
1740797050.465348,-4.39453125,-36.62109375,-39.0625,-7.32421875,0.0
1740797050.469254,-19.04296875,-25.390625,-35.64453125,1.953125,0.0
1740797050.4731612,9.27734375,-13.18359375,-38.57421875,5.37109375,0.0
1740797050.4770672,17.578125,-18.5546875,-37.59765625,-7.32421875,0.0
1740797050.480973,-2.9296875,-22.94921875,-38.57421875,-8.7890625,0.0
1740797050.484879,-4.39453125,-28.80859375,-41.50390625,-1.46484375,0.0
1740797050.4887848,-2.44140625,-34.1796875,-34.66796875,-6.34765625,0.0
1740797050.4926908,-4.39453125,-36.1328125,-34.1796875,-12.20703125,0.0
1740797050.4965966,-17.08984375,-31.25,-36.62109375,-3.90625,0.0
1740797050.5005026,-25.390625,-31.73828125,-38.57421875,-0.48828125,0.0
1740797050.5044084,-19.53125,-35.15625,-35.64453125,-2.9296875,0.0
1740797050.5083144,-3.41796875,-38.0859375,-27.83203125,-4.39453125,0.0
1740797050.5122204,-9.27734375,-38.57421875,-38.0859375,-20.99609375,0.0
1740797050.5161262,-34.1796875,-32.71484375,-36.1328125,-16.11328125,0.0
1740797050.520035,-34.1796875,-34.66796875,-22.94921875,-14.16015625,0.0
1740797050.5239408,-19.04296875,-38.57421875,-26.85546875,-28.3203125,0.0
1740797050.5278468,-23.4375,-40.52734375,-34.1796875,-33.203125,0.0
1740797050.5317528,-48.33984375,-41.015625,-33.203125,-26.85546875,0.0
1740797050.5356586,-48.828125,-38.0859375,-32.71484375,-16.6015625,0.0
1740797050.5395646,-39.55078125,-46.38671875,-27.83203125,-30.2734375,0.0
1740797050.5434704,-30.2734375,-46.38671875,-21.484375,-34.66796875,0.0
1740797050.5473764,-37.109375,-37.59765625,-28.3203125,-27.34375,0.0
1740797050.5512822,-61.03515625,-40.0390625,-32.2265625,-35.64453125,0.0
1740797050.5551882,-58.10546875,-43.45703125,-29.78515625,-38.0859375,0.0
1740797050.5590942,-44.43359375,-34.1796875,-37.109375,-35.15625,0.0
1740797050.563,-34.66796875,-40.52734375,-40.52734375,-31.73828125,0.0
1740797050.5669086,-31.25,-46.875,-42.48046875,-38.0859375,0.0
1740797050.5708144,-36.1328125,-41.015625,-46.875,-42.48046875,0.0
1740797050.5747204,-46.38671875,-35.15625,-43.45703125,-27.34375,0.0
1740797050.5786262,-24.90234375,-32.2265625,-37.59765625,-7.8125,0.0
1740797050.5825322,-22.4609375,-42.48046875,-38.0859375,-9.765625,0.0
1740797050.586438,-47.8515625,-45.41015625,-41.9921875,-33.203125,0.0
1740797050.590344,-45.8984375,-48.828125,-41.9921875,-46.38671875,0.0
1740797050.59425,-31.73828125,-52.734375,-39.0625,-51.26953125,0.0
1740797050.5981557,-41.9921875,-52.734375,-33.69140625,-34.66796875,0.0
1740797050.6020617,-39.55078125,-41.50390625,-31.25,-18.5546875,0.0
1740797050.6059675,-26.3671875,-24.90234375,-34.1796875,-31.25,0.0
1740797050.6098735,-36.1328125,-33.69140625,-36.62109375,-37.59765625,0.0
1740797050.613782,-36.1328125,-39.55078125,-30.2734375,-25.87890625,0.0
1740797050.6176877,-28.80859375,-33.69140625,-26.85546875,-21.97265625,0.0
1740797050.6215937,-31.25,-33.203125,-24.90234375,-17.08984375,0.0
1740797050.6254995,-17.578125,-33.203125,-26.85546875,-15.13671875,0.0
1740797050.6294055,-13.18359375,-32.71484375,-37.59765625,-32.2265625,0.0
1740797050.6333115,-27.83203125,-39.55078125,-39.55078125,-24.90234375,0.0
1740797050.6372173,-31.73828125,-37.59765625,-33.69140625,-15.625,0.0
1740797050.6411233,-20.99609375,-39.0625,-29.296875,-21.484375,0.0
1740797050.645029,-20.99609375,-43.9453125,-31.73828125,-4.8828125,0.0
1740797050.648935,-27.83203125,-27.83203125,-36.1328125,-12.6953125,0.0
1740797050.6528409,-36.62109375,-22.4609375,-35.15625,-27.34375,0.0
1740797050.6567469,-26.85546875,-27.83203125,-33.69140625,-20.01953125,0.0
1740797050.660655,-18.06640625,-30.76171875,-38.0859375,-17.578125,0.0
1740797050.664561,-17.578125,-25.390625,-31.73828125,-10.25390625,0.0
1740797050.6684668,-24.4140625,-21.97265625,-27.34375,-15.625,0.0
1740797050.6723728,-33.69140625,-24.90234375,-34.66796875,-16.6015625,0.0
1740797050.6762786,-31.73828125,-20.99609375,-35.15625,-17.578125,0.0
1740797050.6801846,-29.78515625,-24.90234375,-37.109375,-27.83203125,0.0
1740797050.6840904,-22.94921875,-26.3671875,-42.48046875,-29.296875,0.0
1740797050.6879964,-38.57421875,-27.34375,-41.015625,-23.4375,0.0
1740797050.6919024,-35.15625,-26.85546875,-38.57421875,-20.5078125,0.0
1740797050.6958082,-17.578125,-20.01953125,-37.59765625,-28.80859375,0.0
1740797050.6997142,-27.83203125,-24.4140625,-39.0625,-27.34375,0.0
1740797050.70362,-43.45703125,-25.390625,-41.015625,-34.1796875,0.0
1740797050.7075279,-46.38671875,-24.90234375,-38.57421875,-43.9453125,0.0
1740797050.711434,-35.64453125,-30.76171875,-35.64453125,-37.109375,0.0
1740797050.7153397,-40.0390625,-38.0859375,-41.9921875,-32.71484375,0.0
1740797050.7192457,-56.640625,-40.52734375,-47.8515625,-52.24609375,0.0
1740797050.7231514,-35.15625,-41.50390625,-44.921875,-39.55078125,0.0
1740797050.7270575,-32.71484375,-41.50390625,-43.9453125,-44.921875,0.0
1740797050.7309632,-61.03515625,-44.921875,-44.43359375,-61.5234375,0.0
1740797050.7348692,-55.6640625,-36.62109375,-43.45703125,-37.59765625,0.0
1740797050.7387753,-49.8046875,-29.296875,-47.8515625,-55.17578125,0.0
1740797050.742681,-44.921875,-26.85546875,-53.22265625,-61.5234375,0.0
1740797050.746587,-35.64453125,-26.3671875,-44.921875,-28.3203125,0.0
1740797050.7504928,-41.9921875,-31.25,-42.48046875,-17.578125,0.0
1740797050.7544005,-39.55078125,-33.203125,-41.9921875,-5.859375,0.0
1740797050.7583065,-35.15625,-34.1796875,-39.0625,-19.53125,0.0
1740797050.7622123,-44.921875,-40.52734375,-40.52734375,-41.015625,0.0
1740797050.7661183,-45.8984375,-43.9453125,-38.57421875,-28.80859375,0.0
1740797050.770024,-40.52734375,-35.64453125,-37.59765625,-22.4609375,0.0
1740797050.77393,-27.34375,-38.57421875,-35.64453125,-18.06640625,0.0
1740797050.777836,-10.7421875,-52.734375,-34.1796875,-14.16015625,0.0
1740797050.7817419,-16.11328125,-48.828125,-28.3203125,-13.18359375,0.0
1740797050.7856479,-37.59765625,-40.52734375,-39.55078125,-6.34765625,0.0
1740797050.7895536,-30.2734375,-47.8515625,-45.41015625,-6.34765625,0.0
1740797050.7934597,-0.9765625,-39.0625,-37.109375,-17.08984375,0.0
1740797050.7973654,0.48828125,-25.390625,-36.62109375,-13.18359375,0.0
1740797050.8012729,-10.25390625,-25.390625,-36.1328125,-11.23046875,0.0
1740797050.8051789,-2.9296875,-25.87890625,-33.203125,3.90625,0.0
1740797050.809085,-10.7421875,-34.1796875,-32.2265625,-3.41796875,0.0
1740797050.8129907,-15.13671875,-35.64453125,-38.0859375,5.859375,0.0
1740797050.8168967,-10.25390625,-33.203125,-41.50390625,1.953125,0.0
1740797050.8208025,-1.953125,-38.57421875,-50.29296875,-26.3671875,0.0
1740797050.8247085,0.0,-43.45703125,-44.43359375,-8.30078125,0.0
1740797050.8286142,9.765625,-37.109375,-36.1328125,6.8359375,0.0
1740797050.8325202,-5.859375,-32.71484375,-39.55078125,-15.13671875,0.0
1740797050.8364263,-4.39453125,-27.83203125,-39.0625,-14.6484375,0.0
1740797050.840332,-5.37109375,-24.90234375,-41.9921875,-0.48828125,0.0
1740797050.844238,-1.953125,-30.76171875,-47.36328125,-6.8359375,0.0
1740797050.8481452,0.0,-28.80859375,-54.19921875,-24.90234375,0.0
1740797050.8520513,0.0,-34.1796875,-54.6875,-35.15625,0.0
1740797050.855957,0.0,-36.62109375,-47.36328125,-14.16015625,0.0
1740797050.859863,0.0,-31.73828125,-46.875,-24.4140625,0.0
1740797050.863769,0.0,-26.85546875,-49.8046875,-38.0859375,0.0
1740797050.8676748,0.0,-38.57421875,-48.33984375,-27.83203125,0.0
1740797050.8715808,0.0,-48.828125,-47.36328125,-27.83203125,0.0
1740797050.8754866,0.0,-42.96875,-51.26953125,-30.76171875,0.0
1740797050.8793926,0.0,-37.109375,-51.26953125,-35.64453125,0.0
1740797050.8832984,0.0,-41.9921875,-50.78125,-55.17578125,0.0
1740797050.8872044,0.0,-51.26953125,-45.41015625,-46.875,0.0
1740797050.8911104,0.0,-53.7109375,-47.8515625,-32.2265625,0.0
1740797050.8950193,-58.10546875,-47.8515625,-53.7109375,-41.015625,0.0
1740797050.898925,-53.7109375,-46.38671875,-53.7109375,-43.45703125,0.0
1740797050.902831,-63.96484375,-41.015625,-48.33984375,-52.24609375,0.0
1740797050.9067369,-67.87109375,-42.96875,-46.38671875,-45.41015625,0.0
1740797050.9106429,-55.17578125,-46.38671875,-46.875,-50.29296875,0.0
1740797050.9145486,-29.296875,-41.015625,-43.45703125,-33.69140625,0.0
1740797050.9184546,-41.015625,-29.78515625,-44.921875,-36.1328125,0.0
1740797050.9223607,-43.45703125,-30.76171875,-51.26953125,-37.59765625,0.0
1740797050.9262664,-16.11328125,-41.9921875,-46.38671875,-19.53125,0.0
1740797050.9301724,-15.625,-39.0625,-40.52734375,-20.5078125,0.0
1740797050.9340782,-42.48046875,-21.97265625,-45.8984375,-21.484375,0.0
1740797050.9379842,-43.45703125,-14.16015625,-47.8515625,-18.5546875,0.0
1740797050.9418926,-16.6015625,-22.94921875,-33.203125,-3.41796875,0.0
1740797050.9457986,-4.8828125,-24.90234375,-33.203125,-2.44140625,0.0
1740797050.9497046,-10.7421875,-21.97265625,-39.55078125,-22.4609375,0.0
1740797050.9536104,-31.73828125,-24.4140625,-39.55078125,-17.08984375,0.0
1740797050.9575164,-13.671875,-23.92578125,-45.8984375,-18.06640625,0.0
1740797050.9614222,7.32421875,-24.4140625,-44.43359375,-21.484375,0.0
1740797050.9653282,-3.41796875,-15.625,-39.0625,-11.71875,0.0
1740797050.969234,-4.8828125,-12.20703125,-39.0625,-8.7890625,0.0
1740797050.97314,1.953125,-25.87890625,-37.59765625,-19.04296875,0.0
1740797050.977046,1.46484375,-28.3203125,-32.2265625,-16.6015625,0.0
1740797050.9809518,1.953125,-18.5546875,-35.64453125,-6.8359375,0.0
1740797050.9848578,-2.44140625,-30.76171875,-28.3203125,-0.48828125,0.0
1740797050.9887662,-17.08984375,-23.92578125,-21.484375,-9.765625,0.0
1740797050.992672,-36.1328125,-5.859375,-23.4375,-17.578125,0.0
1740797050.996578,-19.53125,-11.23046875,-22.4609375,-8.30078125,0.0
1740797051.0004838,-18.5546875,-16.11328125,-25.87890625,-19.04296875,0.0
1740797051.0043898,-31.73828125,-22.4609375,-23.4375,-37.59765625,0.0
1740797051.0082955,0.48828125,-21.97265625,-27.34375,-36.1328125,0.0
1740797051.0122015,-4.39453125,-14.16015625,-35.64453125,-29.296875,0.0
1740797051.0161076,-47.36328125,-29.78515625,-27.83203125,-34.1796875,0.0
1740797051.0200133,-53.22265625,-21.97265625,-24.90234375,-48.828125,0.0
1740797051.0239193,-16.6015625,1.46484375,-31.25,-43.9453125,0.0
1740797051.027825,-17.08984375,-15.13671875,-29.296875,-39.0625,0.0
1740797051.0317311,-46.875,-33.69140625,-33.203125,-43.45703125,0.0
1740797051.0356393,-82.51953125,-22.4609375,-35.64453125,-62.5,0.0
1740797051.039545,-88.37890625,-17.08984375,-32.2265625,-70.80078125,0.0
1740797051.043451,-77.1484375,-7.8125,-39.55078125,-76.66015625,0.0
1740797051.0473568,-92.7734375,-27.34375,-47.36328125,-65.4296875,0.0
1740797051.0512629,-106.93359375,-51.26953125,-39.0625,-62.01171875,0.0
1740797051.0551686,-125.0,4.8828125,-43.9453125,-91.30859375,0.0
1740797051.0590746,-117.67578125,7.8125,-44.43359375,-103.515625,0.0
1740797051.0629807,-185.546875,15.625,-31.73828125,-169.43359375,0.0
1740797051.0668864,-190.91796875,-33.203125,-14.6484375,-177.24609375,0.0
1740797051.0707924,-166.9921875,-72.75390625,-36.1328125,-76.66015625,0.0
1740797051.0746982,-269.04296875,15.625,-23.4375,-204.58984375,0.0
1740797051.0786042,-341.30859375,4.8828125,91.30859375,-341.796875,0.0
1740797051.0825121,0.0,20.5078125,5.859375,-448.2421875,0.0
1740797051.0864182,0.0,-18.06640625,-63.96484375,-369.140625,0.0
1740797051.090324,0.0,-123.53515625,-31.73828125,-58.10546875,0.0
1740797051.09423,0.0,-9.27734375,-112.3046875,-89.84375,0.0
1740797051.098136,0.0,0.9765625,-61.03515625,-396.484375,0.0
1740797051.1020417,0.0,-18.5546875,20.5078125,-299.8046875,0.0
1740797051.1059477,0.0,21.484375,-70.3125,99.12109375,0.0
1740797051.1098535,0.0,-52.734375,-86.42578125,-82.51953125,0.0
1740797051.1137595,0.0,-54.19921875,-32.71484375,-129.39453125,0.0
1740797051.1176653,0.0,10.7421875,-10.7421875,132.8125,0.0
1740797051.1215713,0.0,-19.53125,-41.50390625,87.40234375,0.0
1740797051.1254773,0.0,-31.73828125,-65.4296875,197.265625,0.0
1740797051.1293848,72.265625,-29.296875,-22.94921875,149.4140625,0.0
1740797051.1332908,59.08203125,-84.9609375,4.8828125,151.3671875,0.0
1740797051.1371965,148.92578125,-39.0625,-50.78125,61.5234375,0.0
1740797051.1411026,55.17578125,37.109375,-79.1015625,-15.13671875,0.0
1740797051.1450086,161.62109375,-24.4140625,-66.89453125,229.00390625,0.0
1740797051.1489143,173.828125,-41.9921875,-19.04296875,13.18359375,0.0
1740797051.1528203,48.828125,-61.5234375,24.4140625,-97.16796875,0.0
1740797051.1567261,13.671875,-70.80078125,-11.71875,50.29296875,0.0
1740797051.1606321,10.7421875,57.6171875,-80.078125,-94.23828125,0.0
1740797051.164538,238.76953125,-7.8125,-75.68359375,224.12109375,0.0
1740797051.168444,490.234375,-135.7421875,-54.19921875,521.97265625,0.0
1740797051.17235,371.58203125,-68.359375,-38.0859375,259.27734375,0.0
1740797051.1762571,170.8984375,-36.62109375,-43.45703125,80.078125,0.0
1740797051.1801631,139.6484375,-31.25,-51.7578125,7.8125,0.0
1740797051.1840692,-53.22265625,-7.8125,-25.390625,-55.6640625,0.0
1740797051.187975,-470.21484375,52.734375,-4.39453125,-370.60546875,0.0
1740797051.191881,-456.0546875,-41.50390625,10.25390625,-640.625,0.0
1740797051.1957867,183.10546875,-58.10546875,-97.16796875,-164.0625,0.0
1740797051.1996927,76.66015625,57.12890625,-65.91796875,146.484375,0.0
1740797051.2035985,-43.9453125,-75.1953125,48.33984375,118.1640625,0.0
1740797051.2075045,360.3515625,-152.34375,-58.59375,175.78125,0.0
1740797051.2114105,254.39453125,-100.5859375,-81.54296875,158.203125,0.0
1740797051.2153163,42.96875,-39.55078125,-65.4296875,19.53125,0.0
1740797051.2192223,-89.84375,34.1796875,-41.9921875,-170.41015625,0.0
1740797051.2231295,126.953125,-32.2265625,-51.26953125,4.8828125,0.0
1740797051.2270353,241.2109375,-100.09765625,-58.59375,187.01171875,0.0
1740797051.2309413,70.80078125,-51.7578125,-29.296875,73.73046875,0.0
1740797051.234847,83.0078125,-58.59375,-46.38671875,-115.234375,0.0
1740797051.238753,-7.32421875,-68.84765625,-42.96875,-68.359375,0.0
1740797051.2426589,-120.60546875,-24.4140625,-50.78125,-25.390625,0.0
1740797051.2465649,108.3984375,-59.5703125,-68.359375,6.8359375,0.0
1740797051.2504709,148.4375,-116.2109375,-20.99609375,90.8203125,0.0
1740797051.2543766,120.1171875,-90.8203125,-56.640625,111.328125,0.0
1740797051.2582827,122.0703125,-92.28515625,-39.0625,-39.55078125,0.0
1740797051.2621884,-5.37109375,-58.59375,-41.015625,-82.03125,0.0
1740797051.2660944,-1.46484375,-29.78515625,-43.9453125,13.18359375,0.0
1740797051.2700033,85.44921875,-65.4296875,-39.55078125,34.66796875,0.0
1740797051.273909,35.64453125,-35.64453125,-43.9453125,47.36328125,0.0
1740797051.277815,43.45703125,-45.41015625,-5.859375,10.7421875,0.0
1740797051.2817209,216.796875,-80.56640625,-70.80078125,91.30859375,0.0
1740797051.285627,96.6796875,4.8828125,-64.94140625,-9.765625,0.0
1740797051.2895327,-30.76171875,-36.1328125,-22.94921875,-49.8046875,0.0
1740797051.2934387,36.62109375,-59.08203125,-59.5703125,48.828125,0.0
1740797051.2973444,132.8125,-55.6640625,-52.734375,20.99609375,0.0
1740797051.3012505,73.2421875,-56.15234375,-29.78515625,42.48046875,0.0
1740797051.3051565,28.80859375,-25.390625,-30.76171875,-12.6953125,0.0
1740797051.3090622,70.3125,-18.06640625,-48.828125,3.41796875,0.0
1740797051.3129683,121.58203125,-23.4375,-36.62109375,73.73046875,0.0
1740797051.316877,47.8515625,-22.94921875,-25.390625,-22.94921875,0.0
1740797051.3207827,-0.9765625,-17.08984375,-44.921875,4.8828125,0.0
1740797051.3246887,103.515625,-52.24609375,-50.78125,71.77734375,0.0
1740797051.3285944,98.14453125,-87.40234375,-3.90625,3.41796875,0.0
1740797051.3325005,60.546875,-81.54296875,0.0,-20.5078125,0.0
1740797051.3364062,16.6015625,-40.0390625,-35.15625,10.7421875,0.0
1740797051.3403122,-53.22265625,-15.13671875,-27.83203125,8.7890625,0.0
1740797051.3442183,16.6015625,7.8125,-41.9921875,-43.45703125,0.0
1740797051.348124,90.33203125,-16.6015625,-47.8515625,-12.20703125,0.0
1740797051.35203,53.22265625,-45.8984375,-20.99609375,6.34765625,0.0
1740797051.3559358,41.50390625,8.30078125,-48.33984375,26.3671875,0.0
1740797051.3598418,-6.8359375,-28.80859375,-32.2265625,-68.84765625,0.0
1740797051.3637502,-10.7421875,-86.42578125,-20.99609375,-73.73046875,0.0
1740797051.3676562,-38.57421875,-0.48828125,-23.4375,-62.5,0.0
1740797051.371562,-151.3671875,-39.0625,-22.4609375,-99.609375,0.0
1740797051.375468,-110.3515625,-108.88671875,-46.38671875,-73.73046875,0.0
1740797051.3793738,-75.68359375,-24.4140625,-39.0625,-143.5546875,0.0
1740797051.3832798,-107.91015625,-31.73828125,-44.43359375,-118.1640625,0.0
1740797051.3871858,-148.4375,-60.546875,-26.85546875,-109.375,0.0
1740797051.3910916,-171.875,-48.33984375,-49.31640625,-114.2578125,0.0
1740797051.3949976,-118.1640625,-33.69140625,-51.26953125,-88.8671875,0.0
1740797051.3989034,-138.18359375,-19.53125,-34.1796875,-140.625,0.0
1740797051.4028094,-182.12890625,-4.39453125,-39.0625,-177.24609375,0.0
1740797051.4067152,-227.05078125,-25.87890625,-13.671875,-251.46484375,0.0
1740797051.4106236,0.0,-57.6171875,-34.1796875,-182.12890625,0.0
1740797051.4145293,0.0,-56.15234375,-17.578125,-109.375,0.0
1740797051.4184353,0.0,-23.4375,-44.43359375,-155.76171875,0.0
1740797051.4223413,0.0,-10.7421875,-58.10546875,-195.3125,0.0
1740797051.4262471,0.0,-45.41015625,-25.87890625,-173.33984375,0.0
1740797051.4301531,0.0,-58.10546875,-1.46484375,-146.484375,0.0
1740797051.434059,0.0,-20.99609375,-20.01953125,-196.77734375,0.0
1740797051.437965,0.0,-81.0546875,-36.62109375,-168.45703125,0.0
1740797051.4418707,0.0,-98.14453125,-37.59765625,-102.5390625,0.0
1740797051.4457767,0.0,-29.296875,-28.3203125,-73.2421875,0.0
1740797051.4496825,0.0,-55.17578125,-11.23046875,-131.8359375,0.0
1740797051.4535885,0.0,-16.6015625,-37.109375,-158.69140625,0.0
1740797051.4574964,-126.953125,-3.41796875,-45.41015625,-87.890625,0.0
1740797051.4614024,-120.60546875,-57.6171875,0.48828125,-110.3515625,0.0
1740797051.4653082,-140.625,-36.62109375,14.16015625,-201.66015625,0.0
1740797051.4692142,-114.2578125,-49.8046875,-17.08984375,-194.3359375,0.0
1740797051.47312,-103.515625,-17.578125,-29.296875,-174.31640625,0.0
1740797051.477026,-104.4921875,-29.296875,-23.4375,-154.296875,0.0
1740797051.4809318,-87.40234375,-50.78125,-8.7890625,-141.6015625,0.0
1740797051.4848378,-92.28515625,-14.16015625,2.44140625,-191.40625,0.0
1740797051.4887438,-98.14453125,-29.296875,-19.53125,-132.8125,0.0
1740797051.4926496,-56.640625,-52.734375,-3.90625,-125.9765625,0.0
1740797051.4965556,-43.45703125,-35.15625,-22.4609375,-133.7890625,0.0
1740797051.5004613,-20.01953125,3.90625,-48.828125,-100.5859375,0.0
1740797051.504369,-19.53125,-21.97265625,-26.3671875,-120.60546875,0.0
1740797051.508275,-62.5,-72.75390625,-41.015625,-113.28125,0.0
1740797051.5121808,-8.30078125,-61.5234375,-19.04296875,-99.609375,0.0
1740797051.5160868,31.25,-51.7578125,-15.625,-98.6328125,0.0
1740797051.5199926,18.5546875,-68.359375,-41.9921875,-106.93359375,0.0
1740797051.5238986,10.25390625,-65.4296875,-26.85546875,-89.35546875,0.0
1740797051.5278046,29.78515625,-66.40625,-53.7109375,-42.96875,0.0
1740797051.5317104,6.34765625,-75.68359375,-28.3203125,-66.40625,0.0
1740797051.5356164,-49.8046875,-36.62109375,-19.53125,-86.42578125,0.0
1740797051.5395222,-32.71484375,-25.87890625,-49.8046875,-90.8203125,0.0
1740797051.5434282,-1.953125,-45.41015625,-41.50390625,-65.91796875,0.0
1740797051.547334,-20.01953125,-49.8046875,-37.59765625,-61.5234375,0.0
1740797051.5512414,-35.64453125,-25.390625,-40.52734375,-75.1953125,0.0
1740797051.5551474,-14.6484375,-75.68359375,-27.34375,-45.8984375,0.0
1740797051.5590534,-39.55078125,-98.14453125,-23.4375,-51.26953125,0.0
1740797051.5629592,-41.015625,-50.78125,-34.66796875,-59.5703125,0.0
1740797051.5668652,20.5078125,-73.2421875,-32.71484375,-1.46484375,0.0
1740797051.570771,15.625,-62.01171875,-38.0859375,3.41796875,0.0
1740797051.574677,-13.18359375,-82.51953125,-30.2734375,2.9296875,0.0
1740797051.5785828,-47.8515625,-67.87109375,-30.2734375,-27.34375,0.0
1740797051.5824888,-19.53125,-61.5234375,-34.1796875,-2.44140625,0.0
1740797051.5863948,17.08984375,-104.98046875,-30.2734375,35.15625,0.0
1740797051.5903006,-30.2734375,-63.4765625,-41.015625,-31.73828125,0.0
1740797051.5942066,-49.8046875,-47.8515625,-38.0859375,-33.69140625,0.0
1740797051.5981154,-17.08984375,-54.6875,-38.0859375,18.06640625,0.0
1740797051.6020215,12.6953125,-65.4296875,-34.1796875,22.94921875,0.0
1740797051.6059272,18.5546875,-70.80078125,-26.3671875,28.3203125,0.0
1740797051.6098332,2.9296875,-53.22265625,-22.4609375,36.1328125,0.0
1740797051.6137393,-1.953125,-64.94140625,-24.90234375,14.6484375,0.0
1740797051.617645,-0.9765625,-59.5703125,-42.96875,20.99609375,0.0
1740797051.621551,7.32421875,-53.22265625,-40.0390625,47.8515625,0.0
1740797051.6254568,-15.625,-49.31640625,-33.69140625,21.97265625,0.0
1740797051.6293628,-9.765625,-57.12890625,-34.1796875,0.0,0.0
1740797051.6332686,15.625,-62.01171875,-24.90234375,18.5546875,0.0
1740797051.6371746,2.9296875,-38.57421875,-16.11328125,28.3203125,0.0
1740797051.6410804,3.41796875,-26.85546875,-29.78515625,12.6953125,0.0
1740797051.6449895,0.0,-46.875,-26.85546875,-20.01953125,0.0
1740797051.6488953,0.0,-45.41015625,-24.90234375,5.859375,0.0
1740797051.6528013,0.0,-41.9921875,-20.01953125,31.73828125,0.0
1740797051.656707,0.0,-50.29296875,-23.4375,5.37109375,0.0
1740797051.660613,0.0,-51.7578125,-29.296875,12.20703125,0.0
1740797051.664519,0.0,-50.29296875,-26.85546875,-9.27734375,0.0
1740797051.6684248,0.0,-47.36328125,-31.73828125,-3.41796875,0.0
1740797051.6723309,0.0,-57.6171875,-25.390625,32.2265625,0.0
1740797051.6762366,0.0,-64.453125,-22.4609375,1.46484375,0.0
1740797051.6801426,0.0,-55.17578125,-41.50390625,-21.484375,0.0
1740797051.6840484,0.0,-31.73828125,-43.9453125,-2.9296875,0.0
1740797051.6879544,0.0,-28.80859375,-31.25,2.9296875,0.0
1740797051.691863,-17.578125,-40.52734375,-26.85546875,-5.37109375,0.0
1740797051.6957688,-33.69140625,-42.48046875,-32.71484375,-15.625,0.0
1740797051.6996748,-58.10546875,-34.66796875,-34.1796875,-29.78515625,0.0
1740797051.7035806,-62.01171875,-51.7578125,-26.3671875,-29.296875,0.0
1740797051.7074866,-66.89453125,-57.12890625,-37.109375,-41.50390625,0.0
1740797051.7113924,-63.4765625,-54.19921875,-34.66796875,-49.8046875,0.0
1740797051.7152984,-62.98828125,-47.36328125,-29.78515625,-60.05859375,0.0
1740797051.7192044,-74.70703125,-34.66796875,-34.66796875,-63.4765625,0.0
1740797051.7231102,-67.87109375,-60.546875,-29.78515625,-48.33984375,0.0
1740797051.7270162,-69.3359375,-66.89453125,-32.71484375,-40.0390625,0.0
1740797051.730922,-73.2421875,-41.9921875,-39.55078125,-40.52734375,0.0
1740797051.734828,-79.1015625,-42.48046875,-39.0625,-59.5703125,0.0
1740797051.7387364,-69.82421875,-44.921875,-40.0390625,-65.4296875,0.0
1740797051.7426422,-53.22265625,-41.9921875,-44.43359375,-54.6875,0.0
1740797051.7465482,-55.17578125,-47.36328125,-41.50390625,-63.4765625,0.0
1740797051.750454,-63.4765625,-44.43359375,-43.45703125,-51.7578125,0.0
1740797051.75436,-59.08203125,-44.921875,-41.015625,-42.48046875,0.0
1740797051.7582657,-52.734375,-48.828125,-29.296875,-43.9453125,0.0
1740797051.7621717,-49.8046875,-43.9453125,-35.15625,-40.0390625,0.0
1740797051.7660778,-51.26953125,-38.57421875,-34.1796875,-50.78125,0.0
1740797051.7699835,-51.7578125,-40.52734375,-32.71484375,-36.62109375,0.0
1740797051.7738895,-48.828125,-32.71484375,-37.59765625,-29.78515625,0.0
1740797051.7777953,-35.64453125,-22.4609375,-34.1796875,-18.5546875,0.0
1740797051.7817013,-42.96875,-34.1796875,-29.78515625,-25.87890625,0.0
1740797051.7856095,-55.6640625,-44.43359375,-30.2734375,-35.15625,0.0
1740797051.7895153,-47.8515625,-32.2265625,-37.109375,-24.90234375,0.0
1740797051.7934213,-31.25,-35.64453125,-34.1796875,-26.85546875,0.0
1740797051.797327,-17.578125,-42.96875,-39.0625,-10.7421875,0.0
1740797051.801233,-19.04296875,-38.57421875,-29.78515625,-12.6953125,0.0
1740797051.805139,-40.52734375,-55.17578125,-9.765625,-7.8125,0.0
1740797051.8090448,-39.0625,-55.17578125,-12.6953125,-5.37109375,0.0
1740797051.8129508,-27.83203125,-58.10546875,-14.6484375,9.27734375,0.0
1740797051.8168566,-38.0859375,-66.40625,-6.8359375,22.4609375,0.0
1740797051.8207626,-46.38671875,-58.59375,-14.16015625,-1.46484375,0.0
1740797051.8246684,-44.921875,-59.5703125,-17.578125,-11.23046875,0.0
1740797051.8285744,-37.109375,-72.75390625,-12.20703125,9.765625,0.0
1740797051.8324823,-51.26953125,-74.70703125,-27.83203125,0.9765625,0.0
1740797051.8363883,-61.03515625,-76.171875,-26.85546875,-15.13671875,0.0
1740797051.8402944,-43.45703125,-84.47265625,-19.04296875,-1.953125,0.0
1740797051.8442001,-31.73828125,-88.8671875,-12.6953125,-8.7890625,0.0
1740797051.8481061,-53.22265625,-90.8203125,-19.53125,-16.6015625,0.0
1740797051.852012,-62.98828125,-85.44921875,-31.25,-21.484375,0.0
1740797051.855918,-58.59375,-80.56640625,-26.85546875,-29.296875,0.0
1740797051.8598237,-58.10546875,-79.58984375,-26.3671875,-36.62109375,0.0
1740797051.8637297,-64.453125,-68.84765625,-29.296875,-33.203125,0.0
1740797051.8676357,-74.21875,-58.59375,-30.2734375,-39.55078125,0.0
1740797051.8715415,-67.3828125,-64.453125,-39.55078125,-51.26953125,0.0
1740797051.8754475,-54.19921875,-61.03515625,-44.921875,-45.41015625,0.0
1740797051.8793552,-67.3828125,-57.12890625,-45.8984375,-46.875,0.0
1740797051.883261,-88.8671875,-67.3828125,-40.52734375,-58.59375,0.0
1740797051.887167,-99.12109375,-73.73046875,-42.48046875,-64.453125,0.0
1740797051.8910728,-87.890625,-80.56640625,-48.33984375,-73.2421875,0.0
1740797051.8949788,-77.1484375,-80.078125,-48.33984375,-72.265625,0.0
1740797051.8988845,-86.9140625,-86.9140625,-49.8046875,-62.5,0.0
1740797051.9027905,-97.65625,-99.12109375,-47.8515625,-78.61328125,0.0
1740797051.9066966,-87.40234375,-93.26171875,-51.26953125,-82.51953125,0.0
1740797051.9106023,-83.0078125,-76.171875,-57.6171875,-62.5,0.0
1740797051.9145083,-86.9140625,-82.51953125,-55.6640625,-48.828125,0.0
1740797051.918414,-91.30859375,-83.984375,-50.78125,-57.12890625,0.0
1740797051.9223201,-76.171875,-83.984375,-47.36328125,-58.59375,0.0
1740797051.9262276,-67.87109375,-87.40234375,-44.43359375,-52.24609375,0.0
1740797051.9301333,-74.70703125,-85.9375,-43.45703125,-56.15234375,0.0
1740797051.9340394,-65.4296875,-85.9375,-44.921875,-56.15234375,0.0
1740797051.9379451,-61.03515625,-77.63671875,-43.45703125,-31.25,0.0
1740797051.9418511,-52.734375,-79.1015625,-41.015625,-17.08984375,0.0
1740797051.9457572,-45.8984375,-81.54296875,-41.9921875,-27.83203125,0.0
1740797051.949663,-39.55078125,-83.49609375,-38.0859375,-29.296875,0.0
1740797051.953569,-51.26953125,-82.03125,-34.66796875,-28.80859375,0.0
1740797051.9574747,-52.24609375,-71.2890625,-33.69140625,-43.45703125,0.0
1740797051.9613807,-24.4140625,-77.63671875,-36.62109375,-30.2734375,0.0
1740797051.9652865,-18.5546875,-86.42578125,-41.015625,0.9765625,0.0
1740797051.9691925,-34.1796875,-74.70703125,-35.64453125,-16.11328125,0.0
1740797051.9730997,-32.2265625,-61.03515625,-30.2734375,-25.390625,0.0
1740797051.9770055,-18.06640625,-70.80078125,-31.73828125,-6.8359375,0.0
1740797051.9809115,-23.92578125,-78.61328125,-25.390625,-5.859375,0.0
1740797051.9848175,-31.25,-69.3359375,-22.4609375,-3.41796875,0.0
1740797051.9887233,-17.08984375,-58.10546875,-30.2734375,1.46484375,0.0
1740797051.9926293,-11.23046875,-62.5,-19.53125,-12.6953125,0.0
1740797051.996535,-22.4609375,-64.94140625,-21.97265625,-10.25390625,0.0
1740797052.000441,-36.1328125,-55.6640625,-30.76171875,-10.7421875,0.0
1740797052.0043468,-32.2265625,-58.59375,-26.85546875,-0.9765625,0.0
1740797052.0082529,-15.625,-68.359375,-24.90234375,9.765625,0.0
1740797052.0121589,-16.11328125,-60.546875,-25.390625,6.34765625,0.0
1740797052.0160646,-34.66796875,-60.546875,-32.2265625,-1.953125,0.0
1740797052.0199735,-40.52734375,-72.75390625,-36.62109375,-9.27734375,0.0
1740797052.0238793,-33.203125,-69.3359375,-34.66796875,-8.7890625,0.0
1740797052.0277853,-32.2265625,-67.3828125,-37.59765625,-33.69140625,0.0
1740797052.031691,-47.36328125,-66.40625,-39.0625,-33.203125,0.0
1740797052.035597,-53.22265625,-62.98828125,-35.15625,-12.20703125,0.0
1740797052.039503,-41.50390625,-68.84765625,-38.57421875,-29.78515625,0.0
1740797052.0434089,-33.69140625,-70.80078125,-45.8984375,-33.203125,0.0
1740797052.047315,-38.57421875,-66.40625,-39.55078125,-22.94921875,0.0
1740797052.0512207,-43.9453125,-78.125,-33.203125,-20.5078125,0.0
1740797052.0551267,-45.41015625,-80.078125,-39.0625,-32.71484375,0.0
1740797052.0590324,-48.33984375,-61.5234375,-41.015625,-56.15234375,0.0
1740797052.0629385,-58.59375,-60.05859375,-46.38671875,-65.4296875,0.0
1740797052.066847,-62.5,-69.3359375,-48.33984375,-56.640625,0.0
1740797052.0707529,-59.08203125,-69.3359375,-50.78125,-62.5,0.0
1740797052.0746589,-56.640625,-68.84765625,-46.38671875,-71.2890625,0.0
1740797052.0785646,-54.6875,-71.2890625,-44.43359375,-60.546875,0.0
1740797052.0824707,-57.6171875,-76.66015625,-47.36328125,-53.7109375,0.0
1740797052.0863767,-64.453125,-82.51953125,-33.203125,-61.5234375,0.0
1740797052.0902824,-45.8984375,-79.1015625,-41.015625,-43.9453125,0.0
1740797052.0941885,-37.59765625,-70.80078125,-52.734375,-43.45703125,0.0
1740797052.0980942,-48.33984375,-89.84375,-43.9453125,-45.41015625,0.0
1740797052.1020002,-48.33984375,-92.7734375,-34.66796875,-19.04296875,0.0
1740797052.105906,-41.015625,-66.40625,-35.64453125,-40.0390625,0.0
1740797052.109812,-43.9453125,-72.265625,-44.921875,-49.8046875,0.0
1740797052.1137204,-41.015625,-76.171875,-41.015625,-14.16015625,0.0
1740797052.1176262,-28.3203125,-65.91796875,-39.55078125,0.9765625,0.0
1740797052.1215322,-33.69140625,-64.453125,-26.3671875,-5.859375,0.0
1740797052.1254382,-24.90234375,-77.63671875,-25.87890625,-20.01953125,0.0
1740797052.129344,-23.92578125,-81.0546875,-41.9921875,-28.3203125,0.0
1740797052.13325,-37.59765625,-75.68359375,-39.55078125,-37.109375,0.0
1740797052.1371558,-30.2734375,-70.80078125,-37.109375,-14.16015625,0.0
1740797052.1410618,-23.4375,-80.56640625,-32.2265625,-6.8359375,0.0
1740797052.1449676,-23.4375,-80.56640625,-33.69140625,-0.48828125,0.0
1740797052.1488736,-24.90234375,-60.05859375,-36.62109375,-12.6953125,0.0
1740797052.1527796,-30.76171875,-52.734375,-38.57421875,-17.08984375,0.0
1740797052.1566854,-33.69140625,-64.453125,-31.73828125,-18.06640625,0.0
1740797052.1605935,-21.484375,-64.453125,-30.76171875,-17.578125,0.0
1740797052.1644995,-13.18359375,-64.94140625,-27.34375,-17.08984375,0.0
1740797052.1684053,-23.4375,-61.5234375,-27.34375,-8.7890625,0.0
1740797052.1723113,-23.92578125,-53.7109375,-29.78515625,-10.7421875,0.0
1740797052.1762173,-14.6484375,-54.6875,-26.85546875,-27.34375,0.0
1740797052.180123,-26.85546875,-54.6875,-29.296875,-20.99609375,0.0
1740797052.184029,-37.109375,-53.22265625,-29.78515625,-13.18359375,0.0
1740797052.1879349,-30.2734375,-64.94140625,-24.90234375,-14.16015625,0.0
1740797052.191841,-27.83203125,-56.15234375,-22.94921875,-18.5546875,0.0
1740797052.1957467,-43.45703125,-46.38671875,-33.203125,-32.71484375,0.0
1740797052.1996527,-50.78125,-64.453125,-45.41015625,-40.52734375,0.0
1740797052.2035587,-49.8046875,-67.87109375,-41.015625,-46.38671875,0.0
1740797052.2074666,-45.41015625,-61.03515625,-37.109375,-46.875,0.0
1740797052.2113724,-47.36328125,-63.96484375,-40.0390625,-42.48046875,0.0
1740797052.2152784,-49.8046875,-80.078125,-42.48046875,-43.9453125,0.0
1740797052.2191842,-47.8515625,-79.58984375,-37.109375,-40.0390625,0.0
1740797052.2230902,-56.15234375,-74.21875,-40.52734375,-36.62109375,0.0
1740797052.226996,-60.546875,-81.54296875,-43.9453125,-38.0859375,0.0
1740797052.230902,-58.10546875,-90.33203125,-36.62109375,-45.8984375,0.0
1740797052.2348077,-80.078125,-94.23828125,-41.015625,-69.3359375,0.0
1740797052.2387137,-77.1484375,-78.125,-46.875,-63.4765625,0.0
1740797052.2426198,-53.7109375,-68.359375,-45.41015625,-53.7109375,0.0
1740797052.2465255,-45.41015625,-72.75390625,-40.52734375,-47.8515625,0.0
1740797052.2504315,-48.33984375,-65.91796875,-36.62109375,-43.45703125,0.0
1740797052.2543392,-57.12890625,-60.546875,-43.45703125,-49.8046875,0.0
1740797052.258245,-44.921875,-74.21875,-45.8984375,-31.73828125,0.0
1740797052.262151,-38.0859375,-77.1484375,-43.9453125,-26.85546875,0.0
1740797052.2660568,-45.41015625,-64.94140625,-41.9921875,-32.2265625,0.0
1740797052.2699628,-44.43359375,-67.3828125,-33.203125,-19.04296875,0.0
1740797052.2738688,-34.1796875,-65.4296875,-30.2734375,-17.578125,0.0
1740797052.2777746,-19.53125,-74.21875,-31.25,-8.30078125,0.0
1740797052.2816806,-23.4375,-76.66015625,-26.85546875,-15.13671875,0.0
1740797052.2855864,-27.83203125,-54.19921875,-26.85546875,-26.85546875,0.0
1740797052.2894924,-27.83203125,-54.19921875,-27.83203125,-22.4609375,0.0
1740797052.2933981,-34.66796875,-57.12890625,-31.73828125,-38.0859375,0.0
1740797052.2973042,-33.203125,-45.8984375,-34.1796875,-38.0859375,0.0
1740797052.3012116,-42.48046875,-35.15625,-42.96875,-25.87890625,0.0
1740797052.3051176,-50.78125,-45.8984375,-38.0859375,-18.5546875,0.0
1740797052.3090234,-37.109375,-48.33984375,-29.78515625,-23.92578125,0.0
1740797052.3129294,-33.203125,-40.0390625,-36.62109375,-35.15625,0.0
1740797052.3168352,-35.15625,-36.1328125,-37.109375,-40.0390625,0.0
1740797052.3207412,-32.2265625,-35.64453125,-33.203125,-36.62109375,0.0
1740797052.324647,-33.69140625,-48.828125,-35.64453125,-27.34375,0.0
1740797052.328553,-30.76171875,-42.48046875,-32.2265625,-20.01953125,0.0
1740797052.332459,-43.45703125,-36.62109375,-32.71484375,-27.34375,0.0
1740797052.3363647,-55.17578125,-49.8046875,-34.1796875,-31.25,0.0
1740797052.3402708,-39.55078125,-43.9453125,-38.0859375,-35.64453125,0.0
1740797052.3441765,-40.52734375,-34.1796875,-40.0390625,-42.48046875,0.0
1740797052.3480837,-52.734375,-34.66796875,-46.38671875,-44.43359375,0.0
1740797052.3519897,-42.48046875,-38.57421875,-49.8046875,-41.50390625,0.0
1740797052.3558958,-39.0625,-53.22265625,-45.41015625,-38.57421875,0.0
1740797052.3598015,-43.45703125,-47.36328125,-49.8046875,-49.31640625,0.0
1740797052.3637075,-44.921875,-46.38671875,-47.8515625,-60.546875,0.0
1740797052.3676133,-60.05859375,-58.59375,-49.8046875,-60.546875,0.0
1740797052.3715193,-66.40625,-62.01171875,-42.96875,-67.3828125,0.0
1740797052.375425,-53.7109375,-59.5703125,-43.9453125,-68.84765625,0.0
1740797052.379331,-52.24609375,-51.26953125,-53.22265625,-67.3828125,0.0
1740797052.3832371,-58.59375,-51.26953125,-42.96875,-60.546875,0.0
1740797052.387143,-42.96875,-46.875,-41.9921875,-44.43359375,0.0
1740797052.391049,-32.2265625,-54.6875,-36.62109375,-51.7578125,0.0
1740797052.3949575,-42.48046875,-66.40625,-38.0859375,-59.08203125,0.0
1740797052.3988636,-41.9921875,-59.08203125,-46.38671875,-42.48046875,0.0
1740797052.4027696,-33.203125,-61.5234375,-43.45703125,-39.55078125,0.0
1740797052.4066753,-29.78515625,-64.453125,-35.15625,-40.52734375,0.0
1740797052.4105814,-32.2265625,-65.91796875,-41.015625,-32.71484375,0.0
1740797052.4144871,-31.73828125,-72.75390625,-41.015625,-9.27734375,0.0
1740797052.4183931,-24.4140625,-66.89453125,-33.203125,-5.859375,0.0
1740797052.422299,-26.3671875,-57.6171875,-30.2734375,-22.94921875,0.0
1740797052.426205,-31.73828125,-56.640625,-27.83203125,-37.59765625,0.0
1740797052.430111,-47.36328125,-64.94140625,-33.69140625,-31.73828125,0.0
1740797052.4340167,-56.15234375,-58.59375,-35.64453125,-23.4375,0.0
1740797052.4379227,-45.41015625,-46.875,-37.109375,-29.296875,0.0
1740797052.441831,-31.25,-50.78125,-38.0859375,-19.04296875,0.0
1740797052.4457371,-30.76171875,-52.734375,-35.15625,-29.296875,0.0
1740797052.449643,-45.41015625,-35.64453125,-32.71484375,-19.53125,0.0
1740797052.453549,-47.36328125,-33.203125,-32.2265625,-19.04296875,0.0
1740797052.457455,-40.52734375,-33.203125,-35.15625,-27.34375,0.0
1740797052.4613607,-34.66796875,-40.0390625,-29.78515625,-12.6953125,0.0
1740797052.4652667,-38.0859375,-42.48046875,-35.64453125,-25.390625,0.0
1740797052.4691725,-48.33984375,-41.50390625,-49.31640625,-33.69140625,0.0
1740797052.4730785,-42.96875,-50.29296875,-43.45703125,-24.90234375,0.0
1740797052.4769843,-37.109375,-37.109375,-40.52734375,-34.66796875,0.0
1740797052.4808903,-38.0859375,-18.06640625,-34.1796875,-36.1328125,0.0
1740797052.4847963,-36.1328125,-21.484375,-29.296875,-32.2265625,0.0
1740797052.4887044,-26.85546875,-22.4609375,-32.2265625,-44.921875,0.0
1740797052.4926105,-25.87890625,-19.04296875,-31.25,-42.96875,0.0
1740797052.4965162,-32.71484375,-22.4609375,-34.66796875,-41.9921875,0.0
1740797052.5004222,-36.62109375,-22.4609375,-34.1796875,-35.64453125,0.0
1740797052.5043283,-45.41015625,-26.3671875,-31.73828125,-36.62109375,0.0
1740797052.508234,-32.71484375,-34.66796875,-36.1328125,-36.1328125,0.0
