timestamps,TP9,AF7,AF8,TP10,Right AUX
1740794959.076763,-45.41015625,-37.109375,-32.71484375,-35.15625,0.0
1740794959.080669,-55.17578125,-41.50390625,-34.1796875,-52.734375,0.0
1740794959.084575,-54.6875,-39.0625,-32.71484375,-61.5234375,0.0
1740794959.0884807,-50.78125,-33.203125,-30.76171875,-38.57421875,0.0
1740794959.0923867,-36.62109375,-33.203125,-30.2734375,-36.62109375,0.0
1740794959.0962925,-26.85546875,-41.50390625,-27.83203125,-37.59765625,0.0
1740794959.1001985,-36.62109375,-49.8046875,-30.76171875,-31.73828125,0.0
1740794959.1041045,-48.33984375,-37.59765625,-35.64453125,-33.203125,0.0
1740794959.1080103,-50.78125,-30.2734375,-28.80859375,-40.52734375,0.0
1740794959.1119163,-43.45703125,-33.203125,-27.83203125,-40.52734375,0.0
1740794959.115822,-49.31640625,-29.78515625,-33.203125,-43.45703125,0.0
1740794959.119728,-56.15234375,-30.76171875,-34.1796875,-46.38671875,0.0
1740794959.123638,-59.08203125,-24.90234375,-36.1328125,-42.96875,0.0
1740794959.127544,-41.9921875,-32.71484375,-36.1328125,-37.109375,0.0
1740794959.1314497,-38.0859375,-44.921875,-39.55078125,-38.0859375,0.0
1740794959.1353557,-48.828125,-37.59765625,-41.50390625,-34.66796875,0.0
1740794959.1392615,-24.4140625,-37.109375,-34.1796875,-35.64453125,0.0
1740794959.1431675,-28.80859375,-37.59765625,-36.62109375,-42.48046875,0.0
1740794959.1470735,-45.41015625,-38.0859375,-43.45703125,-40.52734375,0.0
1740794959.1509793,-49.31640625,-30.76171875,-41.9921875,-43.45703125,0.0
1740794959.1548853,-41.50390625,-26.85546875,-40.0390625,-37.59765625,0.0
1740794959.158791,-28.3203125,-38.57421875,-40.0390625,-29.296875,0.0
1740794959.162697,-26.85546875,-39.0625,-35.64453125,-36.62109375,0.0
1740794959.166603,-35.15625,-28.3203125,-40.52734375,-35.15625,0.0
1740794959.1705148,-37.109375,-31.25,-43.45703125,-25.87890625,0.0
1740794959.1744208,-34.66796875,-37.59765625,-39.55078125,-31.73828125,0.0
1740794959.1783266,-28.80859375,-28.3203125,-41.50390625,-27.34375,0.0
1740794959.1822326,-30.2734375,-27.34375,-36.1328125,-23.4375,0.0
1740794959.1861386,-24.4140625,-35.64453125,-30.2734375,-28.80859375,0.0
1740794959.1900444,-19.04296875,-37.59765625,-28.3203125,-20.01953125,0.0
1740794959.1939504,-24.4140625,-32.71484375,-32.71484375,-20.99609375,0.0
1740794959.1978562,-33.69140625,-35.15625,-35.15625,-32.71484375,0.0
1740794959.2017622,-43.45703125,-43.9453125,-30.2734375,-29.296875,0.0
1740794959.2056682,-29.78515625,-44.43359375,-31.25,-20.5078125,0.0
1740794959.209574,-19.04296875,-28.3203125,-37.109375,-25.390625,0.0
1740794959.21348,-25.87890625,-29.296875,-32.2265625,-29.78515625,0.0
1740794959.2173915,-32.2265625,-31.73828125,-25.87890625,-24.4140625,0.0
1740794959.2212975,-25.390625,-26.3671875,-26.3671875,-22.4609375,0.0
1740794959.2252033,-22.94921875,-27.83203125,-27.83203125,-30.2734375,0.0
1740794959.2291093,-33.203125,-26.3671875,-31.73828125,-29.296875,0.0
1740794959.2330153,-36.1328125,-27.34375,-31.25,-34.1796875,0.0
1740794959.236921,-34.1796875,-31.73828125,-35.15625,-42.48046875,0.0
1740794959.240827,-23.4375,-36.1328125,-38.57421875,-32.71484375,0.0
1740794959.2447329,-25.390625,-30.2734375,-36.1328125,-41.50390625,0.0
1740794959.2486389,-27.83203125,-25.390625,-32.2265625,-46.38671875,0.0
1740794959.2525449,-26.3671875,-37.59765625,-28.3203125,-34.66796875,0.0
1740794959.2564507,-33.69140625,-37.59765625,-30.2734375,-47.36328125,0.0
1740794959.2603567,-37.59765625,-36.1328125,-34.1796875,-51.26953125,0.0
1740794959.264268,-41.015625,-36.62109375,-33.69140625,-42.48046875,0.0
1740794959.268174,-48.33984375,-42.48046875,-36.1328125,-48.33984375,0.0
1740794959.2720797,-45.8984375,-45.41015625,-41.015625,-46.875,0.0
1740794959.2759857,-36.1328125,-40.52734375,-43.9453125,-44.921875,0.0
1740794959.2798917,-42.96875,-43.45703125,-40.52734375,-48.828125,0.0
1740794959.2837975,-51.7578125,-42.48046875,-39.55078125,-55.6640625,0.0
1740794959.2877035,-46.38671875,-31.25,-42.48046875,-53.22265625,0.0
1740794959.2916093,-33.69140625,-29.78515625,-42.96875,-41.015625,0.0
1740794959.2955153,-24.90234375,-39.55078125,-31.25,-31.25,0.0
1740794959.2994213,-36.1328125,-38.0859375,-23.4375,-30.76171875,0.0
1740794959.303327,-36.62109375,-33.69140625,-34.66796875,-34.1796875,0.0
1740794959.307233,-20.01953125,-36.1328125,-34.66796875,-32.2265625,0.0
1740794959.311144,0.0,-36.1328125,-25.87890625,-27.83203125,0.0
1740794959.31505,0.0,-33.203125,-31.25,-33.203125,0.0
1740794959.318956,0.0,-31.25,-35.64453125,-41.015625,0.0
1740794959.322862,0.0,-31.25,-34.66796875,-28.3203125,0.0
1740794959.3267677,0.0,-30.76171875,-35.64453125,-20.5078125,0.0
1740794959.3306737,0.0,-27.83203125,-34.1796875,-30.2734375,0.0
1740794959.3345795,0.0,-26.3671875,-36.62109375,-35.15625,0.0
1740794959.3384855,0.0,-23.92578125,-41.015625,-30.2734375,0.0
1740794959.3423913,0.0,-28.3203125,-40.0390625,-23.92578125,0.0
1740794959.3462973,0.0,-24.4140625,-36.1328125,-23.4375,0.0
1740794959.3502033,0.0,-22.4609375,-36.1328125,-30.2734375,0.0
1740794959.354109,0.0,-31.25,-37.59765625,-30.76171875,0.0
1740794959.3580198,-35.64453125,-26.3671875,-42.96875,-33.69140625,0.0
1740794959.3619258,-32.71484375,-21.484375,-42.48046875,-40.0390625,0.0
1740794959.3658316,-35.15625,-29.296875,-38.0859375,-40.0390625,0.0
1740794959.3697376,-41.50390625,-31.25,-41.50390625,-42.96875,0.0
1740794959.3736434,-48.33984375,-31.73828125,-40.0390625,-40.0390625,0.0
1740794959.3775494,-49.31640625,-29.78515625,-37.109375,-35.64453125,0.0
1740794959.3814554,-42.48046875,-35.15625,-35.15625,-31.25,0.0
1740794959.3853612,-47.8515625,-40.52734375,-36.62109375,-24.4140625,0.0
1740794959.3892672,-43.45703125,-31.73828125,-41.50390625,-26.85546875,0.0
1740794959.393173,-39.0625,-25.87890625,-41.015625,-33.203125,0.0
1740794959.397079,-28.80859375,-34.1796875,-37.59765625,-34.66796875,0.0
1740794959.400985,-32.2265625,-37.109375,-33.203125,-30.76171875,0.0
1740794959.4048953,-44.921875,-41.50390625,-34.66796875,-32.71484375,0.0
1740794959.408801,-43.9453125,-45.41015625,-39.55078125,-37.59765625,0.0
1740794959.412707,-37.59765625,-40.0390625,-38.57421875,-34.66796875,0.0
1740794959.416613,-45.41015625,-36.62109375,-36.1328125,-39.55078125,0.0
1740794959.4205189,-54.19921875,-50.78125,-34.1796875,-45.8984375,0.0
1740794959.424425,-44.921875,-52.24609375,-34.66796875,-32.71484375,0.0
1740794959.4283307,-45.41015625,-51.26953125,-41.50390625,-22.94921875,0.0
1740794959.4322367,-46.38671875,-57.12890625,-40.0390625,-35.64453125,0.0
1740794959.4361427,-47.8515625,-47.8515625,-39.0625,-51.26953125,0.0
1740794959.4400485,-47.8515625,-41.9921875,-39.0625,-44.43359375,0.0
1740794959.4439545,-39.0625,-42.48046875,-34.66796875,-31.25,0.0
1740794959.4478602,-37.109375,-40.52734375,-34.1796875,-33.203125,0.0
1740794959.4517705,-46.875,-37.59765625,-36.62109375,-39.0625,0.0
1740794959.4556763,-46.38671875,-40.0390625,-41.015625,-37.59765625,0.0
1740794959.4595823,-36.62109375,-44.43359375,-38.57421875,-37.59765625,0.0
1740794959.4634883,-45.41015625,-51.7578125,-40.52734375,-45.41015625,0.0
1740794959.467394,-60.546875,-50.78125,-46.875,-50.78125,0.0
1740794959.4713001,-66.40625,-46.38671875,-42.96875,-57.6171875,0.0
1740794959.475206,-45.8984375,-47.36328125,-36.62109375,-53.22265625,0.0
1740794959.479112,-35.15625,-41.50390625,-38.57421875,-45.41015625,0.0
1740794959.483018,-47.8515625,-35.64453125,-36.62109375,-46.38671875,0.0
1740794959.4869237,-46.875,-34.1796875,-33.69140625,-43.45703125,0.0
1740794959.4908297,-27.34375,-34.1796875,-30.76171875,-38.57421875,0.0
1740794959.4947355,-25.390625,-26.3671875,-24.90234375,-34.66796875,0.0
1740794959.4986453,-47.36328125,-20.5078125,-25.390625,-28.3203125,0.0
1740794959.5025513,-45.8984375,-37.59765625,-28.80859375,-17.578125,0.0
1740794959.5064573,-25.87890625,-33.69140625,-26.85546875,-13.18359375,0.0
1740794959.510363,-20.99609375,-26.85546875,-28.3203125,-23.92578125,0.0
1740794959.514269,-22.4609375,-34.66796875,-32.71484375,-26.3671875,0.0
1740794959.518175,-26.85546875,-37.109375,-31.73828125,-20.01953125,0.0
1740794959.522081,-23.4375,-39.55078125,-34.1796875,-19.04296875,0.0
1740794959.525987,-9.765625,-32.2265625,-33.69140625,-16.11328125,0.0
1740794959.5298927,-14.6484375,-22.4609375,-23.4375,-11.23046875,0.0
1740794959.5337987,-30.2734375,-30.76171875,-27.83203125,-9.27734375,0.0
1740794959.5377045,-29.296875,-40.52734375,-30.76171875,-8.7890625,0.0
1740794959.5416105,-10.25390625,-36.1328125,-25.87890625,-7.32421875,0.0
1740794959.5455227,0.0,-27.83203125,-27.34375,-5.859375,0.0
1740794959.5494285,0.0,-34.66796875,-26.85546875,-14.6484375,0.0
1740794959.5533345,0.0,-35.15625,-27.34375,-20.01953125,0.0
1740794959.5572402,0.0,-33.69140625,-32.71484375,-19.53125,0.0
1740794959.5611463,0.0,-37.59765625,-29.296875,-27.34375,0.0
1740794959.5650523,0.0,-37.109375,-25.87890625,-27.34375,0.0
1740794959.568958,0.0,-31.73828125,-33.203125,-35.15625,0.0
1740794959.572864,0.0,-24.4140625,-40.52734375,-42.48046875,0.0
1740794959.5767698,0.0,-28.80859375,-43.9453125,-42.48046875,0.0
1740794959.5806758,0.0,-46.38671875,-43.9453125,-41.9921875,0.0
1740794959.5845816,0.0,-47.36328125,-41.9921875,-40.0390625,0.0
1740794959.5884876,0.0,-36.1328125,-40.0390625,-44.43359375,0.0
1740794959.5923991,-39.55078125,-33.203125,-44.43359375,-51.26953125,0.0
1740794959.5963051,-42.96875,-37.109375,-40.52734375,-48.828125,0.0
1740794959.6002111,-48.33984375,-40.52734375,-36.1328125,-63.4765625,0.0
1740794959.604117,-41.9921875,-39.55078125,-41.9921875,-63.4765625,0.0
1740794959.608023,-25.87890625,-35.15625,-40.0390625,-50.29296875,0.0
1740794959.6119287,-37.59765625,-45.8984375,-34.1796875,-62.98828125,0.0
1740794959.6158347,-62.01171875,-49.8046875,-41.9921875,-53.22265625,0.0
1740794959.6197407,-62.01171875,-43.45703125,-46.38671875,-41.50390625,0.0
1740794959.6236465,-50.29296875,-50.29296875,-39.0625,-36.62109375,0.0
1740794959.6275525,-35.64453125,-49.31640625,-34.66796875,-31.73828125,0.0
1740794959.6314583,-39.0625,-52.24609375,-34.66796875,-37.109375,0.0
1740794959.6353643,-59.5703125,-55.6640625,-38.0859375,-36.1328125,0.0
1740794959.6392756,-51.7578125,-50.29296875,-39.0625,-29.296875,0.0
1740794959.6431816,-35.15625,-50.78125,-33.69140625,-37.109375,0.0
1740794959.6470873,-40.0390625,-45.8984375,-35.15625,-44.43359375,0.0
1740794959.6509933,-40.0390625,-37.109375,-34.66796875,-25.390625,0.0
1740794959.6548994,-40.0390625,-38.0859375,-33.203125,-21.97265625,0.0
1740794959.6588051,-41.9921875,-38.57421875,-33.203125,-30.76171875,0.0
1740794959.6627111,-30.2734375,-39.0625,-28.3203125,-32.71484375,0.0
1740794959.666617,-39.0625,-41.50390625,-28.80859375,-37.109375,0.0
1740794959.670523,-42.48046875,-48.33984375,-29.296875,-31.25,0.0
1740794959.674429,-28.3203125,-39.55078125,-24.90234375,-24.4140625,0.0
1740794959.6783347,-23.4375,-28.80859375,-29.78515625,-26.3671875,0.0
1740794959.6822407,-34.1796875,-31.25,-32.2265625,-32.71484375,0.0
1740794959.6861515,-41.015625,-30.2734375,-25.390625,-32.2265625,0.0
1740794959.6900575,-28.3203125,-35.64453125,-24.4140625,-14.16015625,0.0
1740794959.6939635,-12.6953125,-38.0859375,-24.4140625,-15.13671875,0.0
1740794959.6978693,-25.87890625,-38.0859375,-20.99609375,-21.97265625,0.0
1740794959.7017753,-33.203125,-37.109375,-25.87890625,-14.6484375,0.0
1740794959.705681,-25.87890625,-34.1796875,-32.71484375,-19.53125,0.0
1740794959.709587,-15.13671875,-35.15625,-30.2734375,-19.04296875,0.0
1740794959.713493,-10.7421875,-33.203125,-27.34375,-7.8125,0.0
1740794959.717399,-23.4375,-37.59765625,-22.4609375,-12.20703125,0.0
1740794959.721305,-28.80859375,-27.83203125,-20.99609375,-17.578125,0.0
1740794959.7252107,-18.5546875,-25.87890625,-24.90234375,-15.625,0.0
1740794959.7291167,-12.6953125,-31.73828125,-31.73828125,-19.04296875,0.0
1740794959.7330275,-20.01953125,-29.78515625,-29.296875,-20.99609375,0.0
1740794959.7369335,-34.1796875,-33.203125,-25.390625,-29.296875,0.0
1740794959.7408392,-34.1796875,-36.1328125,-27.34375,-35.15625,0.0
1740794959.7447453,-20.99609375,-36.1328125,-25.87890625,-31.25,0.0
1740794959.748651,-32.71484375,-35.64453125,-25.87890625,-26.3671875,0.0
1740794959.752557,-43.45703125,-37.59765625,-30.76171875,-22.94921875,0.0
1740794959.756463,-32.71484375,-38.57421875,-24.4140625,-19.04296875,0.0
1740794959.7603688,-16.6015625,-39.55078125,-23.92578125,-17.08984375,0.0
1740794959.7642748,-18.5546875,-30.2734375,-35.64453125,-22.94921875,0.0
1740794959.7681806,-34.1796875,-23.4375,-37.59765625,-31.73828125,0.0
1740794959.7720866,-32.2265625,-41.9921875,-37.59765625,-32.71484375,0.0
1740794959.7759924,-31.25,-44.921875,-33.203125,-29.78515625,0.0
1740794959.779903,-32.71484375,-32.71484375,-32.71484375,-23.4375,0.0
1740794959.7838087,-36.1328125,-25.87890625,-37.109375,-28.3203125,0.0
1740794959.7877147,-49.31640625,-29.78515625,-40.52734375,-46.875,0.0
1740794959.7916207,-43.9453125,-29.78515625,-41.50390625,-47.36328125,0.0
1740794959.7955265,-34.66796875,-25.87890625,-36.62109375,-44.43359375,0.0
1740794959.7994325,-46.875,-23.92578125,-35.15625,-43.45703125,0.0
1740794959.8033383,-50.78125,-28.80859375,-40.0390625,-38.57421875,0.0
1740794959.8072443,-38.0859375,-27.83203125,-36.1328125,-39.0625,0.0
1740794959.8111503,-27.83203125,-24.90234375,-39.55078125,-45.8984375,0.0
1740794959.815056,-31.25,-23.92578125,-42.96875,-43.9453125,0.0
1740794959.818962,-33.69140625,-28.3203125,-40.52734375,-38.57421875,0.0
1740794959.8228679,-26.3671875,-29.296875,-41.9921875,-45.8984375,0.0
1740794959.8267782,-20.01953125,-26.85546875,-40.52734375,-46.875,0.0
1740794959.830684,-20.5078125,-28.80859375,-37.109375,-38.57421875,0.0
1740794959.83459,-35.15625,-27.34375,-31.25,-30.2734375,0.0
1740794959.838496,-49.8046875,-30.2734375,-30.2734375,-34.1796875,0.0
1740794959.8424017,-38.57421875,-30.2734375,-31.73828125,-30.2734375,0.0
1740794959.8463078,-25.390625,-26.85546875,-29.78515625,-26.85546875,0.0
1740794959.8502135,-46.875,-33.69140625,-27.34375,-49.31640625,0.0
1740794959.8541195,-51.26953125,-39.55078125,-28.3203125,-48.33984375,0.0
1740794959.8580256,-29.78515625,-26.3671875,-31.73828125,-26.85546875,0.0
1740794959.8619313,-29.78515625,-20.99609375,-27.83203125,-28.3203125,0.0
1740794959.8658373,-29.78515625,-30.76171875,-25.87890625,-25.390625,0.0
1740794959.869743,-35.64453125,-25.390625,-23.92578125,-25.87890625,0.0
1740794959.873653,-39.0625,-23.92578125,-24.90234375,-32.2265625,0.0
1740794959.877559,-32.2265625,-30.76171875,-30.76171875,-33.203125,0.0
1740794959.8814647,-48.828125,-22.4609375,-35.15625,-37.109375,0.0
1740794959.8853707,-60.05859375,-32.71484375,-32.71484375,-44.43359375,0.0
1740794959.8892767,-42.96875,-47.36328125,-34.1796875,-39.55078125,0.0
1740794959.8931825,-34.66796875,-40.0390625,-37.109375,-29.78515625,0.0
1740794959.8970885,-32.2265625,-35.15625,-26.85546875,-28.3203125,0.0
1740794959.9009943,-33.203125,-29.296875,-22.94921875,-32.2265625,0.0
1740794959.9049003,-36.62109375,-27.34375,-28.3203125,-34.66796875,0.0
1740794959.908806,-21.484375,-35.15625,-29.78515625,-27.83203125,0.0
1740794959.912712,-21.97265625,-40.0390625,-28.80859375,-17.08984375,0.0
1740794959.916618,-44.921875,-35.64453125,-25.87890625,-16.6015625,0.0
1740794959.92053,-43.9453125,-35.15625,-31.25,-28.80859375,0.0
1740794959.924436,-16.6015625,-37.109375,-37.59765625,-26.3671875,0.0
1740794959.9283419,-20.99609375,-31.73828125,-38.0859375,-28.80859375,0.0
1740794959.9322479,-46.38671875,-36.1328125,-33.203125,-36.62109375,0.0
1740794959.9361537,-38.57421875,-34.1796875,-27.83203125,-26.85546875,0.0
1740794959.9400597,-30.2734375,-37.109375,-26.3671875,-26.85546875,0.0
1740794959.9439657,-32.71484375,-40.0390625,-35.64453125,-23.92578125,0.0
1740794959.9478714,-38.57421875,-29.296875,-39.0625,-25.390625,0.0
1740794959.9517775,-49.8046875,-26.85546875,-38.0859375,-30.2734375,0.0
1740794959.9556832,-45.8984375,-41.015625,-35.64453125,-19.53125,0.0
1740794959.9595892,-31.25,-28.80859375,-33.203125,-28.3203125,0.0
1740794959.9634953,-23.4375,-23.4375,-34.66796875,-37.59765625,0.0
1740794959.9674067,-35.64453125,-27.34375,-39.0625,-41.50390625,0.0
1740794959.9713128,-37.59765625,-21.97265625,-43.9453125,-42.48046875,0.0
1740794959.9752185,-36.62109375,-31.25,-34.1796875,-38.57421875,0.0
1740794959.9791245,-41.9921875,-29.78515625,-30.2734375,-33.69140625,0.0
1740794959.9830306,-47.8515625,-20.5078125,-28.80859375,-26.3671875,0.0
1740794959.9869363,-44.921875,-26.85546875,-24.90234375,-30.2734375,0.0
1740794959.9908423,-30.76171875,-23.4375,-30.76171875,-37.59765625,0.0
1740794959.994748,-29.296875,-27.83203125,-28.80859375,-37.59765625,0.0
1740794959.9986541,-45.8984375,-35.15625,-27.83203125,-36.1328125,0.0
1740794960.0025601,-33.69140625,-30.76171875,-28.3203125,-28.80859375,0.0
1740794960.006466,-28.80859375,-24.4140625,-28.80859375,-27.83203125,0.0
1740794960.010372,-33.69140625,-31.73828125,-31.25,-29.78515625,0.0
1740794960.0142858,-33.203125,-32.71484375,-40.0390625,-27.83203125,0.0
1740794960.0181916,-40.0390625,-32.71484375,-43.9453125,-34.1796875,0.0
1740794960.0220976,-36.62109375,-35.64453125,-38.57421875,-25.87890625,0.0
1740794960.0260034,-26.3671875,-37.59765625,-32.2265625,-16.6015625,0.0
1740794960.0299094,-19.04296875,-33.69140625,-31.25,-22.94921875,0.0
1740794960.0338154,-32.71484375,-30.76171875,-36.62109375,-23.4375,0.0
1740794960.0377212,-39.55078125,-40.52734375,-38.0859375,-24.4140625,0.0
1740794960.0416272,-38.0859375,-40.52734375,-34.66796875,-24.4140625,0.0
1740794960.045533,-36.1328125,-44.921875,-34.66796875,-25.390625,0.0
1740794960.049439,-33.203125,-47.36328125,-40.52734375,-32.71484375,0.0
1740794960.053345,-36.62109375,-34.1796875,-47.36328125,-35.15625,0.0
1740794960.0572507,-31.73828125,-34.66796875,-41.015625,-30.2734375,0.0
1740794960.0611618,-20.99609375,-39.55078125,-33.203125,-20.99609375,0.0
1740794960.0650678,-21.97265625,-31.25,-33.203125,-22.94921875,0.0
1740794960.0689735,-27.83203125,-23.92578125,-31.73828125,-24.4140625,0.0
1740794960.0728796,-19.53125,-29.78515625,-35.64453125,-32.71484375,0.0
1740794960.0767856,-20.5078125,-39.55078125,-35.64453125,-37.59765625,0.0
1740794960.0806913,-33.69140625,-41.50390625,-38.0859375,-24.90234375,0.0
1740794960.0845973,-36.62109375,-38.0859375,-45.41015625,-20.99609375,0.0
1740794960.0885031,-36.1328125,-37.59765625,-41.015625,-28.80859375,0.0
1740794960.0924091,-25.390625,-34.1796875,-37.109375,-40.52734375,0.0
1740794960.0963151,-20.99609375,-31.73828125,-41.9921875,-46.38671875,0.0
1740794960.100221,-41.50390625,-32.2265625,-40.52734375,-42.96875,0.0
1740794960.104127,-47.36328125,-33.203125,-34.1796875,-41.50390625,0.0
1740794960.1080377,-26.85546875,-32.2265625,-32.71484375,-36.1328125,0.0
1740794960.1119435,-28.80859375,-25.390625,-36.1328125,-45.8984375,0.0
1740794960.1158495,-43.9453125,-34.66796875,-30.76171875,-52.734375,0.0
1740794960.1197553,-48.33984375,-44.43359375,-31.25,-40.52734375,0.0
1740794960.1236613,-38.57421875,-33.69140625,-40.52734375,-39.0625,0.0
1740794960.127567,-28.80859375,-32.2265625,-36.62109375,-38.57421875,0.0
1740794960.131473,-32.2265625,-43.9453125,-31.25,-42.96875,0.0
1740794960.135379,-47.36328125,-44.43359375,-29.296875,-45.41015625,0.0
1740794960.1392848,-50.78125,-32.71484375,-29.78515625,-37.109375,0.0
1740794960.1431909,-28.3203125,-31.73828125,-35.15625,-35.15625,0.0
1740794960.1470966,-22.94921875,-40.52734375,-34.66796875,-36.1328125,0.0
1740794960.1510026,-34.1796875,-41.50390625,-36.62109375,-44.43359375,0.0
1740794960.1549132,-33.203125,-34.66796875,-35.15625,-39.55078125,0.0
1740794960.158819,-32.71484375,-36.62109375,-32.2265625,-30.2734375,0.0
1740794960.162725,-31.25,-40.0390625,-32.2265625,-31.73828125,0.0
1740794960.1666307,-33.203125,-37.59765625,-27.34375,-22.94921875,0.0
1740794960.1705368,-51.7578125,-37.59765625,-32.2265625,-29.296875,0.0
1740794960.1744428,-46.875,-40.0390625,-33.69140625,-36.1328125,0.0
1740794960.1783485,-40.0390625,-47.8515625,-27.34375,-38.0859375,0.0
1740794960.1822546,-45.41015625,-43.9453125,-31.73828125,-32.2265625,0.0
1740794960.1861603,-49.31640625,-34.1796875,-37.109375,-34.1796875,0.0
1740794960.1900663,-48.828125,-31.73828125,-33.69140625,-40.52734375,0.0
1740794960.1939723,-40.52734375,-27.34375,-29.296875,-39.0625,0.0
1740794960.1978781,-49.31640625,-35.15625,-34.66796875,-41.015625,0.0
1740794960.2017884,-51.7578125,-38.0859375,-44.43359375,-37.59765625,0.0
1740794960.2056942,-43.45703125,-36.62109375,-40.52734375,-40.0390625,0.0
1740794960.2096002,-43.9453125,-39.55078125,-35.15625,-53.22265625,0.0
1740794960.2135062,-45.8984375,-38.57421875,-40.52734375,-50.29296875,0.0
1740794960.217412,-58.10546875,-36.62109375,-39.55078125,-47.36328125,0.0
1740794960.221318,-51.7578125,-37.59765625,-35.64453125,-46.38671875,0.0
1740794960.2252238,-49.31640625,-44.921875,-37.59765625,-41.50390625,0.0
1740794960.2291298,-53.7109375,-35.15625,-41.015625,-46.875,0.0
1740794960.2330358,-46.875,-32.2265625,-43.45703125,-46.38671875,0.0
1740794960.2369416,-49.8046875,-40.52734375,-46.875,-41.50390625,0.0
1740794960.2408476,-43.45703125,-43.9453125,-49.8046875,-53.7109375,0.0
1740794960.2447534,-35.15625,-39.0625,-42.96875,-53.22265625,0.0
1740794960.2486632,-50.78125,-34.1796875,-41.015625,-52.24609375,0.0
1740794960.2525692,-59.08203125,-36.1328125,-41.50390625,-59.08203125,0.0
1740794960.256475,-41.50390625,-33.203125,-39.55078125,-51.7578125,0.0
1740794960.260381,-34.1796875,-36.62109375,-35.64453125,-51.26953125,0.0
1740794960.264287,-37.59765625,-34.1796875,-34.1796875,-51.26953125,0.0
1740794960.2681928,-37.59765625,-32.71484375,-34.66796875,-40.52734375,0.0
1740794960.2720988,-36.62109375,-38.0859375,-39.55078125,-39.0625,0.0
1740794960.2760046,-29.78515625,-30.76171875,-45.41015625,-43.45703125,0.0
1740794960.2799106,-32.2265625,-25.87890625,-45.8984375,-51.7578125,0.0
1740794960.2838166,-39.0625,-25.87890625,-38.57421875,-48.828125,0.0
1740794960.2877223,-34.1796875,-30.2734375,-36.62109375,-37.59765625,0.0
1740794960.2916284,-21.97265625,-36.1328125,-42.96875,-42.48046875,0.0
1740794960.2955403,-14.16015625,-32.71484375,-42.96875,-42.96875,0.0
1740794960.299446,-26.3671875,-27.34375,-40.52734375,-42.48046875,0.0
1740794960.303352,-28.3203125,-32.71484375,-39.0625,-44.43359375,0.0
1740794960.307258,-8.30078125,-28.3203125,-34.66796875,-28.3203125,0.0
1740794960.311164,-13.18359375,-32.71484375,-33.69140625,-17.578125,0.0
1740794960.31507,-19.04296875,-44.921875,-32.71484375,-17.578125,0.0
1740794960.3189757,-30.76171875,-32.2265625,-31.25,-26.3671875,0.0
1740794960.3228817,-30.2734375,-21.484375,-31.73828125,-29.78515625,0.0
1740794960.3267875,-15.625,-31.73828125,-33.69140625,-30.2734375,0.0
1740794960.3306935,-28.3203125,-39.55078125,-36.1328125,-33.203125,0.0
1740794960.3345995,-44.43359375,-32.71484375,-39.55078125,-43.9453125,0.0
1740794960.3385053,-45.41015625,-31.73828125,-41.9921875,-42.96875,0.0
1740794960.342417,-41.50390625,-31.25,-43.9453125,-31.73828125,0.0
1740794960.346323,-47.8515625,-28.3203125,-42.96875,-43.9453125,0.0
1740794960.3502288,-54.19921875,-30.76171875,-36.1328125,-51.26953125,0.0
1740794960.3541348,-41.015625,-30.2734375,-34.66796875,-43.45703125,0.0
1740794960.3580408,-35.15625,-37.109375,-41.9921875,-42.48046875,0.0
1740794960.3619466,-48.828125,-40.52734375,-43.9453125,-47.36328125,0.0
1740794960.3658526,-63.4765625,-40.0390625,-42.48046875,-50.29296875,0.0
1740794960.3697584,-72.75390625,-35.64453125,-40.0390625,-46.38671875,0.0
1740794960.3736644,-56.640625,-41.015625,-34.1796875,-41.9921875,0.0
1740794960.3775704,-46.38671875,-47.8515625,-32.71484375,-40.0390625,0.0
1740794960.3814762,-51.7578125,-36.62109375,-36.1328125,-42.48046875,0.0
1740794960.3853822,-60.546875,-41.50390625,-32.71484375,-48.828125,0.0
1740794960.3892934,-46.38671875,-50.29296875,-31.73828125,-53.22265625,0.0
1740794960.3931992,-38.57421875,-42.48046875,-37.59765625,-51.7578125,0.0
1740794960.3971052,-46.38671875,-40.0390625,-35.64453125,-50.78125,0.0
1740794960.4010112,-49.8046875,-41.015625,-33.203125,-39.55078125,0.0
1740794960.404917,-48.33984375,-40.0390625,-38.57421875,-37.109375,0.0
1740794960.408823,-35.64453125,-36.62109375,-39.55078125,-41.9921875,0.0
1740794960.4127288,-36.62109375,-36.1328125,-32.2265625,-26.85546875,0.0
1740794960.4166348,-34.66796875,-38.0859375,-27.34375,-25.390625,0.0
1740794960.4205408,-19.53125,-39.0625,-24.4140625,-24.4140625,0.0
1740794960.4244466,-30.2734375,-29.296875,-27.34375,-19.04296875,0.0
1740794960.4283526,-34.66796875,-23.92578125,-37.109375,-35.15625,0.0
1740794960.4322584,-6.34765625,-26.85546875,-32.2265625,-36.62109375,0.0
1740794960.4361694,-11.71875,-20.99609375,-27.83203125,-18.5546875,0.0
1740794960.4400754,-27.34375,-25.87890625,-32.2265625,4.8828125,0.0
1740794960.4439812,-18.5546875,-23.92578125,-33.203125,-17.08984375,0.0
1740794960.4478872,-22.94921875,-15.13671875,-27.83203125,-36.62109375,0.0
1740794960.4517932,-11.71875,-20.01953125,-30.76171875,-18.5546875,0.0
1740794960.455699,13.18359375,-18.5546875,-40.0390625,-11.23046875,0.0
1740794960.459605,6.8359375,-17.08984375,-42.96875,-16.6015625,0.0
1740794960.4635108,-8.7890625,-30.2734375,-29.78515625,-15.13671875,0.0
1740794960.4674168,-16.6015625,-31.25,-24.4140625,-3.90625,0.0
1740794960.4713228,-3.41796875,-22.94921875,-37.59765625,-3.41796875,0.0
1740794960.4752285,-6.8359375,-26.85546875,-41.50390625,-6.34765625,0.0
1740794960.4791346,-1.46484375,-23.92578125,-37.59765625,-14.16015625,0.0
1740794960.483045,-6.8359375,-20.5078125,-30.2734375,-19.04296875,0.0
1740794960.486951,-31.73828125,-25.87890625,-31.73828125,-39.55078125,0.0
1740794960.490857,-29.78515625,-34.66796875,-34.66796875,-42.48046875,0.0
1740794960.494763,-11.71875,-35.15625,-30.76171875,-30.2734375,0.0
1740794960.498669,1.46484375,-26.3671875,-32.2265625,-24.90234375,0.0
1740794960.5025747,-13.18359375,-35.64453125,-30.76171875,-23.92578125,0.0
1740794960.5064807,-35.64453125,-39.0625,-38.57421875,-23.92578125,0.0
1740794960.5103865,-23.4375,-34.66796875,-39.55078125,-16.11328125,0.0
1740794960.5142925,-24.4140625,-34.66796875,-32.2265625,-17.578125,0.0
1740794960.5181985,-41.015625,-32.2265625,-39.55078125,-39.55078125,0.0
1740794960.5221043,-44.43359375,-38.0859375,-45.41015625,-36.1328125,0.0
1740794960.5260103,-18.5546875,-36.1328125,-40.52734375,-33.203125,0.0
1740794960.5299206,-7.8125,-28.80859375,-36.62109375,-43.45703125,0.0
1740794960.5338266,-38.0859375,-27.83203125,-37.109375,-42.96875,0.0
1740794960.5377324,-51.26953125,-39.55078125,-33.69140625,-29.296875,0.0
1740794960.5416384,-38.57421875,-44.43359375,-33.69140625,-28.3203125,0.0
1740794960.5455444,-39.55078125,-38.57421875,-32.2265625,-37.59765625,0.0
1740794960.5494502,-40.52734375,-35.64453125,-29.78515625,-34.66796875,0.0
1740794960.5533562,-30.76171875,-36.62109375,-31.73828125,-28.3203125,0.0
1740794960.557262,-18.5546875,-33.69140625,-28.80859375,-8.7890625,0.0
1740794960.561168,-14.6484375,-27.34375,-35.15625,-5.37109375,0.0
1740794960.565074,-17.08984375,-35.64453125,-37.59765625,-17.08984375,0.0
1740794960.5689797,-30.76171875,-42.48046875,-26.3671875,-18.5546875,0.0
1740794960.5728858,-27.83203125,-37.109375,-29.296875,-20.99609375,0.0
1740794960.5767958,0.0,-37.109375,-33.69140625,-17.08984375,0.0
1740794960.5807018,0.0,-41.50390625,-32.2265625,-17.578125,0.0
1740794960.5846078,0.0,-44.921875,-31.25,-20.99609375,0.0
1740794960.5885136,0.0,-39.55078125,-30.2734375,-23.4375,0.0
1740794960.5924196,0.0,-34.1796875,-31.25,-22.4609375,0.0
1740794960.5963254,0.0,-39.0625,-33.69140625,-20.5078125,0.0
1740794960.6002314,0.0,-42.96875,-32.2265625,-10.7421875,0.0
1740794960.6041374,0.0,-36.62109375,-35.64453125,-11.71875,0.0
1740794960.6080432,0.0,-26.3671875,-41.50390625,-25.390625,0.0
1740794960.6119492,0.0,-22.4609375,-33.69140625,-19.53125,0.0
1740794960.615855,0.0,-35.15625,-25.390625,-16.11328125,0.0
1740794960.619761,0.0,-39.55078125,-28.3203125,-21.97265625,0.0
1740794960.6236708,-29.296875,-28.80859375,-34.66796875,-12.20703125,0.0
1740794960.6275766,-14.6484375,-29.78515625,-39.55078125,-19.04296875,0.0
1740794960.6314826,-27.83203125,-30.76171875,-36.62109375,-31.73828125,0.0
1740794960.6353886,-32.2265625,-27.83203125,-34.1796875,-29.78515625,0.0
1740794960.6392944,-18.06640625,-32.2265625,-31.25,-32.2265625,0.0
1740794960.6432004,-10.7421875,-35.15625,-34.66796875,-31.73828125,0.0
1740794960.6471062,-22.4609375,-37.109375,-40.52734375,-31.73828125,0.0
1740794960.6510122,-29.78515625,-34.1796875,-42.96875,-37.109375,0.0
1740794960.6549182,-20.5078125,-30.76171875,-36.62109375,-25.87890625,0.0
1740794960.658824,-33.69140625,-33.69140625,-32.2265625,-10.7421875,0.0
1740794960.66273,-37.59765625,-34.66796875,-27.83203125,-23.92578125,0.0
1740794960.6666358,-28.3203125,-30.76171875,-27.83203125,-29.78515625,0.0
1740794960.6705477,-39.0625,-36.62109375,-37.59765625,-28.3203125,0.0
1740794960.6744537,-47.36328125,-33.203125,-38.57421875,-29.78515625,0.0
1740794960.6783595,-40.52734375,-33.203125,-42.96875,-35.15625,0.0
1740794960.6822655,-29.296875,-34.66796875,-40.0390625,-46.875,0.0
1740794960.6861715,-33.203125,-35.15625,-32.71484375,-41.015625,0.0
1740794960.6900773,-52.734375,-48.33984375,-36.1328125,-34.66796875,0.0
1740794960.6939833,-40.0390625,-44.43359375,-38.57421875,-37.59765625,0.0
1740794960.697889,-36.1328125,-34.66796875,-35.15625,-41.50390625,0.0
1740794960.701795,-48.33984375,-37.59765625,-38.57421875,-42.48046875,0.0
1740794960.705701,-50.78125,-37.109375,-39.55078125,-28.80859375,0.0
1740794960.709607,-43.45703125,-30.2734375,-36.1328125,-26.3671875,0.0
1740794960.713513,-24.90234375,-30.76171875,-32.71484375,-43.9453125,0.0
1740794960.7174244,-47.8515625,-32.71484375,-31.25,-43.9453125,0.0
1740794960.7213304,-46.38671875,-31.73828125,-35.64453125,-32.2265625,0.0
1740794960.7252362,-26.85546875,-42.96875,-45.41015625,-35.64453125,0.0
1740794960.7291422,-20.01953125,-39.55078125,-45.8984375,-53.22265625,0.0
1740794960.7330482,-20.01953125,-40.0390625,-35.15625,-45.41015625,0.0
1740794960.736954,-49.31640625,-42.48046875,-29.296875,-32.71484375,0.0
1740794960.74086,-46.38671875,-39.0625,-27.83203125,-38.57421875,0.0
1740794960.7447658,-27.83203125,-30.76171875,-28.3203125,-33.69140625,0.0
1740794960.7486718,-15.13671875,-23.92578125,-26.85546875,-8.7890625,0.0
1740794960.7525778,-1.953125,-27.34375,-33.69140625,-16.6015625,0.0
1740794960.7564836,-21.97265625,-27.34375,-38.0859375,-11.71875,0.0
1740794960.7603896,-24.4140625,-24.4140625,-30.2734375,-13.18359375,0.0
1740794960.764301,0.48828125,-30.2734375,-27.34375,-41.50390625,0.0
1740794960.7682068,-22.4609375,-34.66796875,-32.2265625,-29.78515625,0.0
1740794960.7721128,-93.26171875,6.34765625,-36.62109375,-78.61328125,0.0
1740794960.7760186,-73.73046875,-6.8359375,-28.3203125,-74.70703125,0.0
1740794960.7799246,-8.30078125,-81.0546875,-24.90234375,12.20703125,0.0
1740794960.7838304,-70.3125,-63.4765625,-23.92578125,-41.9921875,0.0
1740794960.7877364,-116.69921875,38.0859375,-34.66796875,-49.31640625,0.0
1740794960.7916424,-36.1328125,-19.53125,-36.62109375,-27.83203125,0.0
1740794960.7955482,-162.109375,-1.953125,-27.34375,-229.4921875,0.0
1740794960.7994542,-347.16796875,62.5,-54.19921875,-254.39453125,0.0
1740794960.80336,-120.1171875,-62.01171875,-40.0390625,-30.2734375,0.0
1740794960.807266,-13.671875,-62.01171875,-9.27734375,-102.5390625,0.0
1740794960.811177,-268.5546875,33.203125,-47.36328125,-322.265625,0.0
1740794960.8150828,-475.09765625,20.5078125,-31.73828125,-207.03125,0.0
1740794960.8189888,-100.5859375,-97.65625,77.63671875,-84.47265625,0.0
1740794960.8228948,96.6796875,-106.4453125,-36.62109375,-66.40625,0.0
1740794960.8268006,-114.74609375,-41.9921875,-51.7578125,-7.32421875,0.0
1740794960.8307066,-85.44921875,21.97265625,-20.01953125,-169.43359375,0.0
1740794960.8346124,-102.05078125,24.90234375,-76.66015625,-187.5,0.0
1740794960.8385184,-58.59375,-33.203125,-10.25390625,175.78125,0.0
1740794960.8424244,5.859375,-95.21484375,24.4140625,38.0859375,0.0
1740794960.8463302,-42.48046875,-52.24609375,-39.0625,-40.0390625,0.0
1740794960.8502362,111.81640625,-30.76171875,-21.97265625,165.52734375,0.0
1740794960.854142,156.25,-51.26953125,-34.66796875,217.7734375,0.0
1740794960.8580527,185.05859375,-34.66796875,-85.44921875,290.0390625,0.0
1740794960.8619587,354.00390625,-96.19140625,-53.22265625,434.08203125,0.0
1740794960.8658645,374.51171875,-110.83984375,-28.80859375,351.07421875,0.0
1740794960.8697705,189.94140625,-57.12890625,-34.1796875,119.140625,0.0
1740794960.8736763,129.8828125,-83.984375,-49.31640625,42.96875,0.0
1740794960.8775823,39.55078125,-4.8828125,-21.97265625,-58.59375,0.0
1740794960.8814883,-627.44140625,116.69921875,109.86328125,-698.73046875,0.0
1740794960.885394,-779.296875,-50.29296875,-14.6484375,-758.30078125,0.0
1740794960.8893,-73.73046875,-74.70703125,-133.30078125,38.57421875,0.0
1740794960.893206,275.390625,-37.109375,9.765625,254.39453125,0.0
1740794960.897112,270.5078125,-76.66015625,22.4609375,242.1875,0.0
1740794960.901018,309.08203125,-112.3046875,-89.84375,354.00390625,0.0
1740794960.9049282,264.6484375,-94.7265625,-92.28515625,261.23046875,0.0
1740794960.9088342,51.7578125,-27.83203125,-67.87109375,-36.1328125,0.0
1740794960.91274,104.98046875,-46.38671875,-51.7578125,76.66015625,0.0
1740794960.916646,221.6796875,-99.609375,-29.296875,295.41015625,0.0
1740794960.9205518,112.3046875,-18.06640625,-21.97265625,89.84375,0.0
1740794960.9244578,40.0390625,-11.71875,-5.37109375,42.96875,0.0
1740794960.9283638,92.7734375,-75.68359375,-26.85546875,138.671875,0.0
1740794960.9322696,219.23828125,-91.796875,-71.77734375,50.78125,0.0
1740794960.9361756,190.91796875,-72.265625,-33.69140625,-19.04296875,0.0
1740794960.9400814,173.33984375,-6.34765625,-55.17578125,107.421875,0.0
1740794960.9439874,20.01953125,-37.59765625,-34.1796875,20.01953125,0.0
1740794960.9478934,-97.65625,-74.70703125,-47.36328125,39.55078125,0.0
1740794960.9518037,163.0859375,-1.46484375,-67.3828125,138.18359375,0.0
1740794960.9557095,124.0234375,-44.43359375,-20.99609375,43.9453125,0.0
1740794960.9596155,79.58984375,-84.9609375,-9.27734375,1.46484375,0.0
1740794960.9635212,183.10546875,-47.8515625,-21.484375,115.234375,0.0
1740794960.9674273,89.84375,-72.265625,-47.8515625,125.0,0.0
1740794960.971333,32.71484375,-50.29296875,-66.40625,7.8125,0.0
1740794960.975239,121.58203125,-48.33984375,-58.59375,33.203125,0.0
1740794960.979145,156.25,-74.21875,-10.7421875,73.73046875,0.0
1740794960.9830508,154.78515625,-47.36328125,-14.16015625,81.0546875,0.0
1740794960.9869568,118.1640625,-45.41015625,-72.265625,54.19921875,0.0
1740794960.9908626,3.41796875,-55.17578125,-37.109375,-18.5546875,0.0
1740794960.9947686,-57.12890625,-21.97265625,-22.94921875,-40.0390625,0.0
1740794960.9986784,33.203125,-75.1953125,-38.57421875,1.46484375,0.0
1740794961.0025842,174.8046875,-93.75,-59.08203125,65.4296875,0.0
1740794961.0064902,118.1640625,-55.6640625,-51.26953125,53.7109375,0.0
1740794961.0103962,54.6875,-61.03515625,-8.30078125,-35.64453125,0.0
1740794961.014302,81.0546875,-31.25,-41.50390625,14.6484375,0.0
1740794961.018208,62.98828125,-63.4765625,-28.80859375,37.109375,0.0
1740794961.0221138,69.3359375,-64.453125,-58.10546875,20.01953125,0.0
1740794961.0260198,111.81640625,-21.484375,-52.24609375,28.3203125,0.0
1740794961.0299258,72.265625,-51.7578125,-32.71484375,0.9765625,0.0
1740794961.0338316,53.22265625,-75.68359375,-29.78515625,13.18359375,0.0
1740794961.0377376,70.3125,-53.7109375,-27.34375,10.7421875,0.0
1740794961.0416434,41.9921875,-43.45703125,-34.66796875,-38.0859375,0.0
1740794961.0455554,28.3203125,-26.3671875,-50.29296875,-4.39453125,0.0
1740794961.0494614,37.59765625,-60.546875,-29.296875,37.109375,0.0
1740794961.0533671,13.18359375,-20.5078125,-28.3203125,-26.3671875,0.0
1740794961.0572731,25.390625,-18.06640625,-39.55078125,-34.66796875,0.0
1740794961.0611792,99.609375,-71.2890625,-13.18359375,-27.83203125,0.0
1740794961.065085,100.5859375,-56.640625,-26.3671875,-9.27734375,0.0
1740794961.068991,58.10546875,-15.625,-50.78125,18.06640625,0.0
1740794961.0728967,39.0625,-46.875,-51.7578125,-27.83203125,0.0
1740794961.0768027,48.828125,-73.2421875,-34.1796875,-15.625,0.0
1740794961.0807087,25.87890625,-56.15234375,-24.4140625,-10.25390625,0.0
1740794961.0846145,8.7890625,-59.08203125,-29.78515625,-42.96875,0.0
1740794961.0885205,38.57421875,-40.0390625,-19.53125,-50.78125,0.0
1740794961.0924346,10.7421875,-42.96875,-25.390625,-51.26953125,0.0
1740794961.0963404,-24.4140625,-36.1328125,-41.9921875,-63.4765625,0.0
1740794961.1002464,16.6015625,-25.87890625,-39.0625,-85.9375,0.0
1740794961.1041522,-2.44140625,-52.24609375,-43.45703125,-58.10546875,0.0
1740794961.1080582,-29.296875,-60.546875,-28.3203125,-64.453125,0.0
1740794961.1119642,10.25390625,-38.0859375,-20.99609375,-85.9375,0.0
1740794961.11587,-4.8828125,-21.484375,-35.64453125,-83.984375,0.0
1740794961.119776,-50.78125,-9.27734375,-42.96875,-105.46875,0.0
1740794961.1236818,-39.0625,-42.96875,-47.36328125,-96.6796875,0.0
1740794961.1275878,-36.62109375,-62.01171875,-39.0625,-116.69921875,0.0
1740794961.1314938,-47.8515625,-41.50390625,-34.66796875,-130.37109375,0.0
1740794961.1353996,-59.08203125,-41.9921875,-32.2265625,-126.46484375,0.0
1740794961.1393108,-70.80078125,-48.33984375,-20.01953125,-123.046875,0.0
1740794961.1432168,-70.80078125,-32.71484375,-31.73828125,-120.1171875,0.0
1740794961.1471226,-68.84765625,-29.296875,-34.66796875,-106.93359375,0.0
1740794961.1510286,-87.890625,-39.0625,-23.92578125,-152.34375,0.0
1740794961.1549346,-85.9375,-50.78125,-37.59765625,-138.18359375,0.0
1740794961.1588404,-66.89453125,-43.9453125,-51.7578125,-94.23828125,0.0
1740794961.1627464,-68.359375,-42.96875,-41.9921875,-106.93359375,0.0
1740794961.1666522,-71.77734375,-42.96875,-31.73828125,-92.7734375,0.0
1740794961.1705582,-101.07421875,-40.52734375,-29.296875,-108.88671875,0.0
1740794961.1744642,-101.5625,-42.96875,-33.69140625,-139.6484375,0.0
1740794961.17837,-76.171875,-44.43359375,-44.921875,-105.46875,0.0
1740794961.182276,-83.0078125,-50.29296875,-31.25,-96.6796875,0.0
1740794961.186187,-86.9140625,-51.26953125,-17.08984375,-99.609375,0.0
1740794961.190093,-89.84375,-35.15625,-35.64453125,-98.14453125,0.0
1740794961.1939988,-67.87109375,-25.87890625,-42.48046875,-76.66015625,0.0
1740794961.1979048,-63.96484375,-30.2734375,-36.1328125,-61.5234375,0.0
1740794961.2018106,-96.19140625,-33.69140625,-34.1796875,-84.47265625,0.0
1740794961.2057166,-88.37890625,-41.9921875,-28.80859375,-75.68359375,0.0
1740794961.2096226,-71.77734375,-35.15625,-38.0859375,-78.61328125,0.0
1740794961.2135284,-67.3828125,-33.203125,-45.8984375,-83.49609375,0.0
1740794961.2174344,-70.3125,-35.15625,-33.203125,-70.80078125,0.0
1740794961.2213402,-87.890625,-20.99609375,-24.90234375,-97.65625,0.0
1740794961.2252462,-62.01171875,-32.71484375,-25.87890625,-82.51953125,0.0
1740794961.2291522,-37.59765625,-43.45703125,-31.25,-70.80078125,0.0
1740794961.2330627,-35.15625,-41.9921875,-35.15625,-72.75390625,0.0
1740794961.2369688,-52.24609375,-24.4140625,-36.62109375,-53.7109375,0.0
1740794961.2408745,-69.82421875,-29.78515625,-32.2265625,-75.68359375,0.0
1740794961.2447805,-33.203125,-48.33984375,-28.3203125,-62.98828125,0.0
1740794961.2486863,-42.96875,-34.1796875,-30.2734375,-54.19921875,0.0
1740794961.2525923,-57.6171875,-26.3671875,-33.203125,-74.21875,0.0
1740794961.2564983,-49.8046875,-26.85546875,-23.4375,-62.5,0.0
1740794961.260404,-45.41015625,-33.69140625,-25.390625,-59.08203125,0.0
1740794961.2643101,-34.66796875,-32.2265625,-28.80859375,-66.89453125,0.0
1740794961.268216,-49.8046875,-24.4140625,-24.90234375,-70.3125,0.0
1740794961.272122,-41.9921875,-14.16015625,-30.2734375,-45.41015625,0.0
1740794961.276028,-19.53125,-15.13671875,-31.25,-37.59765625,0.0
1740794961.2799385,0.0,-30.76171875,-22.4609375,-60.05859375,0.0
1740794961.2838445,0.0,-22.4609375,-25.87890625,-57.12890625,0.0
1740794961.2877502,0.0,-14.6484375,-26.3671875,-37.59765625,0.0
1740794961.2916563,0.0,-25.390625,-24.4140625,-45.8984375,0.0
1740794961.295562,0.0,-27.83203125,-31.73828125,-60.546875,0.0
1740794961.299468,0.0,-29.296875,-31.73828125,-38.0859375,0.0
1740794961.303374,0.0,-33.203125,-31.25,-41.015625,0.0
1740794961.3072798,0.0,-34.66796875,-29.78515625,-55.17578125,0.0
1740794961.3111858,0.0,-22.4609375,-28.80859375,-62.98828125,0.0
1740794961.3150916,0.0,-38.57421875,-28.3203125,-55.6640625,0.0
1740794961.3189976,0.0,-38.0859375,-39.55078125,-41.50390625,0.0
1740794961.3229036,0.0,-38.57421875,-39.55078125,-30.2734375,0.0
1740794961.3268137,-61.03515625,-41.015625,-29.78515625,-39.55078125,0.0
1740794961.3307197,-65.91796875,-32.2265625,-32.71484375,-54.6875,0.0
1740794961.3346255,-67.3828125,-39.55078125,-31.25,-47.36328125,0.0
1740794961.3385315,-54.6875,-36.62109375,-34.66796875,-37.59765625,0.0
1740794961.3424375,-42.48046875,-36.1328125,-37.109375,-42.96875,0.0
1740794961.3463433,-43.45703125,-37.109375,-34.66796875,-51.26953125,0.0
1740794961.3502493,-49.8046875,-38.0859375,-33.203125,-40.0390625,0.0
1740794961.354155,-46.38671875,-36.1328125,-26.85546875,-36.1328125,0.0
1740794961.358061,-29.78515625,-28.3203125,-23.92578125,-29.78515625,0.0
1740794961.361967,-31.73828125,-30.2734375,-23.4375,-43.9453125,0.0
1740794961.3658729,-50.29296875,-32.2265625,-27.83203125,-58.59375,0.0
1740794961.3697789,-53.7109375,-30.2734375,-31.25,-47.36328125,0.0
1740794961.3736885,-36.1328125,-26.3671875,-27.83203125,-47.36328125,0.0
1740794961.3775945,-50.78125,-31.73828125,-26.3671875,-41.50390625,0.0
1740794961.3815005,-70.3125,-29.296875,-24.4140625,-47.8515625,0.0
1740794961.3854063,-58.10546875,-32.2265625,-27.83203125,-59.08203125,0.0
1740794961.3893123,-66.40625,-42.48046875,-32.2265625,-54.19921875,0.0
1740794961.393218,-74.21875,-44.921875,-32.2265625,-38.57421875,0.0
1740794961.397124,-61.5234375,-46.875,-34.1796875,-43.9453125,0.0
1740794961.40103,-66.40625,-35.15625,-35.15625,-69.3359375,0.0
1740794961.4049358,-63.4765625,-22.94921875,-39.0625,-56.640625,0.0
1740794961.4088418,-51.26953125,-28.80859375,-35.15625,-27.34375,0.0
1740794961.4127476,-38.57421875,-31.25,-27.83203125,-24.90234375,0.0
1740794961.4166536,-47.36328125,-18.5546875,-30.76171875,-20.01953125,0.0
1740794961.4205656,-48.33984375,-25.390625,-35.15625,-20.01953125,0.0
1740794961.4244716,-34.66796875,-32.2265625,-32.71484375,-26.3671875,0.0
1740794961.4283774,-46.38671875,-31.25,-34.1796875,-31.25,0.0
1740794961.4322834,-64.94140625,-34.1796875,-38.0859375,-38.0859375,0.0
1740794961.4361892,-60.546875,-34.1796875,-36.1328125,-42.48046875,0.0
1740794961.4400952,-44.921875,-41.50390625,-35.64453125,-43.9453125,0.0
1740794961.4440012,-37.59765625,-31.73828125,-35.15625,-39.0625,0.0
1740794961.447907,-45.41015625,-26.3671875,-33.69140625,-35.64453125,0.0
1740794961.451813,-64.94140625,-36.1328125,-31.73828125,-26.85546875,0.0
1740794961.4557188,-85.44921875,-47.8515625,-29.78515625,-35.64453125,0.0
1740794961.4596248,-65.91796875,-42.48046875,-34.1796875,-35.64453125,0.0
1740794961.4635308,-52.24609375,-30.2734375,-35.64453125,-43.9453125,0.0
1740794961.4674423,-62.5,-29.78515625,-34.66796875,-72.75390625,0.0
1740794961.471348,-64.94140625,-39.55078125,-36.1328125,-70.80078125,0.0
1740794961.475254,-64.94140625,-38.0859375,-35.64453125,-52.24609375,0.0
1740794961.47916,-61.03515625,-33.69140625,-35.64453125,-41.9921875,0.0
1740794961.4830658,-70.3125,-45.41015625,-39.55078125,-33.69140625,0.0
1740794961.4869719,-71.2890625,-48.33984375,-40.0390625,-40.52734375,0.0
1740794961.4908776,-72.265625,-40.0390625,-35.64453125,-50.78125,0.0
1740794961.4947836,-66.89453125,-32.2265625,-41.9921875,-47.8515625,0.0
1740794961.4986897,-67.3828125,-35.15625,-45.41015625,-38.57421875,0.0
1740794961.5025954,-90.8203125,-37.59765625,-34.1796875,-39.55078125,0.0
1740794961.5065014,-83.984375,-33.203125,-32.71484375,-44.43359375,0.0
1740794961.5104072,-65.91796875,-33.203125,-41.50390625,-41.50390625,0.0
1740794961.5143187,-70.3125,-35.64453125,-43.9453125,-52.734375,0.0
1740794961.5182247,-92.28515625,-38.57421875,-39.0625,-61.5234375,0.0
1740794961.5221305,-84.47265625,-41.015625,-32.71484375,-54.6875,0.0
1740794961.5260365,-51.26953125,-37.109375,-33.69140625,-31.73828125,0.0
1740794961.5299423,-60.05859375,-41.015625,-33.69140625,-23.4375,0.0
1740794961.5338483,-74.21875,-42.48046875,-34.1796875,-37.59765625,0.0
1740794961.5377543,-73.2421875,-36.62109375,-30.76171875,-45.8984375,0.0
1740794961.54166,-58.59375,-37.59765625,-33.203125,-39.55078125,0.0
1740794961.545566,-42.96875,-41.015625,-35.64453125,-37.59765625,0.0
1740794961.5494719,-62.01171875,-30.2734375,-39.0625,-42.96875,0.0
1740794961.5533779,-67.87109375,-29.78515625,-37.59765625,-53.22265625,0.0
1740794961.5572839,-45.41015625,-32.71484375,-34.1796875,-53.7109375,0.0
1740794961.5611947,-32.71484375,-27.34375,-39.55078125,-42.96875,0.0
1740794961.5651007,-52.24609375,-36.1328125,-40.52734375,-30.2734375,0.0
1740794961.5690067,-73.73046875,-31.73828125,-38.57421875,-27.83203125,0.0
1740794961.5729125,-63.4765625,-22.94921875,-38.57421875,-34.66796875,0.0
1740794961.5768185,-50.29296875,-26.85546875,-40.0390625,-28.3203125,0.0
