timestamps,TP9,AF7,AF8,TP10,Right AUX
1740795680.5930312,-20.5078125,-33.69140625,-30.76171875,-13.671875,0.0
1740795680.596937,-5.37109375,-35.64453125,-31.73828125,-15.13671875,0.0
1740795680.600843,-13.18359375,-38.0859375,-31.25,-16.11328125,0.0
1740795680.6047487,-27.83203125,-40.0390625,-33.203125,-14.6484375,0.0
1740795680.6086547,-25.390625,-41.015625,-34.66796875,-10.25390625,0.0
1740795680.6125605,-7.32421875,-43.9453125,-33.69140625,-8.7890625,0.0
1740795680.6164665,-10.25390625,-42.96875,-30.2734375,-5.859375,0.0
1740795680.6203723,-29.78515625,-41.015625,-26.85546875,-12.20703125,0.0
1740795680.6242783,-40.0390625,-35.64453125,-33.203125,-27.34375,0.0
1740795680.628184,-22.94921875,-30.2734375,-34.66796875,-23.4375,0.0
1740795680.6320899,-3.90625,-30.2734375,-28.80859375,-22.4609375,0.0
1740795680.6359959,-21.97265625,-30.76171875,-37.59765625,-31.25,0.0
1740795680.6399052,-45.41015625,-27.34375,-43.45703125,-43.45703125,0.0
1740795680.6438112,-41.9921875,-26.3671875,-35.15625,-46.38671875,0.0
1740795680.647717,-28.3203125,-31.25,-32.71484375,-37.59765625,0.0
1740795680.651623,-34.66796875,-26.85546875,-35.64453125,-42.96875,0.0
1740795680.6555288,-54.19921875,-26.3671875,-37.109375,-47.8515625,0.0
1740795680.6594348,-51.7578125,-30.76171875,-30.76171875,-50.29296875,0.0
1740795680.6633406,-27.83203125,-34.66796875,-25.390625,-56.640625,0.0
1740795680.6672466,-35.15625,-34.1796875,-31.73828125,-69.3359375,0.0
1740795680.6711524,-64.453125,-34.66796875,-34.1796875,-75.1953125,0.0
1740795680.6750584,-63.96484375,-38.0859375,-33.203125,-58.59375,0.0
1740795680.6789641,-44.43359375,-39.55078125,-34.1796875,-53.22265625,0.0
1740795680.68287,-35.15625,-36.62109375,-31.25,-51.7578125,0.0
1740795680.6867793,-51.26953125,-33.69140625,-28.3203125,-42.96875,0.0
1740795680.690685,-64.94140625,-40.0390625,-30.2734375,-46.875,0.0
1740795680.694591,-47.8515625,-43.9453125,-35.15625,-45.8984375,0.0
1740795680.6984968,-37.109375,-41.9921875,-37.59765625,-49.31640625,0.0
1740795680.7024028,-50.78125,-41.9921875,-36.1328125,-49.8046875,0.0
1740795680.7063086,-62.98828125,-43.9453125,-33.69140625,-41.9921875,0.0
1740795680.7102146,-49.31640625,-43.9453125,-40.52734375,-42.48046875,0.0
1740795680.7141204,-27.34375,-38.0859375,-40.0390625,-44.43359375,0.0
1740795680.7180264,-30.76171875,-36.62109375,-37.59765625,-41.015625,0.0
1740795680.7219322,-50.29296875,-41.015625,-35.15625,-41.9921875,0.0
1740795680.7258382,-55.6640625,-35.15625,-31.73828125,-38.57421875,0.0
1740795680.729744,-42.96875,-34.66796875,-38.0859375,-38.0859375,0.0
1740795680.7336562,-38.0859375,-35.64453125,-33.203125,-30.76171875,0.0
1740795680.737562,-49.8046875,-39.55078125,-34.1796875,-33.203125,0.0
1740795680.7414677,-57.12890625,-42.96875,-39.55078125,-40.0390625,0.0
1740795680.7453737,-42.96875,-43.45703125,-40.52734375,-37.109375,0.0
1740795680.7492795,-29.78515625,-44.43359375,-41.015625,-31.25,0.0
1740795680.7531855,-40.52734375,-43.9453125,-36.62109375,-28.80859375,0.0
1740795680.7570913,-52.734375,-42.48046875,-36.1328125,-31.25,0.0
1740795680.7609973,-36.1328125,-36.62109375,-38.57421875,-31.73828125,0.0
1740795680.764903,-22.4609375,-34.1796875,-39.0625,-36.62109375,0.0
1740795680.768809,-28.80859375,-41.9921875,-46.875,-36.1328125,0.0
1740795680.7727149,-41.015625,-39.0625,-51.26953125,-27.83203125,0.0
1740795680.7766209,-42.96875,-30.76171875,-46.875,-31.25,0.0
1740795680.7805324,-21.97265625,-38.0859375,-44.921875,-35.15625,0.0
1740795680.7844384,-18.06640625,-40.0390625,-38.0859375,-33.203125,0.0
1740795680.7883441,-38.57421875,-33.69140625,-32.2265625,-28.80859375,0.0
1740795680.7922502,-39.55078125,-34.66796875,-35.15625,-25.390625,0.0
1740795680.796156,-25.390625,-40.0390625,-30.76171875,-15.13671875,0.0
1740795680.800062,-19.53125,-35.64453125,-24.4140625,-12.6953125,0.0
1740795680.8039677,-34.1796875,-32.71484375,-28.3203125,-26.3671875,0.0
1740795680.8078735,-44.921875,-35.64453125,-32.71484375,-27.83203125,0.0
1740795680.8117795,-35.64453125,-38.0859375,-32.2265625,-33.203125,0.0
1740795680.8156853,-26.3671875,-31.25,-31.25,-32.2265625,0.0
1740795680.8195913,-39.0625,-25.87890625,-35.15625,-30.76171875,0.0
1740795680.823497,-49.31640625,-28.80859375,-34.66796875,-29.78515625,0.0
1740795680.8274086,-32.71484375,-29.78515625,-31.73828125,-19.53125,0.0
1740795680.8313143,-25.390625,-33.203125,-31.25,-24.4140625,0.0
1740795680.8352203,-28.3203125,-30.2734375,-34.66796875,-41.9921875,0.0
1740795680.839126,-37.109375,-32.71484375,-37.109375,-41.50390625,0.0
1740795680.8430321,-33.203125,-36.1328125,-35.15625,-29.78515625,0.0
1740795680.846938,-19.53125,-36.62109375,-38.0859375,-37.59765625,0.0
1740795680.8508437,-26.3671875,-34.1796875,-41.015625,-41.015625,0.0
1740795680.8547497,-40.0390625,-34.66796875,-38.0859375,-33.69140625,0.0
1740795680.8586555,-39.0625,-42.48046875,-36.1328125,-43.45703125,0.0
1740795680.8625615,-26.85546875,-39.55078125,-37.109375,-42.96875,0.0
1740795680.8664672,-21.484375,-30.76171875,-36.1328125,-35.64453125,0.0
1740795680.8703732,-41.50390625,-31.25,-33.203125,-39.0625,0.0
1740795680.8742843,-49.31640625,-29.78515625,-33.69140625,-39.55078125,0.0
1740795680.87819,-33.69140625,-28.3203125,-37.109375,-35.64453125,0.0
1740795680.882096,-30.2734375,-27.34375,-37.109375,-31.25,0.0
1740795680.8860018,-38.57421875,-28.3203125,-38.57421875,-27.34375,0.0
1740795680.8899078,-46.875,-31.73828125,-38.57421875,-36.62109375,0.0
1740795680.8938136,-36.1328125,-35.64453125,-33.203125,-43.45703125,0.0
1740795680.8977196,-14.16015625,-35.64453125,-31.73828125,-32.71484375,0.0
1740795680.9016254,-25.390625,-42.48046875,-33.69140625,-26.85546875,0.0
1740795680.9055314,-55.17578125,-51.26953125,-39.0625,-26.3671875,0.0
1740795680.9094372,-47.8515625,-43.45703125,-45.8984375,-30.2734375,0.0
1740795680.9133432,-32.2265625,-38.57421875,-43.45703125,-40.0390625,0.0
1740795680.917249,-36.1328125,-39.55078125,-40.52734375,-34.1796875,0.0
1740795680.9211593,-41.50390625,-40.0390625,-34.66796875,-18.06640625,0.0
1740795680.9250653,-28.80859375,-35.64453125,-33.69140625,-17.578125,0.0
1740795680.928971,-18.06640625,-33.203125,-34.1796875,-24.4140625,0.0
1740795680.932877,-17.08984375,-35.15625,-31.73828125,-19.04296875,0.0
1740795680.9367828,-31.25,-27.83203125,-29.296875,-22.4609375,0.0
1740795680.9406888,-44.921875,-36.1328125,-32.71484375,-28.80859375,0.0
1740795680.9445946,-34.66796875,-41.015625,-38.0859375,-34.1796875,0.0
1740795680.9485004,-23.92578125,-40.52734375,-35.15625,-31.73828125,0.0
1740795680.9524064,-34.66796875,-39.55078125,-32.71484375,-33.203125,0.0
1740795680.9563122,-56.15234375,-37.109375,-32.71484375,-37.59765625,0.0
1740795680.9602182,-45.8984375,-42.48046875,-32.2265625,-32.71484375,0.0
1740795680.964124,-23.92578125,-38.0859375,-33.203125,-32.71484375,0.0
1740795680.968034,-30.2734375,-33.69140625,-28.3203125,-27.83203125,0.0
1740795680.9719398,-42.48046875,-35.64453125,-25.87890625,-26.3671875,0.0
1740795680.9758458,-34.1796875,-41.50390625,-26.85546875,-22.4609375,0.0
1740795680.9797516,-17.578125,-45.41015625,-25.87890625,-27.34375,0.0
1740795680.9836576,-31.25,-47.8515625,-26.3671875,-27.83203125,0.0
1740795680.9875634,-55.17578125,-49.31640625,-30.2734375,-30.2734375,0.0
1740795680.9914694,-56.15234375,-52.734375,-28.3203125,-37.109375,0.0
1740795680.9953752,-37.59765625,-55.17578125,-25.390625,-32.2265625,0.0
1740795680.999281,-35.64453125,-49.31640625,-31.73828125,-45.41015625,0.0
1740795681.003187,-56.15234375,-49.31640625,-40.52734375,-48.33984375,0.0
1740795681.0070927,-57.6171875,-52.24609375,-37.109375,-42.48046875,0.0
1740795681.0109987,-41.9921875,-53.7109375,-41.9921875,-45.41015625,0.0
1740795681.0149083,-33.69140625,-48.33984375,-47.8515625,-40.52734375,0.0
1740795681.018814,-41.50390625,-41.50390625,-42.96875,-33.69140625,0.0
1740795681.02272,-54.6875,-43.45703125,-41.015625,-30.2734375,0.0
1740795681.0266259,-41.015625,-46.38671875,-42.96875,-39.0625,0.0
1740795681.030532,-20.01953125,-46.875,-43.45703125,-35.64453125,0.0
1740795681.0344377,-17.578125,-49.8046875,-36.62109375,-32.71484375,0.0
1740795681.0383437,-34.66796875,-57.12890625,-38.57421875,-35.64453125,0.0
1740795681.0422494,-39.0625,-53.22265625,-45.41015625,-38.57421875,0.0
1740795681.0461555,-28.3203125,-49.8046875,-43.9453125,-48.33984375,0.0
1740795681.0500612,-41.9921875,-57.12890625,-47.8515625,-52.24609375,0.0
1740795681.053967,-52.734375,-53.22265625,-51.26953125,-50.78125,0.0
1740795681.057873,-51.26953125,-47.36328125,-48.828125,-51.26953125,0.0
1740795681.0617824,-46.38671875,-46.38671875,-52.734375,-58.59375,0.0
1740795681.0656881,-28.80859375,-41.9921875,-61.5234375,-61.5234375,0.0
1740795681.069594,-46.38671875,-39.0625,-59.08203125,-54.6875,0.0
1740795681.0735,-74.21875,-38.57421875,-54.6875,-52.24609375,0.0
1740795681.0774057,-56.640625,-36.1328125,-52.24609375,-52.24609375,0.0
1740795681.0813117,-35.15625,-42.48046875,-48.828125,-60.546875,0.0
1740795681.0852175,-40.0390625,-46.38671875,-43.9453125,-58.59375,0.0
1740795681.0891235,-61.03515625,-36.62109375,-46.38671875,-47.8515625,0.0
1740795681.0930293,-58.59375,-34.1796875,-44.921875,-47.36328125,0.0
1740795681.0969353,-35.64453125,-41.9921875,-39.0625,-43.9453125,0.0
1740795681.100841,-27.83203125,-38.0859375,-39.0625,-36.1328125,0.0
1740795681.104747,-34.1796875,-32.2265625,-39.55078125,-30.76171875,0.0
1740795681.1086626,-52.24609375,-42.48046875,-34.66796875,-35.15625,0.0
1740795681.1125684,-27.34375,-56.640625,-26.3671875,-10.25390625,0.0
1740795681.1164744,-1.953125,-44.43359375,-24.4140625,2.44140625,0.0
1740795681.1203802,-27.83203125,-27.34375,-30.2734375,-31.25,0.0
1740795681.1242862,-45.8984375,-26.3671875,-31.73828125,-41.50390625,0.0
1740795681.128192,-19.53125,-34.66796875,-34.66796875,-23.92578125,0.0
1740795681.132098,9.765625,-30.76171875,-39.0625,-15.625,0.0
1740795681.1360037,-15.13671875,-23.4375,-41.50390625,-32.71484375,0.0
1740795681.1399097,-21.97265625,-27.83203125,-38.0859375,-17.08984375,0.0
1740795681.1438155,-7.32421875,-31.25,-42.48046875,-14.6484375,0.0
1740795681.1477215,-0.9765625,-24.4140625,-49.31640625,-41.50390625,0.0
1740795681.1516273,8.30078125,-14.16015625,-54.19921875,-18.06640625,0.0
1740795681.155539,20.01953125,-8.30078125,-54.6875,-15.625,0.0
1740795681.159445,16.11328125,-7.32421875,-60.05859375,-31.73828125,0.0
1740795681.1633508,22.94921875,-1.46484375,-69.82421875,-23.92578125,0.0
1740795681.1672566,43.45703125,0.9765625,-72.75390625,-20.01953125,0.0
1740795681.1711626,23.92578125,-5.37109375,-74.21875,-6.8359375,0.0
1740795681.1750684,20.99609375,-3.41796875,-76.171875,-13.18359375,0.0
1740795681.1789744,28.80859375,5.859375,-74.21875,-28.3203125,0.0
1740795681.1828802,31.73828125,17.578125,-71.77734375,-24.4140625,0.0
1740795681.1867862,36.62109375,18.5546875,-74.21875,-17.08984375,0.0
1740795681.190692,18.5546875,21.97265625,-78.61328125,-33.69140625,0.0
1740795681.194598,22.94921875,25.87890625,-80.078125,-49.8046875,0.0
1740795681.1985037,38.57421875,23.92578125,-83.49609375,-42.48046875,0.0
1740795681.2024152,22.94921875,21.97265625,-87.40234375,-55.17578125,0.0
1740795681.206321,-4.39453125,20.5078125,-86.42578125,-50.78125,0.0
1740795681.210227,-25.87890625,25.87890625,-91.796875,-42.96875,0.0
1740795681.2141328,7.8125,27.34375,-95.703125,-44.921875,0.0
1740795681.2180388,43.9453125,23.92578125,-93.75,-45.8984375,0.0
1740795681.2219446,25.87890625,22.4609375,-94.7265625,-48.828125,0.0
1740795681.2258506,6.34765625,19.04296875,-87.40234375,-22.4609375,0.0
1740795681.2297564,28.3203125,17.08984375,-84.47265625,-23.4375,0.0
1740795681.2336624,38.57421875,17.08984375,-85.44921875,-37.59765625,0.0
1740795681.2375681,23.4375,17.578125,-81.54296875,-21.484375,0.0
1740795681.2414742,19.53125,10.25390625,-81.0546875,-30.2734375,0.0
1740795681.24538,36.1328125,1.46484375,-81.54296875,-18.5546875,0.0
1740795681.249291,41.015625,2.44140625,-83.0078125,-11.23046875,0.0
1740795681.2531967,20.5078125,4.39453125,-85.9375,-27.34375,0.0
1740795681.2571025,6.34765625,0.9765625,-73.73046875,-6.8359375,0.0
1740795681.2610085,19.53125,0.9765625,-61.03515625,3.90625,0.0
1740795681.2649143,56.15234375,3.41796875,-61.5234375,-7.8125,0.0
1740795681.2688203,50.29296875,-0.9765625,-61.5234375,-6.34765625,0.0
1740795681.272726,21.484375,-7.32421875,-55.6640625,0.48828125,0.0
1740795681.276632,22.4609375,-11.23046875,-45.8984375,15.13671875,0.0
1740795681.2805378,39.0625,-13.18359375,-45.8984375,24.90234375,0.0
1740795681.2844439,42.48046875,-8.30078125,-43.9453125,23.4375,0.0
1740795681.2883496,26.3671875,-9.765625,-40.52734375,16.6015625,0.0
1740795681.2922556,36.1328125,-8.7890625,-42.48046875,-1.46484375,0.0
1740795681.296166,52.734375,-17.578125,-37.59765625,11.23046875,0.0
1740795681.3000717,81.54296875,-22.4609375,-34.66796875,19.04296875,0.0
1740795681.3039777,73.73046875,-19.04296875,-33.69140625,17.578125,0.0
1740795681.3078835,29.78515625,-25.87890625,-24.90234375,41.9921875,0.0
1740795681.3117895,36.1328125,-20.99609375,-21.484375,56.640625,0.0
1740795681.3156953,57.12890625,-21.484375,-20.01953125,56.640625,0.0
1740795681.319601,59.5703125,-29.296875,-13.671875,61.5234375,0.0
1740795681.323507,54.6875,-27.34375,-20.5078125,44.921875,0.0
1740795681.3274128,48.828125,-23.92578125,-27.34375,24.4140625,0.0
1740795681.3313189,22.94921875,-27.34375,-20.5078125,14.6484375,0.0
1740795681.3352246,-0.48828125,-35.64453125,-22.94921875,16.6015625,0.0
1740795681.3391306,-6.34765625,-28.3203125,-29.78515625,19.53125,0.0
1740795681.3430405,17.08984375,-21.484375,-35.64453125,-0.48828125,0.0
1740795681.3469465,30.2734375,-31.25,-35.64453125,11.71875,0.0
1740795681.3508523,12.6953125,-32.2265625,-31.73828125,15.13671875,0.0
1740795681.3547583,11.23046875,-27.34375,-32.71484375,-16.6015625,0.0
1740795681.358664,13.671875,-41.9921875,-34.1796875,-8.30078125,0.0
1740795681.36257,3.41796875,-38.57421875,-36.1328125,8.30078125,0.0
1740795681.3664758,4.39453125,-20.99609375,-40.0390625,-15.13671875,0.0
1740795681.3703816,2.44140625,-20.01953125,-46.38671875,-32.2265625,0.0
1740795681.3742876,-9.27734375,-17.578125,-56.640625,-23.92578125,0.0
1740795681.3781934,-13.18359375,-16.6015625,-54.6875,-31.73828125,0.0
1740795681.3820994,-6.34765625,-18.06640625,-51.7578125,-56.15234375,0.0
1740795681.3860052,-2.9296875,-16.11328125,-47.36328125,-42.48046875,0.0
1740795681.3899148,-21.484375,-13.671875,-44.921875,-24.90234375,0.0
1740795681.3938205,-27.34375,-16.11328125,-49.8046875,-31.73828125,0.0
1740795681.3977265,-6.34765625,-28.80859375,-49.31640625,-25.87890625,0.0
1740795681.4016323,-4.39453125,-27.34375,-51.26953125,-38.57421875,0.0
1740795681.4055383,-39.0625,-22.94921875,-49.8046875,-34.66796875,0.0
1740795681.409444,-48.828125,-36.1328125,-45.41015625,-31.25,0.0
1740795681.41335,-37.59765625,-44.921875,-45.41015625,-40.52734375,0.0
1740795681.4172559,-25.87890625,-43.45703125,-41.015625,-28.80859375,0.0
1740795681.421162,-46.875,-37.59765625,-35.64453125,-11.71875,0.0
1740795681.4250677,-42.48046875,-34.1796875,-31.73828125,-17.578125,0.0
1740795681.4289737,-5.859375,-37.59765625,-36.62109375,-41.50390625,0.0
1740795681.4328794,14.16015625,-43.9453125,-42.96875,-42.96875,0.0
1740795681.4367888,0.0,-46.38671875,-36.62109375,-21.484375,0.0
1740795681.4406946,0.0,-38.57421875,-32.2265625,-4.39453125,0.0
1740795681.4446006,0.0,-29.296875,-31.73828125,2.9296875,0.0
1740795681.4485064,0.0,-34.1796875,-34.66796875,-4.8828125,0.0
1740795681.4524124,0.0,-41.9921875,-37.59765625,-17.578125,0.0
1740795681.4563181,0.0,-41.015625,-34.1796875,-16.11328125,0.0
1740795681.4602242,0.0,-41.015625,-27.83203125,-0.48828125,0.0
1740795681.46413,0.0,-39.55078125,-34.1796875,-1.953125,0.0
1740795681.468036,0.0,-32.2265625,-31.73828125,13.671875,0.0
1740795681.4719417,0.0,-31.25,-21.484375,18.5546875,0.0
1740795681.4758477,0.0,-32.71484375,-20.99609375,0.0,0.0
1740795681.4797535,0.0,-32.2265625,-24.90234375,-1.953125,0.0
1740795681.4836657,-7.8125,-29.78515625,-22.94921875,10.7421875,0.0
1740795681.4875715,-16.11328125,-36.1328125,-28.80859375,-5.37109375,0.0
1740795681.4914773,-16.11328125,-32.71484375,-33.203125,-10.25390625,0.0
1740795681.4953833,-16.11328125,-23.4375,-29.78515625,-2.44140625,0.0
1740795681.499289,-4.39453125,-31.73828125,-32.71484375,-17.578125,0.0
1740795681.503195,-10.25390625,-36.62109375,-29.78515625,-8.30078125,0.0
1740795681.5071008,-38.0859375,-29.296875,-32.2265625,-5.37109375,0.0
1740795681.5110068,-25.390625,-23.92578125,-34.66796875,-21.484375,0.0
1740795681.5149126,-8.7890625,-29.296875,-34.66796875,-2.9296875,0.0
1740795681.5188186,-34.1796875,-35.15625,-35.64453125,-6.34765625,0.0
1740795681.5227244,-54.6875,-29.78515625,-33.69140625,-26.85546875,0.0
1740795681.5266304,-48.828125,-30.2734375,-34.66796875,-22.4609375,0.0
1740795681.5305421,-25.87890625,-31.73828125,-37.109375,-21.97265625,0.0
1740795681.534448,-3.41796875,-32.2265625,-43.9453125,-27.34375,0.0
1740795681.5383537,-42.96875,-33.203125,-47.8515625,-33.203125,0.0
1740795681.5422597,-76.171875,-35.64453125,-49.8046875,-49.8046875,0.0
1740795681.5461655,-47.36328125,-40.52734375,-49.31640625,-45.8984375,0.0
1740795681.5500715,-56.15234375,-47.36328125,-46.38671875,-40.0390625,0.0
1740795681.5539773,-70.3125,-47.36328125,-49.8046875,-40.0390625,0.0
1740795681.5578833,-73.73046875,-38.0859375,-55.6640625,-56.640625,0.0
1740795681.561789,-62.01171875,-39.55078125,-52.734375,-49.8046875,0.0
1740795681.565695,-36.1328125,-52.24609375,-48.33984375,-34.66796875,0.0
1740795681.5696008,-38.57421875,-42.48046875,-52.24609375,-41.015625,0.0
1740795681.5735068,-46.875,-30.2734375,-52.734375,-51.7578125,0.0
1740795681.5774179,-56.640625,-36.1328125,-52.24609375,-62.5,0.0
1740795681.5813239,-51.7578125,-32.71484375,-52.24609375,-39.55078125,0.0
1740795681.5852296,-58.59375,-27.34375,-49.31640625,-41.9921875,0.0
1740795681.5891356,-67.87109375,-33.203125,-50.29296875,-55.6640625,0.0
1740795681.5930414,-39.55078125,-29.78515625,-48.33984375,-38.57421875,0.0
1740795681.5969474,-14.6484375,-29.78515625,-45.41015625,-37.109375,0.0
1740795681.6008532,-32.71484375,-36.62109375,-47.8515625,-46.875,0.0
1740795681.6047592,-53.22265625,-39.0625,-47.36328125,-47.36328125,0.0
1740795681.608665,-60.546875,-40.52734375,-39.55078125,-24.4140625,0.0
1740795681.612571,-24.90234375,-34.66796875,-40.0390625,-23.92578125,0.0
1740795681.6164768,-15.625,-36.1328125,-41.50390625,-30.76171875,0.0
1740795681.6203825,-49.31640625,-35.64453125,-38.57421875,-23.92578125,0.0
1740795681.6242936,-32.71484375,-34.1796875,-41.015625,-24.4140625,0.0
1740795681.6281993,-1.953125,-29.296875,-38.0859375,-15.13671875,0.0
1740795681.6321054,-16.6015625,-28.3203125,-32.2265625,-11.23046875,0.0
1740795681.6360111,-23.92578125,-28.3203125,-32.71484375,-7.8125,0.0
1740795681.6399171,-31.73828125,-27.83203125,-32.71484375,-20.99609375,0.0
1740795681.643823,-25.390625,-26.85546875,-33.203125,-19.04296875,0.0
1740795681.647729,2.9296875,-30.2734375,-36.62109375,-9.27734375,0.0
1740795681.6516347,-1.46484375,-34.1796875,-34.1796875,-11.23046875,0.0
1740795681.6555407,-27.34375,-36.62109375,-30.76171875,3.41796875,0.0
1740795681.6594465,-17.08984375,-27.34375,-33.203125,8.30078125,0.0
1740795681.6633523,-7.32421875,-24.4140625,-28.80859375,10.7421875,0.0
1740795681.6672583,-15.13671875,-25.390625,-28.3203125,1.953125,0.0
1740795681.6711686,-5.859375,-12.6953125,-36.1328125,-5.859375,0.0
1740795681.6750743,8.30078125,-14.16015625,-33.69140625,-4.8828125,0.0
1740795681.6789804,-7.32421875,-21.484375,-35.64453125,-14.6484375,0.0
1740795681.6828861,-23.92578125,-20.01953125,-35.15625,-31.73828125,0.0
1740795681.6867921,-14.6484375,-20.99609375,-29.78515625,-23.92578125,0.0
1740795681.690698,-26.3671875,-23.4375,-30.2734375,-12.20703125,0.0
1740795681.694604,-37.59765625,-28.80859375,-38.0859375,-31.73828125,0.0
1740795681.6985097,-48.33984375,-40.0390625,-49.31640625,-42.48046875,0.0
1740795681.7024157,-50.78125,-33.69140625,-44.921875,-48.33984375,0.0
1740795681.7063215,-58.59375,-26.3671875,-39.55078125,-51.26953125,0.0
1740795681.7102275,-55.6640625,-36.62109375,-43.45703125,-36.62109375,0.0
1740795681.7141333,-37.109375,-36.62109375,-50.29296875,-39.0625,0.0
1740795681.7180433,-34.1796875,-39.0625,-50.78125,-58.59375,0.0
1740795681.721949,-51.26953125,-42.48046875,-45.41015625,-59.08203125,0.0
1740795681.725855,-77.1484375,-40.0390625,-42.48046875,-58.10546875,0.0
1740795681.729761,-61.03515625,-42.96875,-41.9921875,-71.77734375,0.0
1740795681.733667,-43.45703125,-44.43359375,-41.50390625,-58.10546875,0.0
1740795681.7375727,-44.921875,-48.33984375,-40.0390625,-34.1796875,0.0
1740795681.7414787,-68.84765625,-57.6171875,-36.1328125,-34.66796875,0.0
1740795681.7453845,-67.3828125,-61.5234375,-37.59765625,-50.78125,0.0
1740795681.7492905,-41.9921875,-49.31640625,-47.8515625,-57.6171875,0.0
1740795681.7531962,-39.0625,-40.52734375,-47.36328125,-62.01171875,0.0
1740795681.7571023,-99.12109375,-38.57421875,-34.1796875,-89.84375,0.0
1740795681.761008,-149.90234375,-22.4609375,-45.8984375,-90.8203125,0.0
1740795681.7649214,0.0,25.87890625,-47.36328125,-75.68359375,0.0
1740795681.7688272,0.0,-62.98828125,-1.46484375,-118.65234375,0.0
1740795681.7727332,0.0,-94.23828125,-20.99609375,-95.703125,0.0
1740795681.776639,0.0,-66.89453125,-40.52734375,-38.57421875,0.0
1740795681.780545,0.0,2.44140625,-21.97265625,-195.3125,0.0
1740795681.7844508,0.0,119.62890625,-58.59375,-218.26171875,0.0
1740795681.7883568,0.0,-32.71484375,-45.8984375,-44.43359375,0.0
1740795681.7922626,0.0,-128.41796875,49.8046875,-154.78515625,0.0
1740795681.7961683,0.0,-63.4765625,-10.25390625,-281.25,0.0
1740795681.8000743,0.0,32.2265625,-3.90625,-300.29296875,0.0
1740795681.80398,0.0,-35.15625,20.5078125,-275.87890625,0.0
1740795681.8078861,0.0,-111.328125,-43.45703125,-140.625,0.0
1740795681.8117893,-130.37109375,-6.34765625,-66.89453125,-239.74609375,0.0
1740795681.815695,-102.5390625,70.80078125,-70.80078125,-285.64453125,0.0
1740795681.819601,-143.06640625,-5.859375,9.27734375,-29.78515625,0.0
1740795681.8235068,-108.88671875,-96.6796875,0.48828125,122.55859375,0.0
1740795681.8274128,-135.7421875,-81.54296875,-3.41796875,-150.87890625,0.0
1740795681.8313186,-223.14453125,-22.94921875,-13.671875,-125.0,0.0
1740795681.8352246,-177.24609375,10.25390625,-75.68359375,-15.625,0.0
1740795681.8391304,-212.890625,-57.6171875,-31.25,222.65625,0.0
1740795681.8430364,-154.78515625,-29.296875,-27.34375,391.11328125,0.0
1740795681.8469422,-231.93359375,-44.43359375,-28.80859375,328.61328125,0.0
1740795681.850848,-281.73828125,-79.58984375,-12.20703125,124.0234375,0.0
1740795681.854754,-127.9296875,-5.859375,-35.64453125,30.2734375,0.0
1740795681.858666,-20.01953125,-14.6484375,-25.390625,56.640625,0.0
1740795681.862572,94.23828125,-74.70703125,-69.3359375,266.6015625,0.0
1740795681.8664777,414.55078125,-73.73046875,-83.984375,424.31640625,0.0
1740795681.8703837,340.33203125,-64.453125,-52.24609375,261.23046875,0.0
1740795681.8742895,85.44921875,-52.734375,-53.22265625,144.04296875,0.0
1740795681.8781955,36.1328125,-38.0859375,-46.38671875,102.5390625,0.0
1740795681.8821013,-37.109375,-44.921875,-38.0859375,10.7421875,0.0
1740795681.8860073,-194.3359375,-17.08984375,7.8125,-274.4140625,0.0
1740795681.889913,-554.19921875,57.6171875,15.13671875,-544.921875,0.0
1740795681.893819,-495.60546875,-70.3125,-41.9921875,-306.15234375,0.0
1740795681.8977249,-53.7109375,-61.5234375,-52.24609375,-47.36328125,0.0
1740795681.9016306,-113.28125,-44.43359375,5.37109375,-161.62109375,0.0
1740795681.9055424,28.80859375,-62.01171875,-60.05859375,144.53125,0.0
1740795681.9094484,151.3671875,-37.59765625,-104.98046875,392.578125,0.0
1740795681.9133542,142.08984375,-61.5234375,-71.2890625,255.37109375,0.0
1740795681.9172602,143.5546875,-48.33984375,-70.3125,49.31640625,0.0
1740795681.921166,85.9375,-16.11328125,-72.265625,-42.48046875,0.0
1740795681.925072,-75.68359375,28.3203125,-75.68359375,163.0859375,0.0
1740795681.9289777,9.27734375,-63.96484375,-21.484375,59.5703125,0.0
1740795681.9328837,253.90625,-117.1875,-34.66796875,96.19140625,0.0
1740795681.9367895,213.8671875,-72.265625,-57.12890625,177.734375,0.0
1740795681.9406953,-44.921875,-69.3359375,8.7890625,-17.08984375,0.0
1740795681.9446013,41.015625,-33.69140625,-58.59375,63.96484375,0.0
1740795681.948507,149.90234375,-43.45703125,-60.05859375,153.80859375,0.0
1740795681.9524183,-7.8125,-40.0390625,-54.19921875,88.8671875,0.0
1740795681.9563243,-43.45703125,-24.4140625,-46.875,24.4140625,0.0
1740795681.96023,-28.80859375,7.8125,-46.875,83.984375,0.0
1740795681.9641361,89.84375,-47.8515625,-63.96484375,104.98046875,0.0
1740795681.968042,183.59375,-64.94140625,-49.31640625,81.0546875,0.0
1740795681.971948,100.09765625,-42.96875,-53.7109375,149.90234375,0.0
1740795681.9758537,36.62109375,-70.80078125,-8.30078125,79.1015625,0.0
1740795681.9797597,-44.43359375,8.30078125,-17.578125,-14.6484375,0.0
1740795681.9836655,74.70703125,9.765625,-74.21875,68.84765625,0.0
1740795681.9875712,155.2734375,-63.96484375,-40.0390625,80.078125,0.0
1740795681.9914773,73.73046875,-63.96484375,-24.90234375,29.296875,0.0
1740795681.995383,26.3671875,-69.3359375,-26.3671875,64.453125,0.0
1740795681.9992943,0.0,-60.05859375,-37.59765625,88.8671875,0.0
1740795682.0032,0.0,-13.671875,-40.52734375,30.76171875,0.0
1740795682.007106,0.0,-41.9921875,-33.69140625,12.20703125,0.0
1740795682.0110118,0.0,-56.15234375,-52.24609375,56.15234375,0.0
1740795682.0149179,0.0,-36.62109375,-52.24609375,7.8125,0.0
1740795682.0188236,0.0,-38.0859375,-30.2734375,37.59765625,0.0
1740795682.0227296,0.0,-69.3359375,-38.57421875,63.4765625,0.0
1740795682.0266354,0.0,-20.99609375,-42.96875,33.69140625,0.0
1740795682.0305412,0.0,0.48828125,-45.41015625,11.23046875,0.0
1740795682.0344472,0.0,-67.3828125,-28.3203125,29.78515625,0.0
1740795682.038353,0.0,-46.875,-23.4375,-11.23046875,0.0
1740795682.042259,0.0,-39.0625,-29.78515625,-29.296875,0.0
1740795682.0461693,-8.30078125,-50.29296875,-40.0390625,-16.6015625,0.0
1740795682.050075,-12.6953125,-38.0859375,-46.38671875,-13.18359375,0.0
1740795682.053981,-63.4765625,-29.296875,-45.8984375,-38.57421875,0.0
1740795682.0578868,-67.87109375,-53.7109375,-47.36328125,-64.453125,0.0
1740795682.0617929,-60.05859375,-71.2890625,-42.48046875,-49.31640625,0.0
1740795682.0656986,-37.109375,-78.125,-17.08984375,-17.08984375,0.0
1740795682.0696046,0.48828125,-72.75390625,-31.73828125,12.20703125,0.0
1740795682.0735104,-16.11328125,-50.78125,-44.921875,-28.80859375,0.0
1740795682.0774164,-55.6640625,-63.4765625,-5.859375,-66.89453125,0.0
1740795682.0813222,-22.4609375,-81.0546875,-39.55078125,-16.11328125,0.0
1740795682.0852282,-31.73828125,-69.3359375,-45.8984375,-45.8984375,0.0
1740795682.089134,-93.26171875,-72.265625,-14.16015625,-43.9453125,0.0
1740795682.0930438,-99.609375,-86.42578125,-6.34765625,-54.19921875,0.0
1740795682.0969498,-110.83984375,-77.63671875,-6.8359375,-89.84375,0.0
1740795682.1008556,-119.140625,-57.6171875,-15.625,-89.35546875,0.0
1740795682.1047616,-138.18359375,-61.03515625,-9.765625,-96.6796875,0.0
1740795682.1086674,-177.24609375,-82.51953125,2.44140625,-126.46484375,0.0
1740795682.1125734,-166.015625,-95.21484375,15.625,-121.58203125,0.0
1740795682.1164792,-178.22265625,-92.28515625,21.484375,-119.140625,0.0
1740795682.1203852,-218.75,-97.65625,15.625,-148.4375,0.0
1740795682.124291,-237.3046875,-99.12109375,14.6484375,-158.69140625,0.0
1740795682.128197,-250.0,-104.00390625,22.4609375,-175.29296875,0.0
1740795682.1321027,-256.8359375,-114.74609375,29.296875,-189.453125,0.0
1740795682.1360087,-295.8984375,-98.14453125,32.71484375,-207.03125,0.0
1740795682.1399183,-313.4765625,-97.16796875,33.69140625,-225.5859375,0.0
1740795682.143824,-300.78125,-115.72265625,41.50390625,-194.3359375,0.0
1740795682.14773,-321.77734375,-113.28125,43.45703125,-190.4296875,0.0
1740795682.151636,-350.09765625,-110.83984375,41.9921875,-204.1015625,0.0
1740795682.1555417,-367.1875,-108.88671875,44.43359375,-215.33203125,0.0
1740795682.1594477,-363.76953125,-105.95703125,46.875,-183.10546875,0.0
1740795682.1633534,-343.75,-108.88671875,49.31640625,-177.24609375,0.0
1740795682.1672595,-343.26171875,-102.05078125,46.38671875,-193.84765625,0.0
1740795682.1711652,-349.12109375,-94.23828125,47.8515625,-173.828125,0.0
1740795682.1750712,-349.12109375,-104.98046875,43.9453125,-165.0390625,0.0
1740795682.178977,-332.03125,-105.46875,38.57421875,-166.50390625,0.0
1740795682.182883,-321.77734375,-99.609375,32.71484375,-183.10546875,0.0
1740795682.1867921,-324.21875,-104.4921875,26.3671875,-176.7578125,0.0
1740795682.1906981,-326.66015625,-100.09765625,18.06640625,-171.38671875,0.0
1740795682.194604,-292.96875,-103.02734375,14.16015625,-162.59765625,0.0
1740795682.19851,-246.58203125,-103.02734375,12.6953125,-158.69140625,0.0
1740795682.2024157,-258.30078125,-91.30859375,0.9765625,-176.7578125,0.0
1740795682.2063217,-270.99609375,-92.7734375,-17.08984375,-186.03515625,0.0
1740795682.2102275,-239.74609375,-96.19140625,-22.94921875,-149.4140625,0.0
1740795682.2141335,-218.26171875,-92.7734375,-21.484375,-140.625,0.0
1740795682.2180393,-198.73046875,-87.40234375,-20.99609375,-156.25,0.0
1740795682.221945,-180.17578125,-82.03125,-15.625,-155.76171875,0.0
1740795682.225851,-156.73828125,-75.1953125,-18.06640625,-141.6015625,0.0
1740795682.2297568,-123.53515625,-68.359375,-26.85546875,-120.60546875,0.0
1740795682.233669,-107.421875,-67.87109375,-29.78515625,-104.00390625,0.0
1740795682.2375748,-98.6328125,-68.359375,-28.3203125,-93.75,0.0
1740795682.2414808,-82.51953125,-66.40625,-34.1796875,-70.80078125,0.0
1740795682.2453866,-58.10546875,-49.31640625,-36.62109375,-76.66015625,0.0
1740795682.2492926,-50.29296875,-33.69140625,-28.3203125,-90.8203125,0.0
1740795682.2531984,-34.1796875,-50.29296875,-27.83203125,-47.36328125,0.0
1740795682.2571044,-19.53125,-45.8984375,-31.73828125,-40.0390625,0.0
1740795682.2610102,-13.18359375,-28.80859375,-25.390625,-44.43359375,0.0
1740795682.2649162,9.765625,-27.34375,-24.4140625,-35.15625,0.0
1740795682.268822,32.71484375,-32.71484375,-26.85546875,-17.08984375,0.0
1740795682.2727277,24.4140625,-25.87890625,-24.4140625,-1.953125,0.0
1740795682.2766337,20.5078125,-22.4609375,-23.4375,4.39453125,0.0
1740795682.2805455,38.0859375,-28.80859375,-26.3671875,13.18359375,0.0
1740795682.2844512,46.875,-20.5078125,-30.2734375,-3.90625,0.0
1740795682.2883573,35.15625,-17.578125,-20.99609375,-37.59765625,0.0
1740795682.292263,34.1796875,-13.671875,-24.4140625,-8.7890625,0.0
1740795682.296169,53.7109375,-11.71875,-31.25,11.23046875,0.0
1740795682.3000748,66.40625,-19.53125,-25.390625,9.27734375,0.0
1740795682.3039808,62.98828125,-8.30078125,-27.83203125,-0.48828125,0.0
1740795682.3078866,50.29296875,-10.25390625,-22.94921875,-12.20703125,0.0
1740795682.3117926,67.87109375,-14.16015625,-22.94921875,-5.859375,0.0
1740795682.3156984,86.42578125,-9.27734375,-25.87890625,0.9765625,0.0
1740795682.3196044,66.40625,-3.90625,-20.5078125,12.6953125,0.0
1740795682.3235102,47.8515625,-4.8828125,-25.390625,12.6953125,0.0
1740795682.3274214,57.12890625,-17.578125,-25.390625,3.90625,0.0
1740795682.3313274,58.59375,-21.97265625,-20.01953125,-1.46484375,0.0
1740795682.3352332,45.41015625,-12.6953125,-29.78515625,-30.2734375,0.0
1740795682.339139,37.59765625,-18.5546875,-29.78515625,-17.08984375,0.0
1740795682.343045,35.64453125,-23.4375,-24.4140625,-0.9765625,0.0
1740795682.3469508,42.96875,-23.4375,-23.92578125,-20.01953125,0.0
1740795682.3508568,22.94921875,-30.76171875,-23.4375,-33.203125,0.0
1740795682.3547626,5.859375,-33.203125,-23.4375,-33.69140625,0.0
1740795682.3586686,7.8125,-37.59765625,-20.01953125,-25.390625,0.0
1740795682.3625743,12.20703125,-36.1328125,-21.484375,-47.8515625,0.0
1740795682.3664804,10.7421875,-38.0859375,-29.78515625,-51.26953125,0.0
1740795682.3703861,-7.32421875,-42.48046875,-35.15625,-43.45703125,0.0
1740795682.3742974,-15.13671875,-43.9453125,-39.55078125,-50.78125,0.0
1740795682.3782032,-13.671875,-38.57421875,-47.36328125,-56.640625,0.0
1740795682.3821092,-22.94921875,-53.22265625,-43.45703125,-65.4296875,0.0
1740795682.386015,-24.90234375,-54.6875,-39.55078125,-58.10546875,0.0
1740795682.389921,-35.15625,-53.22265625,-45.8984375,-62.5,0.0
1740795682.3938267,-27.34375,-59.08203125,-42.96875,-49.31640625,0.0
1740795682.3977325,-9.27734375,-53.22265625,-37.59765625,-40.52734375,0.0
1740795682.4016385,-8.30078125,-61.03515625,-37.109375,-63.4765625,0.0
1740795682.4055443,-11.23046875,-67.3828125,-40.0390625,-58.10546875,0.0
1740795682.4094503,-18.06640625,-42.96875,-49.8046875,-32.2265625,0.0
1740795682.413356,10.25390625,-52.734375,-43.9453125,-25.390625,0.0
1740795682.417262,13.671875,-66.40625,-40.0390625,-19.53125,0.0
1740795682.4211724,-31.73828125,-61.03515625,-51.7578125,-37.59765625,0.0
1740795682.4250782,-12.6953125,-57.6171875,-52.24609375,-35.64453125,0.0
1740795682.4289842,10.7421875,-45.8984375,-42.48046875,-26.85546875,0.0
1740795682.43289,-4.39453125,-51.7578125,-39.0625,-51.26953125,0.0
1740795682.436796,-9.27734375,-54.19921875,-44.43359375,-53.22265625,0.0
1740795682.4407017,-20.01953125,-39.0625,-48.828125,-13.18359375,0.0
1740795682.4446077,-7.8125,-41.50390625,-40.52734375,-29.78515625,0.0
1740795682.4485135,5.859375,-49.31640625,-31.73828125,-28.3203125,0.0
1740795682.4524195,-19.04296875,-44.43359375,-24.90234375,-16.11328125,0.0
1740795682.4563253,-38.0859375,-44.921875,-32.2265625,-26.85546875,0.0
1740795682.4602313,-19.53125,-50.29296875,-38.0859375,-15.13671875,0.0
1740795682.464137,6.8359375,-42.48046875,-31.73828125,-23.92578125,0.0
1740795682.468047,-9.765625,-34.1796875,-32.2265625,-33.203125,0.0
1740795682.471953,-34.1796875,-35.15625,-30.2734375,-25.87890625,0.0
1740795682.4758587,-37.59765625,-44.43359375,-31.73828125,-32.71484375,0.0
1740795682.4797647,-32.71484375,-41.9921875,-29.78515625,-31.73828125,0.0
1740795682.4836705,-18.06640625,-29.296875,-26.85546875,-24.4140625,0.0
1740795682.4875765,-28.3203125,-34.1796875,-36.62109375,-41.9921875,0.0
1740795682.4914823,-28.3203125,-41.50390625,-35.64453125,-27.34375,0.0
1740795682.4953883,-15.625,-37.109375,-37.59765625,-13.671875,0.0
1740795682.499294,-23.4375,-30.2734375,-41.9921875,-34.1796875,0.0
1740795682.5031998,-28.3203125,-36.1328125,-37.109375,-38.0859375,0.0
1740795682.5071058,-13.18359375,-35.64453125,-37.109375,-33.69140625,0.0
1740795682.5110116,-8.7890625,-28.3203125,-28.3203125,-30.2734375,0.0
1740795682.5149212,-23.4375,-30.76171875,-22.94921875,-44.43359375,0.0
1740795682.5188272,-34.66796875,-34.66796875,-30.76171875,-44.921875,0.0
1740795682.522733,-39.0625,-41.015625,-36.62109375,-41.9921875,0.0
1740795682.526639,-33.69140625,-39.0625,-38.57421875,-48.33984375,0.0
1740795682.5305448,-33.203125,-41.9921875,-37.59765625,-66.40625,0.0
1740795682.5344508,-28.3203125,-38.57421875,-37.109375,-77.63671875,0.0
1740795682.5383565,-41.015625,-31.73828125,-43.45703125,-50.29296875,0.0
1740795682.5422626,-54.19921875,-32.71484375,-49.31640625,-48.33984375,0.0
1740795682.5461683,-28.3203125,-33.69140625,-41.9921875,-54.19921875,0.0
1740795682.5500743,-12.20703125,-41.9921875,-39.0625,-48.828125,0.0
1740795682.55398,-37.109375,-42.96875,-46.38671875,-67.3828125,0.0
1740795682.5578861,-60.05859375,-42.48046875,-45.41015625,-94.23828125,0.0
1740795682.5617952,-35.64453125,-43.45703125,-43.45703125,-63.4765625,0.0
1740795682.5657012,-20.5078125,-38.0859375,-41.9921875,-40.52734375,0.0
1740795682.569607,-42.96875,-41.50390625,-38.57421875,-50.78125,0.0
1740795682.573513,-73.2421875,-38.0859375,-48.33984375,-46.38671875,0.0
1740795682.5774188,-54.6875,-40.0390625,-41.9921875,-62.5,0.0
1740795682.5813248,-31.25,-48.828125,-38.0859375,-48.828125,0.0
1740795682.5852306,-39.55078125,-60.05859375,-45.8984375,-33.203125,0.0
1740795682.5891366,-48.33984375,-47.8515625,-44.43359375,-35.64453125,0.0
1740795682.5930424,-42.48046875,-47.8515625,-34.1796875,-40.0390625,0.0
1740795682.5969484,-25.390625,-52.24609375,-31.25,-28.80859375,0.0
1740795682.6008542,-16.11328125,-45.8984375,-33.69140625,-16.6015625,0.0
1740795682.6047602,-30.76171875,-47.36328125,-35.64453125,-31.25,0.0
1740795682.6086721,-41.015625,-45.41015625,-32.71484375,-29.296875,0.0
1740795682.6125782,-38.57421875,-44.921875,-36.1328125,-41.50390625,0.0
1740795682.616484,-32.2265625,-46.38671875,-39.0625,-43.9453125,0.0
1740795682.62039,-34.66796875,-38.57421875,-35.15625,-19.53125,0.0
1740795682.6242957,-44.43359375,-38.0859375,-29.78515625,-16.11328125,0.0
1740795682.6282017,-32.71484375,-37.109375,-22.4609375,-18.06640625,0.0
1740795682.6321075,-19.53125,-32.2265625,-29.296875,-27.83203125,0.0
1740795682.6360135,-40.0390625,-36.1328125,-38.57421875,-36.1328125,0.0
1740795682.6399193,-57.12890625,-34.66796875,-37.109375,-33.69140625,0.0
1740795682.643825,-33.203125,-36.1328125,-30.76171875,-24.90234375,0.0
1740795682.647731,-9.765625,-28.80859375,-29.78515625,-30.76171875,0.0
1740795682.6516368,-12.6953125,-23.92578125,-24.90234375,-45.8984375,0.0
1740795682.6555521,-28.80859375,-23.4375,-27.34375,-22.94921875,0.0
1740795682.6594582,-32.2265625,-12.6953125,-35.15625,-30.2734375,0.0
1740795682.663364,-9.765625,-13.671875,-29.78515625,-32.2265625,0.0
1740795682.66727,-8.7890625,-26.85546875,-23.4375,-17.08984375,0.0
1740795682.6711757,-30.76171875,-23.92578125,-29.78515625,-31.73828125,0.0
1740795682.6750817,-40.0390625,-31.25,-38.57421875,-30.76171875,0.0
1740795682.6789875,-32.2265625,-33.203125,-37.59765625,-26.3671875,0.0
1740795682.6828933,-30.76171875,-21.484375,-38.0859375,-45.8984375,0.0
1740795682.6867993,-56.640625,-37.59765625,-37.109375,-55.17578125,0.0
1740795682.690705,-66.89453125,-52.24609375,-38.0859375,-35.15625,0.0
1740795682.694611,-42.48046875,-32.71484375,-51.26953125,-49.8046875,0.0
1740795682.6985168,-38.0859375,-25.390625,-59.5703125,-83.984375,0.0
1740795682.7024283,-52.24609375,-31.73828125,-57.12890625,-74.21875,0.0
1740795682.7063344,-56.640625,-21.484375,-59.5703125,-64.94140625,0.0
1740795682.7102401,-63.4765625,-35.15625,-62.5,-67.87109375,0.0
1740795682.714146,-42.48046875,-44.921875,-67.87109375,-64.453125,0.0
1740795682.718052,-37.59765625,-30.76171875,-68.84765625,-58.10546875,0.0
1740795682.7219577,-45.41015625,-49.31640625,-58.59375,-54.6875,0.0
1740795682.7258637,-48.828125,-57.6171875,-59.5703125,-59.08203125,0.0
1740795682.7297695,-51.7578125,-45.41015625,-60.546875,-62.98828125,0.0
1740795682.7336755,-39.55078125,-43.45703125,-53.7109375,-62.01171875,0.0
1740795682.7375813,-52.734375,-41.015625,-50.78125,-47.8515625,0.0
1740795682.7414873,-58.10546875,-47.8515625,-48.828125,-39.55078125,0.0
1740795682.745393,-39.0625,-46.38671875,-44.43359375,-27.83203125,0.0
1740795682.7493043,0.0,-38.57421875,-43.45703125,-35.15625,0.0
1740795682.75321,0.0,-33.203125,-49.31640625,-50.29296875,0.0
1740795682.7571158,0.0,-32.71484375,-47.8515625,-47.8515625,0.0
1740795682.7610219,0.0,-31.25,-41.50390625,-32.2265625,0.0
1740795682.7649276,0.0,-31.73828125,-49.31640625,-25.87890625,0.0
1740795682.7688336,0.0,-40.52734375,-54.19921875,-31.73828125,0.0
1740795682.7727394,0.0,-40.52734375,-47.36328125,-35.64453125,0.0
1740795682.7766454,0.0,-37.109375,-38.57421875,-19.04296875,0.0
1740795682.7805512,0.0,-38.57421875,-39.0625,-22.4609375,0.0
1740795682.7844572,0.0,-30.2734375,-43.9453125,-38.57421875,0.0
1740795682.788363,0.0,-24.90234375,-40.0390625,-31.25,0.0
1740795682.792269,0.0,-20.5078125,-38.57421875,-20.5078125,0.0
1740795682.7961793,-17.578125,-22.4609375,-36.1328125,-24.4140625,0.0
1740795682.800085,-3.90625,-22.94921875,-35.64453125,-35.15625,0.0
1740795682.803991,-5.37109375,-18.5546875,-32.2265625,-32.2265625,0.0
1740795682.8078969,-19.04296875,-24.90234375,-25.390625,-22.94921875,0.0
1740795682.8118029,-11.23046875,-23.4375,-28.80859375,-24.90234375,0.0
1740795682.8157086,0.9765625,-16.11328125,-37.109375,-28.80859375,0.0
1740795682.8196144,-20.01953125,-18.06640625,-35.15625,-26.85546875,0.0
1740795682.8235204,-50.29296875,-22.94921875,-26.85546875,-29.296875,0.0
1740795682.8274262,-53.22265625,-18.06640625,-28.3203125,-31.73828125,0.0
1740795682.8313322,-31.25,-21.484375,-31.73828125,-37.109375,0.0
1740795682.835238,-30.76171875,-24.90234375,-33.203125,-31.25,0.0
1740795682.839144,-56.15234375,-25.390625,-37.109375,-41.50390625,0.0
1740795682.843054,-58.59375,-30.76171875,-38.0859375,-48.828125,0.0
1740795682.8469598,-42.96875,-37.109375,-39.55078125,-44.921875,0.0
1740795682.8508658,-42.96875,-40.0390625,-41.015625,-59.08203125,0.0
1740795682.8547716,-57.6171875,-36.62109375,-44.43359375,-69.82421875,0.0
1740795682.8586774,-67.87109375,-39.55078125,-46.875,-57.12890625,0.0
1740795682.8625834,-62.98828125,-45.41015625,-46.38671875,-51.26953125,0.0
1740795682.8664892,-45.41015625,-45.41015625,-41.015625,-51.7578125,0.0
1740795682.8703952,-49.31640625,-47.8515625,-38.0859375,-45.8984375,0.0
1740795682.874301,-67.87109375,-36.1328125,-39.55078125,-57.12890625,0.0
1740795682.878207,-53.7109375,-36.62109375,-38.57421875,-55.17578125,0.0
1740795682.8821127,-36.1328125,-53.7109375,-41.9921875,-51.7578125,0.0
1740795682.8860188,-38.57421875,-48.33984375,-37.109375,-57.12890625,0.0
1740795682.8899283,-62.01171875,-39.55078125,-38.0859375,-61.03515625,0.0
1740795682.8938344,-59.08203125,-46.875,-41.50390625,-46.875,0.0
1740795682.8977401,-26.85546875,-46.875,-39.0625,-38.57421875,0.0
1740795682.901646,-30.76171875,-38.0859375,-36.1328125,-39.55078125,0.0
1740795682.905552,-54.19921875,-35.64453125,-36.1328125,-22.94921875,0.0
1740795682.9094577,-49.31640625,-40.0390625,-38.0859375,-26.85546875,0.0
1740795682.9133637,-21.97265625,-40.0390625,-37.109375,-31.73828125,0.0
1740795682.9172695,-10.7421875,-26.85546875,-39.0625,-29.78515625,0.0
1740795682.9211755,-28.80859375,-26.3671875,-44.921875,-36.62109375,0.0
1740795682.9250813,-44.921875,-26.85546875,-43.45703125,-34.1796875,0.0
1740795682.9289873,-31.73828125,-31.25,-38.0859375,-36.62109375,0.0
1740795682.932893,-20.01953125,-32.2265625,-34.66796875,-36.62109375,0.0
1740795682.9368024,-32.2265625,-25.390625,-33.203125,-38.0859375,0.0
1740795682.9407082,-38.0859375,-19.53125,-36.62109375,-45.41015625,0.0
1740795682.9446142,-18.5546875,-22.94921875,-34.66796875,-33.69140625,0.0
1740795682.94852,-14.6484375,-23.4375,-31.25,-26.85546875,0.0
1740795682.952426,-30.76171875,-28.80859375,-29.78515625,-33.203125,0.0
1740795682.9563317,-38.57421875,-40.0390625,-23.4375,-19.53125,0.0
1740795682.9602377,-29.296875,-34.66796875,-22.94921875,-2.9296875,0.0
1740795682.9641435,-23.4375,-7.32421875,-33.69140625,-43.45703125,0.0
1740795682.9680493,-33.69140625,-5.859375,-42.96875,-66.40625,0.0
1740795682.9719553,-46.38671875,-22.94921875,-42.48046875,-58.10546875,0.0
1740795682.975861,-61.03515625,-10.7421875,-38.57421875,-52.24609375,0.0
1740795682.979767,-67.87109375,0.48828125,-41.9921875,-74.21875,0.0
1740795682.9836793,-86.42578125,3.41796875,-52.24609375,-117.1875,0.0
1740795682.987585,-97.16796875,0.9765625,-58.10546875,-115.72265625,0.0
1740795682.991491,-109.375,-2.44140625,-64.453125,-106.4453125,0.0
1740795682.9953969,-104.00390625,6.34765625,-66.40625,-122.55859375,0.0
1740795682.9993029,-83.0078125,9.765625,-67.3828125,-133.7890625,0.0
1740795683.0032086,-97.65625,5.37109375,-75.1953125,-142.578125,0.0
1740795683.0071146,-114.2578125,12.6953125,-80.078125,-150.390625,0.0
1740795683.0110204,-101.07421875,25.87890625,-86.9140625,-161.1328125,0.0
1740795683.0149264,-72.265625,17.578125,-92.7734375,-163.0859375,0.0
1740795683.0188322,-69.3359375,17.578125,-98.6328125,-143.06640625,0.0
1740795683.022738,-82.03125,18.5546875,-103.02734375,-135.25390625,0.0
1740795683.026644,-68.359375,24.4140625,-107.421875,-117.1875,0.0
1740795683.0305557,-51.7578125,25.87890625,-112.79296875,-105.46875,0.0
1740795683.0344615,-32.2265625,17.08984375,-105.95703125,-94.23828125,0.0
1740795683.0383675,-18.5546875,15.13671875,-102.05078125,-69.82421875,0.0
1740795683.0422733,-9.765625,11.71875,-102.5390625,-58.59375,0.0
1740795683.0461793,3.90625,1.46484375,-96.6796875,-36.62109375,0.0
1740795683.050085,1.46484375,-3.41796875,-103.02734375,-37.109375,0.0
1740795683.0539908,4.39453125,-1.953125,-105.95703125,-42.48046875,0.0
1740795683.0578969,7.32421875,0.9765625,-95.21484375,-34.1796875,0.0
1740795683.0618026,18.5546875,-0.9765625,-89.35546875,-32.71484375,0.0
1740795683.0657086,36.62109375,-6.8359375,-81.0546875,-24.90234375,0.0
1740795683.0696144,28.3203125,-6.34765625,-77.63671875,-17.578125,0.0
1740795683.0735204,8.30078125,-11.23046875,-83.0078125,-20.5078125,0.0
1740795683.077432,0.0,-20.99609375,-78.61328125,-17.08984375,0.0
1740795683.0813377,0.0,-18.06640625,-71.2890625,-18.06640625,0.0
1740795683.0852437,0.0,-10.7421875,-63.96484375,-18.06640625,0.0
1740795683.0891495,0.0,-13.18359375,-64.453125,-14.16015625,0.0
1740795683.0930555,0.0,-18.5546875,-65.4296875,-8.7890625,0.0
