timestamps,TP9,AF7,AF8,TP10,Right AUX
1740797230.3740292,-11.23046875,-22.4609375,-48.828125,-19.04296875,0.0
1740797230.3779352,-9.27734375,-33.203125,-43.45703125,-12.6953125,0.0
1740797230.3818412,-21.97265625,-32.71484375,-42.48046875,-8.30078125,0.0
1740797230.385747,-34.1796875,-34.1796875,-44.43359375,-15.13671875,0.0
1740797230.389653,-31.25,-37.59765625,-41.9921875,-23.4375,0.0
1740797230.393559,-29.296875,-47.8515625,-41.9921875,-25.87890625,0.0
1740797230.3974648,-29.296875,-52.734375,-44.43359375,-24.4140625,0.0
1740797230.4013708,-30.2734375,-43.9453125,-44.43359375,-24.90234375,0.0
1740797230.4052768,-16.11328125,-39.0625,-41.50390625,-22.4609375,0.0
1740797230.4091825,-11.71875,-42.48046875,-43.45703125,-23.92578125,0.0
1740797230.4130886,-23.4375,-37.109375,-46.875,-30.2734375,0.0
1740797230.4169946,-29.78515625,-38.0859375,-41.50390625,-28.80859375,0.0
1740797230.4209042,-24.4140625,-43.9453125,-39.0625,-28.3203125,0.0
1740797230.42481,-23.4375,-41.9921875,-45.41015625,-26.3671875,0.0
1740797230.428716,-29.78515625,-41.50390625,-47.8515625,-32.2265625,0.0
1740797230.432622,-27.83203125,-44.921875,-47.36328125,-30.2734375,0.0
1740797230.4365277,-26.3671875,-45.8984375,-46.875,-17.08984375,0.0
1740797230.4404337,-27.83203125,-49.31640625,-42.96875,-18.5546875,0.0
1740797230.4443398,-24.4140625,-43.9453125,-35.64453125,-13.671875,0.0
1740797230.4482458,-33.69140625,-36.62109375,-32.2265625,-21.97265625,0.0
1740797230.4521515,-42.96875,-45.41015625,-30.76171875,-24.4140625,0.0
1740797230.4560575,-40.52734375,-48.828125,-37.109375,-12.20703125,0.0
1740797230.4599636,-48.828125,-39.55078125,-45.41015625,-34.66796875,0.0
1740797230.4638693,-62.01171875,-37.59765625,-38.57421875,-48.828125,0.0
1740797230.467779,-64.94140625,-42.96875,-40.52734375,-38.57421875,0.0
1740797230.4716847,-48.828125,-41.9921875,-45.8984375,-25.390625,0.0
1740797230.4755907,-51.7578125,-27.83203125,-46.875,-41.50390625,0.0
1740797230.4794967,-57.12890625,-22.4609375,-47.8515625,-57.12890625,0.0
1740797230.4834025,-49.31640625,-30.2734375,-45.8984375,-40.52734375,0.0
1740797230.4873085,-50.29296875,-35.15625,-48.33984375,-40.0390625,0.0
1740797230.4912145,-45.8984375,-34.66796875,-50.29296875,-53.7109375,0.0
1740797230.4951203,-33.203125,-32.71484375,-48.828125,-47.36328125,0.0
1740797230.4990263,-28.80859375,-39.0625,-44.921875,-37.109375,0.0
1740797230.5029323,-21.97265625,-30.76171875,-42.48046875,-39.0625,0.0
1740797230.5068383,-13.18359375,-23.92578125,-44.43359375,-35.15625,0.0
1740797230.510744,-8.30078125,-28.3203125,-41.50390625,-29.296875,0.0
1740797230.5146534,0.0,-26.3671875,-37.109375,-19.04296875,0.0
1740797230.5185595,0.0,-19.04296875,-39.0625,-13.18359375,0.0
1740797230.5224652,0.0,-16.6015625,-37.109375,-15.625,0.0
1740797230.5263712,0.0,-28.80859375,-34.1796875,-25.87890625,0.0
1740797230.5302773,0.0,-35.15625,-37.59765625,-25.87890625,0.0
1740797230.5341833,0.0,-36.62109375,-45.8984375,-23.4375,0.0
1740797230.538089,0.0,-37.59765625,-47.8515625,-27.34375,0.0
1740797230.541995,0.0,-39.55078125,-47.36328125,-30.2734375,0.0
1740797230.545901,0.0,-52.24609375,-44.921875,-36.62109375,0.0
1740797230.5498068,0.0,-41.9921875,-42.96875,-38.0859375,0.0
1740797230.5537128,0.0,-29.296875,-39.0625,-36.62109375,0.0
1740797230.5576189,0.0,-39.55078125,-39.0625,-45.8984375,0.0
1740797230.5615294,-30.2734375,-38.0859375,-38.0859375,-36.62109375,0.0
1740797230.5654352,-29.78515625,-31.25,-36.62109375,-25.87890625,0.0
1740797230.5693412,-33.203125,-32.2265625,-44.921875,-42.48046875,0.0
1740797230.5732472,-19.04296875,-30.2734375,-40.52734375,-39.55078125,0.0
1740797230.577153,-13.671875,-23.4375,-33.69140625,-26.85546875,0.0
1740797230.581059,-20.01953125,-23.4375,-37.109375,-28.80859375,0.0
1740797230.584965,-21.97265625,-25.87890625,-39.55078125,-37.59765625,0.0
1740797230.588871,-9.765625,-27.34375,-36.1328125,-31.73828125,0.0
1740797230.5927768,-8.7890625,-24.4140625,-37.109375,-23.4375,0.0
1740797230.5966828,-4.8828125,-17.08984375,-40.52734375,-27.83203125,0.0
1740797230.6005888,-13.671875,-18.5546875,-34.1796875,-25.87890625,0.0
1740797230.6044946,-26.85546875,-26.3671875,-35.64453125,-36.62109375,0.0
1740797230.6084034,-14.16015625,-29.296875,-38.0859375,-44.43359375,0.0
1740797230.6123095,-12.6953125,-19.53125,-34.66796875,-41.9921875,0.0
1740797230.6162152,-29.296875,-19.04296875,-35.15625,-30.2734375,0.0
1740797230.6201212,-31.25,-28.3203125,-36.62109375,-29.78515625,0.0
1740797230.6240273,-25.87890625,-28.3203125,-31.73828125,-34.66796875,0.0
1740797230.627933,-23.92578125,-27.34375,-31.73828125,-29.296875,0.0
1740797230.631839,-23.92578125,-38.0859375,-33.69140625,-26.85546875,0.0
1740797230.635745,-29.78515625,-41.015625,-32.71484375,-27.83203125,0.0
1740797230.639651,-30.2734375,-34.1796875,-34.1796875,-22.94921875,0.0
1740797230.6435568,-21.484375,-37.109375,-37.109375,-34.66796875,0.0
1740797230.6474628,-16.11328125,-42.96875,-41.015625,-39.55078125,0.0
1740797230.6513689,-27.34375,-42.96875,-38.0859375,-33.69140625,0.0
1740797230.655279,-26.3671875,-33.69140625,-34.66796875,-27.34375,0.0
1740797230.659185,-20.01953125,-33.69140625,-34.66796875,-24.4140625,0.0
1740797230.663091,-20.01953125,-38.0859375,-40.0390625,-39.55078125,0.0
1740797230.6669967,-14.16015625,-29.296875,-41.9921875,-40.52734375,0.0
1740797230.6709027,-23.92578125,-25.390625,-43.45703125,-35.64453125,0.0
1740797230.6748087,-21.484375,-33.69140625,-45.8984375,-40.0390625,0.0
1740797230.6787145,-17.08984375,-33.69140625,-44.921875,-39.0625,0.0
1740797230.6826205,-32.71484375,-27.34375,-46.38671875,-35.64453125,0.0
1740797230.6865265,-36.1328125,-25.390625,-49.31640625,-42.96875,0.0
1740797230.6904325,-33.203125,-28.80859375,-49.8046875,-42.96875,0.0
1740797230.6943383,-34.1796875,-30.76171875,-44.43359375,-36.62109375,0.0
1740797230.6982443,-38.57421875,-36.62109375,-43.45703125,-33.69140625,0.0
1740797230.7021527,-49.31640625,-41.9921875,-41.50390625,-31.25,0.0
1740797230.7060587,-50.78125,-44.43359375,-39.55078125,-36.1328125,0.0
1740797230.7099648,-45.41015625,-41.015625,-32.2265625,-43.45703125,0.0
1740797230.7138705,-54.19921875,-36.1328125,-29.296875,-50.78125,0.0
1740797230.7177765,-64.453125,-32.71484375,-36.62109375,-59.08203125,0.0
1740797230.7216825,-57.6171875,-35.64453125,-38.57421875,-55.6640625,0.0
1740797230.7255883,-48.33984375,-45.8984375,-37.109375,-52.24609375,0.0
1740797230.7294943,-50.29296875,-38.57421875,-34.66796875,-55.17578125,0.0
1740797230.7334003,-57.6171875,-29.296875,-36.1328125,-52.734375,0.0
1740797230.737306,-53.7109375,-39.55078125,-41.015625,-38.57421875,0.0
1740797230.7412121,-35.64453125,-49.8046875,-40.0390625,-34.66796875,0.0
1740797230.7451181,-36.1328125,-38.0859375,-41.50390625,-48.33984375,0.0
1740797230.7490263,-43.45703125,-34.1796875,-39.0625,-44.921875,0.0
1740797230.7529323,-47.8515625,-39.0625,-39.0625,-34.1796875,0.0
1740797230.756838,-41.9921875,-40.0390625,-37.59765625,-34.1796875,0.0
1740797230.760744,-39.55078125,-44.43359375,-35.15625,-33.69140625,0.0
1740797230.76465,-39.55078125,-41.50390625,-32.2265625,-30.76171875,0.0
1740797230.7685559,-49.8046875,-48.828125,-33.203125,-28.3203125,0.0
1740797230.772462,-49.31640625,-53.22265625,-36.1328125,-31.73828125,0.0
1740797230.776368,-23.4375,-46.38671875,-37.59765625,-27.83203125,0.0
1740797230.7802737,-17.578125,-47.8515625,-41.50390625,-27.83203125,0.0
1740797230.7841797,-27.34375,-47.8515625,-33.69140625,-24.4140625,0.0
1740797230.7880857,-32.71484375,-46.875,-32.2265625,-27.83203125,0.0
1740797230.7919917,-33.203125,-50.78125,-39.55078125,-41.50390625,0.0
1740797230.795901,-24.4140625,-46.38671875,-39.55078125,-33.203125,0.0
1740797230.799807,-31.73828125,-37.59765625,-37.109375,-24.4140625,0.0
1740797230.803713,-39.55078125,-33.203125,-33.69140625,-21.97265625,0.0
1740797230.8076189,-22.94921875,-30.76171875,-31.73828125,-28.80859375,0.0
1740797230.8115249,-18.06640625,-30.2734375,-27.83203125,-29.78515625,0.0
1740797230.8154309,-32.2265625,-32.2265625,-27.34375,-18.5546875,0.0
1740797230.819337,-36.1328125,-32.2265625,-31.73828125,-18.06640625,0.0
1740797230.8232427,-24.90234375,-30.2734375,-30.76171875,-25.390625,0.0
1740797230.8271487,-20.01953125,-31.73828125,-30.2734375,-34.1796875,0.0
1740797230.8310547,-27.34375,-37.109375,-29.296875,-30.76171875,0.0
1740797230.8349605,-31.25,-32.2265625,-34.66796875,-35.15625,0.0
1740797230.8388665,-33.203125,-35.15625,-36.1328125,-35.64453125,0.0
1740797230.8427758,-29.78515625,-33.69140625,-39.0625,-31.25,0.0
1740797230.8466818,-28.3203125,-33.203125,-41.50390625,-31.25,0.0
1740797230.8505878,-35.64453125,-28.80859375,-38.0859375,-34.1796875,0.0
1740797230.8544936,-36.1328125,-21.484375,-40.0390625,-28.80859375,0.0
1740797230.8583996,-33.69140625,-27.83203125,-36.62109375,-33.69140625,0.0
1740797230.8623056,-25.87890625,-29.78515625,-39.0625,-35.64453125,0.0
1740797230.8662114,-41.50390625,-29.296875,-38.57421875,-29.78515625,0.0
1740797230.8701174,-48.828125,-34.1796875,-32.2265625,-41.015625,0.0
1740797230.8740234,-39.0625,-40.52734375,-33.203125,-27.83203125,0.0
1740797230.8779294,-45.41015625,-34.1796875,-38.57421875,-28.80859375,0.0
1740797230.8818352,-46.38671875,-38.0859375,-35.15625,-37.109375,0.0
1740797230.8857412,-41.50390625,-39.0625,-36.62109375,-37.59765625,0.0
1740797230.8896506,0.0,-31.25,-38.57421875,-57.12890625,0.0
1740797230.8935564,0.0,-40.52734375,-37.109375,-65.4296875,0.0
1740797230.8974624,0.0,-43.45703125,-39.0625,-57.12890625,0.0
1740797230.9013684,0.0,-44.43359375,-40.0390625,-34.66796875,0.0
1740797230.9052742,0.0,-52.24609375,-41.015625,-27.34375,0.0
1740797230.9091802,0.0,-51.7578125,-41.50390625,-28.3203125,0.0
1740797230.9130862,0.0,-47.36328125,-39.55078125,-32.71484375,0.0
1740797230.9169922,0.0,-49.8046875,-41.015625,-41.015625,0.0
1740797230.920898,0.0,-61.5234375,-37.59765625,-27.83203125,0.0
1740797230.924804,0.0,-56.640625,-41.015625,-37.59765625,0.0
1740797230.92871,0.0,-51.26953125,-40.52734375,-41.9921875,0.0
1740797230.9326158,0.0,-52.24609375,-30.2734375,-31.73828125,0.0
1740797230.9365249,-41.9921875,-52.24609375,-29.296875,-24.90234375,0.0
1740797230.9404306,-36.62109375,-56.640625,-29.78515625,-22.94921875,0.0
1740797230.9443367,-16.11328125,-46.875,-26.85546875,-31.73828125,0.0
1740797230.9482427,-23.4375,-42.96875,-34.1796875,-21.97265625,0.0
1740797230.9521484,-30.2734375,-50.78125,-37.109375,-2.9296875,0.0
1740797230.9560544,-23.4375,-55.17578125,-35.64453125,-15.13671875,0.0
1740797230.9599605,-14.6484375,-41.015625,-34.66796875,-7.32421875,0.0
1740797230.9638665,-1.953125,-35.64453125,-28.3203125,0.48828125,0.0
1740797230.9677722,-13.671875,-34.66796875,-29.78515625,-7.32421875,0.0
1740797230.9716783,-4.39453125,-29.78515625,-37.59765625,-4.39453125,0.0
1740797230.9755843,5.37109375,-32.2265625,-36.62109375,-2.44140625,0.0
1740797230.97949,2.9296875,-29.78515625,-29.296875,1.46484375,0.0
1740797230.983399,0.9765625,-28.3203125,-29.78515625,-3.41796875,0.0
1740797230.987305,-2.44140625,-31.25,-32.71484375,-7.8125,0.0
1740797230.9912107,10.7421875,-29.296875,-38.57421875,-8.30078125,0.0
1740797230.9951167,3.90625,-30.2734375,-42.48046875,-6.34765625,0.0
1740797230.9990227,-7.8125,-31.25,-39.0625,-9.765625,0.0
1740797231.0029285,-1.953125,-25.87890625,-38.0859375,-9.27734375,0.0
1740797231.0068345,-11.71875,-34.66796875,-45.41015625,-6.34765625,0.0
1740797231.0107405,-4.8828125,-47.36328125,-46.875,-14.6484375,0.0
1740797231.0146465,-1.953125,-36.62109375,-41.50390625,-25.390625,0.0
1740797231.0185523,10.25390625,-29.296875,-45.41015625,-15.625,0.0
1740797231.0224583,22.4609375,-32.71484375,-50.78125,-4.8828125,0.0
1740797231.0263643,10.7421875,-35.64453125,-49.8046875,-12.20703125,0.0
1740797231.0302727,-5.859375,-39.0625,-50.29296875,-8.7890625,0.0
1740797231.0341787,-8.30078125,-38.0859375,-50.29296875,-15.625,0.0
1740797231.0380847,-8.7890625,-38.57421875,-49.8046875,-17.578125,0.0
1740797231.0419905,0.0,-41.50390625,-45.8984375,-10.25390625,0.0
1740797231.0458965,-7.32421875,-38.57421875,-45.41015625,-22.4609375,0.0
1740797231.0498025,-17.08984375,-38.0859375,-49.8046875,-19.04296875,0.0
1740797231.0537086,-12.20703125,-42.48046875,-42.96875,11.71875,0.0
1740797231.0576143,-8.7890625,-39.0625,-36.62109375,13.671875,0.0
1740797231.0615203,16.11328125,-33.203125,-43.9453125,-9.765625,0.0
1740797231.0654263,13.671875,-34.66796875,-42.48046875,3.90625,0.0
1740797231.0693321,17.08984375,-34.66796875,-41.50390625,0.48828125,0.0
1740797231.0732381,24.4140625,-38.57421875,-42.96875,-19.53125,0.0
1740797231.0771465,-4.8828125,-29.78515625,-38.57421875,2.44140625,0.0
1740797231.0810525,-5.37109375,-27.34375,-33.69140625,38.0859375,0.0
1740797231.0849586,-6.8359375,-35.15625,-37.109375,22.94921875,0.0
1740797231.0888643,-16.6015625,-31.73828125,-42.48046875,0.0,0.0
1740797231.0927703,-1.46484375,-30.2734375,-37.109375,20.5078125,0.0
1740797231.0966763,1.953125,-31.73828125,-30.2734375,21.484375,0.0
1740797231.1005821,-8.7890625,-38.57421875,-31.25,17.08984375,0.0
1740797231.1044881,-23.4375,-24.90234375,-38.57421875,19.53125,0.0
1740797231.1083941,-14.16015625,-20.5078125,-34.66796875,7.32421875,0.0
1740797231.1123,-11.71875,-33.69140625,-35.64453125,-8.7890625,0.0
1740797231.116206,-8.30078125,-36.1328125,-42.96875,-2.9296875,0.0
1740797231.120112,9.27734375,-33.203125,-32.71484375,13.18359375,0.0
1740797231.12402,2.9296875,-37.109375,-26.85546875,33.203125,0.0
1740797231.127926,-8.7890625,-33.69140625,-27.83203125,20.99609375,0.0
1740797231.131832,-11.71875,-26.3671875,-24.4140625,16.6015625,0.0
1740797231.135738,-4.39453125,-31.73828125,-29.78515625,9.765625,0.0
1740797231.139644,-23.92578125,-42.96875,-37.109375,-20.5078125,0.0
1740797231.14355,-18.5546875,-49.8046875,-33.203125,-8.7890625,0.0
1740797231.1474557,-11.71875,-41.015625,-24.4140625,19.04296875,0.0
1740797231.1513617,-35.64453125,-30.76171875,-29.78515625,0.0,0.0
1740797231.1552677,-31.73828125,-39.55078125,-38.0859375,-21.484375,0.0
1740797231.1591735,-8.30078125,-50.78125,-29.296875,-15.13671875,0.0
1740797231.1630795,0.0,-46.38671875,-30.2734375,-1.46484375,0.0
1740797231.1669855,-6.34765625,-46.38671875,-31.73828125,1.953125,0.0
1740797231.170895,-29.296875,-40.0390625,-29.296875,-20.99609375,0.0
1740797231.174801,-35.64453125,-32.71484375,-30.76171875,-30.76171875,0.0
1740797231.178707,-22.4609375,-27.83203125,-34.1796875,-15.13671875,0.0
1740797231.182613,-25.390625,-27.83203125,-38.57421875,-7.8125,0.0
1740797231.186519,-24.90234375,-35.64453125,-40.0390625,-6.8359375,0.0
1740797231.1904247,-20.99609375,-37.59765625,-32.2265625,3.90625,0.0
1740797231.1943307,-9.27734375,-37.59765625,-32.2265625,-6.8359375,0.0
1740797231.1982367,-9.765625,-32.2265625,-35.15625,-41.50390625,0.0
1740797231.2021425,-29.78515625,-35.64453125,-33.203125,-22.4609375,0.0
1740797231.2060485,-22.94921875,-38.0859375,-33.69140625,-2.9296875,0.0
1740797231.2099545,-21.97265625,-26.3671875,-33.203125,-21.484375,0.0
1740797231.2138605,-45.41015625,-24.90234375,-36.1328125,-31.25,0.0
1740797231.2177699,0.0,-29.296875,-35.64453125,-15.625,0.0
1740797231.2216759,0.0,-27.34375,-30.2734375,-18.06640625,0.0
1740797231.225582,0.0,-28.3203125,-34.66796875,-31.73828125,0.0
1740797231.2294877,0.0,-27.34375,-30.2734375,-26.3671875,0.0
1740797231.2333937,0.0,-31.25,-29.296875,-18.5546875,0.0
1740797231.2372997,0.0,-37.109375,-33.69140625,-38.0859375,0.0
1740797231.2412055,0.0,-35.15625,-32.2265625,-52.734375,0.0
1740797231.2451115,0.0,-29.78515625,-40.0390625,-41.50390625,0.0
1740797231.2490175,0.0,-23.92578125,-39.55078125,-32.2265625,0.0
1740797231.2529233,0.0,-23.4375,-34.1796875,-28.80859375,0.0
1740797231.2568293,0.0,-23.4375,-36.1328125,-20.5078125,0.0
1740797231.2607353,0.0,-27.83203125,-36.62109375,-22.94921875,0.0
1740797231.26464,-35.15625,-21.484375,-38.57421875,-37.109375,0.0
1740797231.268546,-22.4609375,-13.18359375,-32.71484375,-37.109375,0.0
1740797231.272452,-19.53125,-17.578125,-33.203125,-33.203125,0.0
1740797231.276358,-33.69140625,-20.99609375,-32.2265625,-24.4140625,0.0
1740797231.280264,-26.3671875,-17.578125,-28.80859375,-20.01953125,0.0
1740797231.28417,-23.4375,-16.11328125,-28.3203125,-12.6953125,0.0
1740797231.2880757,-23.92578125,-19.04296875,-28.3203125,-14.6484375,0.0
1740797231.2919817,-13.671875,-22.94921875,-35.15625,-11.71875,0.0
1740797231.2958877,-11.23046875,-29.296875,-35.64453125,-0.48828125,0.0
1740797231.2997937,-11.71875,-25.390625,-40.0390625,-22.4609375,0.0
1740797231.3036995,-29.78515625,-21.97265625,-40.52734375,-25.390625,0.0
1740797231.3076055,-22.4609375,-22.94921875,-41.50390625,-12.20703125,0.0
1740797231.3115144,-4.39453125,-28.80859375,-40.52734375,-31.25,0.0
1740797231.3154204,-2.44140625,-32.2265625,-36.1328125,-42.96875,0.0
1740797231.3193264,-11.23046875,-24.90234375,-32.71484375,-25.390625,0.0
1740797231.3232322,-28.80859375,-23.92578125,-26.3671875,-17.578125,0.0
1740797231.3271382,-27.34375,-28.3203125,-23.4375,-41.015625,0.0
1740797231.3310442,-33.69140625,-35.64453125,-21.484375,-41.015625,0.0
1740797231.33495,-37.59765625,-42.96875,-22.94921875,-33.203125,0.0
1740797231.338856,-32.71484375,-51.7578125,-26.3671875,-43.45703125,0.0
1740797231.342762,-27.34375,-51.26953125,-25.390625,-55.6640625,0.0
1740797231.346668,-50.78125,-43.45703125,-25.87890625,-58.59375,0.0
1740797231.3505738,-49.31640625,-41.9921875,-26.3671875,-38.0859375,0.0
1740797231.3544798,-23.92578125,-42.96875,-28.80859375,-36.62109375,0.0
1740797231.3583887,-15.13671875,-46.38671875,-33.203125,-52.24609375,0.0
1740797231.3622944,-37.59765625,-42.96875,-29.296875,-33.203125,0.0
1740797231.3662004,-68.84765625,-40.52734375,-29.296875,-43.9453125,0.0
1740797231.3701065,-63.96484375,-48.33984375,-24.90234375,-48.828125,0.0
1740797231.3740122,-58.10546875,-49.31640625,-23.92578125,-48.828125,0.0
1740797231.3779182,-30.2734375,-51.26953125,-26.3671875,-50.78125,0.0
1740797231.3818243,-29.78515625,-49.8046875,-23.4375,-36.62109375,0.0
1740797231.38573,-44.43359375,-52.734375,-14.6484375,-19.53125,0.0
1740797231.389636,-16.11328125,-47.36328125,-20.01953125,-31.73828125,0.0
1740797231.393542,-11.71875,-41.9921875,-28.3203125,-42.96875,0.0
1740797231.3974478,-48.828125,-45.8984375,-32.71484375,-38.57421875,0.0
1740797231.4013538,-49.8046875,-39.0625,-35.64453125,-38.0859375,0.0
1740797231.4052625,-25.390625,-42.48046875,-31.25,-29.296875,0.0
1740797231.4091685,-19.04296875,-47.8515625,-29.296875,-32.71484375,0.0
1740797231.4130743,-14.6484375,-49.8046875,-31.25,-19.53125,0.0
1740797231.4169803,-17.578125,-45.8984375,-34.1796875,-21.97265625,0.0
1740797231.4208863,-10.7421875,-46.38671875,-34.66796875,-35.64453125,0.0
1740797231.424792,-25.87890625,-49.8046875,-36.1328125,-42.48046875,0.0
1740797231.428698,-34.1796875,-41.9921875,-33.69140625,-41.50390625,0.0
1740797231.432604,-27.83203125,-29.78515625,-31.25,-24.4140625,0.0
1740797231.4365098,-48.33984375,-16.11328125,-38.0859375,-40.0390625,0.0
1740797231.4404159,-51.26953125,-19.04296875,-41.9921875,-48.828125,0.0
1740797231.4443219,-24.4140625,-40.52734375,-39.55078125,-18.06640625,0.0
1740797231.448228,-37.59765625,-42.48046875,-33.69140625,-33.69140625,0.0
1740797231.4521363,-31.73828125,-34.66796875,-36.1328125,-41.50390625,0.0
1740797231.456042,-0.48828125,-41.9921875,-37.59765625,-4.39453125,0.0
1740797231.459948,-26.85546875,-49.8046875,-31.25,-17.08984375,0.0
1740797231.463854,-8.30078125,-46.875,-26.85546875,-39.0625,0.0
1740797231.4677598,-13.18359375,-41.015625,-25.87890625,-30.2734375,0.0
1740797231.4716659,-51.26953125,-43.9453125,-24.4140625,-25.390625,0.0
1740797231.4755719,-30.76171875,-47.36328125,-23.92578125,-22.94921875,0.0
1740797231.4794776,-4.8828125,-49.8046875,-22.94921875,-26.85546875,0.0
1740797231.4833837,-31.25,-42.48046875,-25.390625,-20.5078125,0.0
1740797231.4872897,-43.9453125,-42.48046875,-31.73828125,-20.99609375,0.0
1740797231.4911957,-42.96875,-41.50390625,-34.66796875,-33.69140625,0.0
1740797231.4951015,-53.22265625,-29.296875,-31.25,-30.2734375,0.0
1740797231.4990096,-27.34375,-18.5546875,-31.73828125,-27.83203125,0.0
1740797231.5029156,-16.11328125,-29.296875,-37.59765625,-26.85546875,0.0
1740797231.5068216,-24.90234375,-35.15625,-35.64453125,-27.83203125,0.0
1740797231.5107274,1.46484375,-28.80859375,-34.66796875,-22.94921875,0.0
1740797231.5146334,5.859375,-30.76171875,-37.109375,-20.5078125,0.0
1740797231.5185394,-11.71875,-36.62109375,-38.57421875,-29.296875,0.0
1740797231.5224454,-6.34765625,-30.76171875,-35.15625,-22.94921875,0.0
1740797231.5263512,-15.13671875,-8.30078125,-41.50390625,-38.57421875,0.0
1740797231.5302572,-51.26953125,12.20703125,-48.33984375,-38.0859375,0.0
1740797231.5341632,-79.1015625,3.41796875,-46.38671875,-42.48046875,0.0
1740797231.538069,-52.24609375,-22.4609375,-50.78125,-78.61328125,0.0
1740797231.541975,-10.7421875,-29.296875,-46.875,-68.359375,0.0
1740797231.5458846,32.71484375,-38.0859375,-42.48046875,-38.57421875,0.0
1740797231.5497906,12.6953125,-45.41015625,-42.48046875,-20.5078125,0.0
1740797231.5536966,-41.015625,-38.57421875,-44.921875,-33.69140625,0.0
1740797231.5576026,-20.5078125,-38.57421875,-44.43359375,-54.6875,0.0
1740797231.5615084,-22.4609375,-40.52734375,-39.0625,-53.7109375,0.0
1740797231.5654144,-43.45703125,-15.625,-40.52734375,-80.078125,0.0
1740797231.5693204,-70.3125,-9.27734375,-36.62109375,-83.984375,0.0
1740797231.5732262,-138.671875,-1.953125,-44.921875,-120.60546875,0.0
1740797231.5771322,-166.9921875,22.4609375,-26.85546875,-150.390625,0.0
1740797231.5810382,-207.51953125,-21.484375,0.0,-203.61328125,0.0
1740797231.584944,-260.25390625,1.46484375,-34.66796875,-270.99609375,0.0
1740797231.58885,-366.2109375,16.6015625,29.78515625,-243.65234375,0.0
1740797231.5927596,-265.625,-81.0546875,-28.3203125,-283.69140625,0.0
1740797231.5966654,-251.46484375,-58.10546875,-35.15625,-254.8828125,0.0
1740797231.6005714,-387.6953125,66.89453125,111.328125,-439.453125,0.0
1740797231.6044774,-250.0,6.8359375,-24.90234375,-361.81640625,0.0
1740797231.6083834,-257.8125,-90.8203125,-56.640625,-321.2890625,0.0
1740797231.6122892,-372.55859375,-90.33203125,-42.96875,-262.20703125,0.0
1740797231.6161952,-91.796875,-44.921875,-83.49609375,-36.1328125,0.0
1740797231.6201012,-111.81640625,-16.6015625,-71.2890625,-253.90625,0.0
1740797231.624007,-95.21484375,-98.6328125,3.41796875,105.46875,0.0
1740797231.627913,76.66015625,-9.27734375,-2.44140625,239.2578125,0.0
1740797231.631819,-94.23828125,79.58984375,-61.5234375,-269.53125,0.0
1740797231.6357248,126.953125,-57.6171875,-73.73046875,-82.51953125,0.0
1740797231.6396341,119.140625,-80.56640625,-36.1328125,281.25,0.0
1740797231.6435401,39.55078125,-6.8359375,-38.0859375,287.59765625,0.0
1740797231.6474462,225.5859375,33.69140625,-62.5,22.94921875,0.0
1740797231.651352,-21.97265625,-72.75390625,11.23046875,-98.6328125,0.0
1740797231.655258,273.92578125,-138.18359375,-61.5234375,362.3046875,0.0
1740797231.659164,627.9296875,-81.54296875,-92.7734375,468.26171875,0.0
1740797231.6630697,395.5078125,-52.734375,-54.6875,197.265625,0.0
1740797231.6669757,201.66015625,-65.91796875,-59.08203125,97.16796875,0.0
1740797231.6708817,131.34765625,-58.10546875,-37.109375,16.6015625,0.0
1740797231.6747875,56.15234375,-41.50390625,-51.26953125,-61.03515625,0.0
1740797231.6786935,-320.80078125,48.828125,-16.11328125,-426.26953125,0.0
1740797231.6825995,-570.3125,81.0546875,42.48046875,-813.96484375,0.0
1740797231.6865084,-275.390625,-62.01171875,-92.7734375,-268.5546875,0.0
1740797231.6904144,96.19140625,-22.94921875,-117.67578125,332.51953125,0.0
1740797231.6943204,453.61328125,-93.75,25.87890625,431.640625,0.0
1740797231.6982262,485.3515625,-95.21484375,-62.98828125,262.20703125,0.0
1740797231.7021322,214.35546875,25.390625,-82.51953125,88.8671875,0.0
1740797231.7060382,-106.93359375,-10.25390625,-0.48828125,-108.88671875,0.0
1740797231.709944,-22.94921875,-92.28515625,-32.71484375,-109.86328125,0.0
1740797231.71385,125.9765625,-63.4765625,-52.734375,21.484375,0.0
1740797231.717756,262.20703125,-21.484375,-90.33203125,156.73828125,0.0
1740797231.7216618,287.109375,-70.3125,-43.9453125,262.6953125,0.0
1740797231.7255678,250.48828125,-54.19921875,5.37109375,102.5390625,0.0
1740797231.7294738,271.97265625,0.9765625,-20.99609375,88.37890625,0.0
1740797231.7333827,0.0,-31.25,-78.125,73.73046875,0.0
1740797231.7372887,0.0,-6.8359375,-57.12890625,6.8359375,0.0
1740797231.7411945,0.0,-3.41796875,-29.296875,-52.24609375,0.0
1740797231.7451005,0.0,-21.484375,-66.40625,32.2265625,0.0
1740797231.7490065,0.0,-64.453125,-49.31640625,127.9296875,0.0
1740797231.7529125,0.0,-50.29296875,-41.50390625,161.62109375,0.0
1740797231.7568183,0.0,-48.828125,-13.18359375,-25.87890625,0.0
1740797231.7607243,0.0,-41.015625,-40.52734375,-83.984375,0.0
1740797231.7646303,0.0,14.6484375,-70.80078125,121.58203125,0.0
1740797231.768536,0.0,-69.82421875,-30.2734375,62.98828125,0.0
1740797231.772442,0.0,-43.9453125,-16.6015625,-59.08203125,0.0
1740797231.776348,0.0,54.6875,-54.6875,-65.91796875,0.0
1740797231.7802525,173.33984375,6.34765625,-71.77734375,32.71484375,0.0
1740797231.7841582,92.28515625,-72.265625,-7.8125,30.76171875,0.0
1740797231.7880642,132.8125,-35.64453125,-12.6953125,-47.8515625,0.0
1740797231.7919703,191.40625,-1.953125,-66.40625,-36.62109375,0.0
1740797231.7958763,186.03515625,-49.31640625,-41.9921875,-21.484375,0.0
1740797231.799782,180.6640625,-43.45703125,-35.15625,33.203125,0.0
1740797231.803688,109.86328125,-50.78125,-27.83203125,21.484375,0.0
1740797231.807594,130.859375,-86.42578125,-20.5078125,-11.71875,0.0
1740797231.8114998,133.30078125,-22.94921875,-41.9921875,-8.7890625,0.0
1740797231.8154058,110.83984375,9.27734375,-27.83203125,-22.94921875,0.0
1740797231.8193119,136.71875,-20.01953125,-43.9453125,-21.97265625,0.0
1740797231.8232176,122.55859375,-24.90234375,-55.17578125,-5.859375,0.0
1740797231.8271263,65.91796875,-45.41015625,-26.85546875,6.8359375,0.0
1740797231.831032,82.51953125,-1.953125,-32.2265625,-30.2734375,0.0
1740797231.834938,45.41015625,-19.04296875,-25.87890625,-48.33984375,0.0
1740797231.838844,61.03515625,-79.1015625,-36.62109375,0.0,0.0
1740797231.8427498,39.55078125,-55.17578125,-25.390625,-10.7421875,0.0
1740797231.8466558,19.53125,-43.45703125,2.44140625,-94.23828125,0.0
1740797231.8505619,52.734375,-50.29296875,-34.66796875,-62.98828125,0.0
1740797231.8544676,69.82421875,-23.4375,-58.59375,-11.71875,0.0
1740797231.8583736,62.98828125,-45.8984375,-36.62109375,-35.15625,0.0
1740797231.8622797,24.4140625,-38.0859375,-14.16015625,-75.1953125,0.0
1740797231.8661854,14.16015625,-37.109375,-21.97265625,-69.82421875,0.0
1740797231.8700914,-15.625,-45.41015625,-23.4375,-54.6875,0.0
1740797231.8740013,10.7421875,-20.01953125,-14.6484375,-65.91796875,0.0
1740797231.8779073,13.671875,-29.78515625,-24.4140625,-54.19921875,0.0
1740797231.881813,-16.11328125,-31.25,-18.5546875,-69.3359375,0.0
1740797231.885719,29.78515625,-43.45703125,-20.01953125,-88.8671875,0.0
1740797231.889625,33.69140625,-23.4375,-35.64453125,-60.05859375,0.0
1740797231.8935308,15.13671875,-29.296875,-28.3203125,-65.4296875,0.0
1740797231.8974369,-19.04296875,-8.7890625,-34.1796875,-67.3828125,0.0
1740797231.9013429,-51.26953125,-32.71484375,-11.23046875,-78.61328125,0.0
1740797231.9052489,-59.08203125,-34.1796875,-28.80859375,-140.13671875,0.0
1740797231.9091547,-52.734375,2.9296875,-33.69140625,-125.9765625,0.0
1740797231.9130607,-56.15234375,-28.80859375,-26.3671875,-123.53515625,0.0
1740797231.9169667,-59.5703125,-52.24609375,-37.59765625,-136.23046875,0.0
1740797231.920876,-75.1953125,-43.9453125,-43.45703125,-143.06640625,0.0
1740797231.924782,-73.2421875,-44.43359375,-41.015625,-138.18359375,0.0
1740797231.928688,-54.19921875,-37.59765625,-38.0859375,-118.1640625,0.0
1740797231.932594,-75.1953125,-33.69140625,-37.59765625,-130.37109375,0.0
1740797231.9364998,-88.8671875,-35.64453125,-32.2265625,-156.73828125,0.0
1740797231.9404058,-74.21875,-30.2734375,-36.1328125,-132.32421875,0.0
1740797231.9443119,-70.3125,-35.64453125,-35.64453125,-125.9765625,0.0
1740797231.9482176,-81.0546875,-37.59765625,-34.1796875,-135.25390625,0.0
1740797231.9521236,-68.359375,-33.203125,-26.3671875,-161.1328125,0.0
1740797231.9560297,-69.3359375,-47.36328125,-31.25,-178.22265625,0.0
1740797231.9599354,-73.73046875,-26.85546875,-39.0625,-206.0546875,0.0
1740797231.9638414,-65.91796875,-12.6953125,-26.3671875,-244.140625,0.0
1740797231.9677508,-68.84765625,-28.3203125,-19.53125,-260.7421875,0.0
1740797231.9716568,-86.9140625,-21.484375,-25.87890625,-270.99609375,0.0
1740797231.9755628,-91.30859375,-30.2734375,-26.85546875,-286.1328125,0.0
1740797231.9794686,-103.02734375,-32.2265625,-25.87890625,-350.09765625,0.0
1740797231.9833746,-104.00390625,-27.34375,-27.83203125,-342.7734375,0.0
1740797231.9872806,-118.1640625,-44.43359375,-26.3671875,-325.1953125,0.0
1740797231.9911864,-137.6953125,-43.45703125,-23.4375,-345.703125,0.0
1740797231.9950924,-124.0234375,-39.55078125,-25.390625,-335.44921875,0.0
1740797231.9989984,-130.37109375,-51.26953125,-32.2265625,-330.56640625,0.0
1740797232.0029044,-153.3203125,-42.48046875,-34.1796875,-324.21875,0.0
1740797232.0068102,-149.4140625,-38.0859375,-31.73828125,-318.359375,0.0
1740797232.0107162,-132.32421875,-48.828125,-33.69140625,-302.734375,0.0
1740797232.0146253,-119.140625,-57.12890625,-33.203125,-278.80859375,0.0
1740797232.0185313,-121.09375,-47.8515625,-24.90234375,-262.20703125,0.0
1740797232.0224373,-134.765625,-42.96875,-18.06640625,-237.3046875,0.0
1740797232.026343,-124.0234375,-41.015625,-18.06640625,-209.47265625,0.0
1740797232.030249,-92.7734375,-44.921875,-16.11328125,-183.59375,0.0
1740797232.0341551,-89.35546875,-50.29296875,-20.5078125,-162.59765625,0.0
1740797232.0380611,-90.8203125,-37.109375,-26.85546875,-152.34375,0.0
1740797232.041967,-81.54296875,-33.69140625,-21.484375,-150.87890625,0.0
1740797232.045873,-80.56640625,-49.8046875,-21.484375,-139.16015625,0.0
1740797232.049779,-77.63671875,-33.203125,-27.83203125,-111.328125,0.0
1740797232.0536847,-74.70703125,-14.6484375,-21.97265625,-85.9375,0.0
1740797232.0575907,-54.19921875,-26.85546875,-21.97265625,-81.54296875,0.0
1740797232.0614998,-36.62109375,-33.203125,-23.4375,-76.66015625,0.0
1740797232.0654056,-82.51953125,-31.25,-18.06640625,-76.66015625,0.0
1740797232.0693116,-92.7734375,-34.1796875,-22.94921875,-65.4296875,0.0
1740797232.0732176,-68.359375,-34.1796875,-27.83203125,-49.8046875,0.0
1740797232.0771234,-73.73046875,-27.34375,-27.34375,-52.24609375,0.0
1740797232.0810294,-70.80078125,-39.0625,-25.390625,-56.640625,0.0
1740797232.0849354,-52.734375,-38.57421875,-34.1796875,-35.15625,0.0
1740797232.0888412,-57.12890625,-39.0625,-30.2734375,-32.2265625,0.0
1740797232.0927472,-73.73046875,-42.48046875,-23.4375,-49.31640625,0.0
1740797232.0966532,-77.63671875,-40.0390625,-27.34375,-45.41015625,0.0
1740797232.1005592,-69.82421875,-42.96875,-28.80859375,-20.5078125,0.0
1740797232.104465,-53.7109375,-41.9921875,-36.62109375,-3.41796875,0.0
1740797232.1083739,-52.734375,-40.0390625,-35.64453125,-22.94921875,0.0
1740797232.11228,-60.546875,-34.66796875,-32.71484375,-35.64453125,0.0
1740797232.1161857,-50.29296875,-38.57421875,-36.1328125,-26.85546875,0.0
1740797232.1200917,-34.66796875,-37.59765625,-33.69140625,-22.4609375,0.0
1740797232.1239977,-41.015625,-28.3203125,-32.2265625,-36.1328125,0.0
1740797232.1279037,-46.38671875,-40.52734375,-28.3203125,-39.55078125,0.0
1740797232.1318095,-47.8515625,-46.38671875,-27.83203125,-27.34375,0.0
1740797232.1357155,-47.36328125,-45.8984375,-24.90234375,-17.578125,0.0
1740797232.1396215,-52.24609375,-34.66796875,-26.3671875,-18.06640625,0.0
1740797232.1435273,-79.1015625,-35.15625,-41.50390625,-34.66796875,0.0
1740797232.1474333,-65.4296875,-38.57421875,-37.109375,-29.296875,0.0
1740797232.1513393,-42.96875,-30.76171875,-31.25,-5.37109375,0.0
1740797232.155248,-47.36328125,-36.1328125,-36.1328125,-9.765625,0.0
1740797232.1591537,-45.8984375,-30.76171875,-40.52734375,-26.3671875,0.0
1740797232.1630597,-50.78125,-27.83203125,-40.52734375,-14.6484375,0.0
1740797232.1669657,-42.48046875,-44.43359375,-40.52734375,-7.8125,0.0
1740797232.1708717,-38.57421875,-40.52734375,-36.62109375,-11.71875,0.0
1740797232.1747775,-33.69140625,-38.0859375,-35.64453125,-10.25390625,0.0
1740797232.1786835,-35.64453125,-42.96875,-34.66796875,-3.90625,0.0
1740797232.1825895,-65.4296875,-37.109375,-30.76171875,-3.41796875,0.0
1740797232.1864953,-70.3125,-27.83203125,-28.80859375,-17.08984375,0.0
1740797232.1904013,-51.26953125,-29.296875,-29.296875,-22.4609375,0.0
1740797232.1943073,-42.96875,-36.62109375,-31.73828125,-1.46484375,0.0
1740797232.198213,-36.62109375,-34.1796875,-30.2734375,15.625,0.0
1740797232.2021215,-55.6640625,-25.87890625,-31.25,-2.44140625,0.0
1740797232.2060275,-47.36328125,-27.83203125,-34.66796875,-4.39453125,0.0
1740797232.2099335,-38.57421875,-34.66796875,-36.1328125,-2.44140625,0.0
1740797232.2138393,-48.33984375,-25.390625,-36.62109375,3.90625,0.0
1740797232.2177453,-43.45703125,-20.99609375,-31.25,7.32421875,0.0
1740797232.2216513,-29.78515625,-33.69140625,-31.25,-0.9765625,0.0
1740797232.225557,-41.50390625,-44.43359375,-34.1796875,0.9765625,0.0
1740797232.229463,-61.03515625,-38.0859375,-36.62109375,1.953125,0.0
1740797232.233369,-60.05859375,-29.296875,-39.55078125,-20.01953125,0.0
1740797232.2372751,-41.50390625,-38.57421875,-40.0390625,3.90625,0.0
1740797232.241181,-32.2265625,-36.1328125,-39.55078125,28.80859375,0.0
1740797232.245087,-50.29296875,-26.85546875,-42.48046875,13.18359375,0.0
1740797232.248995,-39.0625,-30.2734375,-39.0625,6.34765625,0.0
1740797232.252901,-37.109375,-31.73828125,-38.0859375,-2.44140625,0.0
1740797232.256807,-39.55078125,-33.203125,-36.1328125,-17.578125,0.0
1740797232.2607129,-32.71484375,-31.25,-30.76171875,-13.671875,0.0
1740797232.2646189,-61.03515625,-34.66796875,-28.3203125,4.39453125,0.0
1740797232.268525,-62.01171875,-44.921875,-25.390625,8.7890625,0.0
1740797232.2724307,-47.8515625,-42.96875,-22.4609375,0.0,0.0
1740797232.2763367,-64.94140625,-35.64453125,-19.53125,-12.20703125,0.0
1740797232.2802427,-55.6640625,-34.1796875,-25.87890625,-15.625,0.0
1740797232.2841485,-54.6875,-43.9453125,-30.2734375,-1.46484375,0.0
1740797232.2880545,-77.1484375,-38.57421875,-28.80859375,-14.16015625,0.0
1740797232.2919605,-62.5,-34.66796875,-25.390625,-28.3203125,0.0
1740797232.29587,-57.12890625,-44.43359375,-22.4609375,-19.53125,0.0
1740797232.2997758,-70.80078125,-47.36328125,-22.4609375,-19.04296875,0.0
1740797232.3036819,-60.546875,-36.1328125,-25.390625,-1.46484375,0.0
1740797232.3075879,-58.10546875,-29.296875,-27.83203125,4.39453125,0.0
1740797232.3114936,-46.875,-42.48046875,-26.85546875,-8.7890625,0.0
1740797232.3153996,-38.0859375,-47.8515625,-28.80859375,-9.27734375,0.0
1740797232.3193057,-54.6875,-33.69140625,-30.2734375,-11.23046875,0.0
1740797232.3232117,-59.5703125,-26.85546875,-36.1328125,-13.671875,0.0
1740797232.3271174,-76.66015625,-37.59765625,-36.62109375,0.0,0.0
1740797232.3310235,-88.8671875,-44.43359375,-31.25,-17.08984375,0.0
1740797232.3349295,-86.9140625,-43.45703125,-34.1796875,-38.57421875,0.0
1740797232.3388352,-81.0546875,-44.921875,-35.15625,-24.4140625,0.0
1740797232.3427448,0.0,-53.22265625,-39.55078125,-21.484375,0.0
1740797232.3466508,0.0,-51.7578125,-38.0859375,-24.90234375,0.0
1740797232.3505566,0.0,-39.55078125,-31.73828125,-11.71875,0.0
1740797232.3544626,0.0,-45.41015625,-32.71484375,-11.71875,0.0
1740797232.3583686,0.0,-52.24609375,-36.1328125,-28.80859375,0.0
1740797232.3622744,0.0,-52.24609375,-36.1328125,-36.1328125,0.0
1740797232.3661804,0.0,-58.59375,-39.55078125,-8.7890625,0.0
1740797232.3700864,0.0,-50.29296875,-43.45703125,-15.13671875,0.0
1740797232.3739924,0.0,-52.24609375,-38.57421875,-34.66796875,0.0
1740797232.3778982,0.0,-46.38671875,-46.38671875,-23.4375,0.0
1740797232.3818042,0.0,-27.34375,-48.828125,-18.06640625,0.0
1740797232.3857102,0.0,-29.78515625,-30.76171875,-12.20703125,0.0
1740797232.389615,-73.73046875,-33.203125,-33.69140625,-22.94921875,0.0
1740797232.393521,-65.4296875,-30.76171875,-39.0625,-19.04296875,0.0
1740797232.397427,-74.70703125,-38.57421875,-36.62109375,-10.25390625,0.0
1740797232.4013329,-108.3984375,-43.45703125,-34.66796875,-30.76171875,0.0
1740797232.4052389,-97.65625,-43.9453125,-31.25,-23.4375,0.0
1740797232.4091449,-91.30859375,-42.96875,-24.4140625,-12.20703125,0.0
1740797232.4130507,-104.4921875,-37.109375,-20.5078125,-22.4609375,0.0
1740797232.4169567,-85.44921875,-37.59765625,-18.06640625,-12.6953125,0.0
1740797232.4208627,-74.21875,-41.9921875,-14.16015625,-1.953125,0.0
1740797232.4247684,-75.1953125,-34.66796875,-23.4375,-25.390625,0.0
1740797232.4286745,-71.77734375,-32.71484375,-32.71484375,-39.55078125,0.0
1740797232.4325805,-77.63671875,-39.55078125,-31.73828125,-31.73828125,0.0
1740797232.436491,-87.890625,-36.62109375,-27.34375,-32.71484375,0.0
1740797232.440397,-89.84375,-30.2734375,-30.76171875,-41.50390625,0.0
1740797232.4443028,-97.65625,-38.0859375,-35.15625,-53.22265625,0.0
1740797232.4482088,-102.05078125,-34.66796875,-33.69140625,-47.36328125,0.0
1740797232.4521148,-81.54296875,-31.25,-26.3671875,-42.96875,0.0
1740797232.4560206,-66.89453125,-42.96875,-24.90234375,-34.66796875,0.0
1740797232.4599266,-64.453125,-38.57421875,-31.25,-37.59765625,0.0
1740797232.4638326,-74.70703125,-27.34375,-37.109375,-45.8984375,0.0
1740797232.4677384,-74.21875,-37.109375,-34.66796875,-26.3671875,0.0
1740797232.4716444,-63.4765625,-36.62109375,-28.80859375,-20.01953125,0.0
1740797232.4755504,-60.05859375,-41.9921875,-32.2265625,-16.6015625,0.0
1740797232.4794564,-64.94140625,-46.875,-34.66796875,-14.16015625,0.0
1740797232.483365,-65.91796875,-41.9921875,-40.52734375,-28.3203125,0.0
1740797232.487271,-57.12890625,-37.59765625,-42.48046875,-27.83203125,0.0
1740797232.491177,-52.734375,-36.62109375,-36.1328125,-25.390625,0.0
1740797232.4950829,-56.640625,-38.57421875,-34.66796875,-36.62109375,0.0
1740797232.4989889,-64.94140625,-35.15625,-42.48046875,-28.3203125,0.0
1740797232.5028949,-62.01171875,-36.62109375,-40.0390625,-25.390625,0.0
1740797232.5068007,-53.22265625,-41.015625,-31.25,-31.25,0.0
1740797232.5107067,-49.8046875,-42.96875,-34.1796875,-21.97265625,0.0
1740797232.5146127,-62.01171875,-44.921875,-35.64453125,-8.7890625,0.0
1740797232.5185184,-72.265625,-39.0625,-31.73828125,-10.7421875,0.0
1740797232.5224245,-67.87109375,-37.59765625,-30.76171875,-20.99609375,0.0
1740797232.5263305,-58.10546875,-49.8046875,-29.78515625,-25.87890625,0.0
1740797232.530239,-70.3125,-46.875,-33.203125,-26.3671875,0.0
1740797232.5341449,-80.56640625,-46.875,-38.57421875,-26.85546875,0.0
1740797232.538051,-73.73046875,-57.6171875,-36.62109375,-29.296875,0.0
1740797232.541957,-60.05859375,-56.15234375,-34.66796875,-27.83203125,0.0
1740797232.545863,-67.3828125,-51.26953125,-32.2265625,-33.69140625,0.0
1740797232.5497687,-83.984375,-55.6640625,-30.2734375,-25.390625,0.0
1740797232.5536747,-77.63671875,-57.12890625,-30.76171875,-19.53125,0.0
1740797232.5575807,-70.80078125,-57.12890625,-32.2265625,-26.85546875,0.0
1740797232.5614865,-56.640625,-54.6875,-34.1796875,-25.87890625,0.0
1740797232.5653925,-64.94140625,-51.7578125,-35.64453125,-14.16015625,0.0
1740797232.5692985,-70.80078125,-56.640625,-29.296875,-20.5078125,0.0
1740797232.5732043,-63.4765625,-61.03515625,-26.85546875,-23.92578125,0.0
1740797232.5771127,-65.4296875,-60.05859375,-31.25,-9.765625,0.0
1740797232.5810187,-80.56640625,-63.4765625,-34.66796875,-28.80859375,0.0
1740797232.5849247,-95.703125,-74.21875,-36.62109375,-43.9453125,0.0
1740797232.5888305,-82.51953125,-73.2421875,-34.66796875,-40.0390625,0.0
1740797232.5927365,-69.3359375,-64.94140625,-37.109375,-47.36328125,0.0
1740797232.5966425,-71.2890625,-65.4296875,-32.2265625,-38.57421875,0.0
1740797232.6005485,-71.77734375,-75.68359375,-27.34375,-33.203125,0.0
1740797232.6044543,-58.59375,-65.4296875,-39.55078125,-37.59765625,0.0
1740797232.6083603,-66.89453125,-58.59375,-42.48046875,-32.71484375,0.0
1740797232.6122663,-69.3359375,-64.453125,-35.15625,-41.015625,0.0
1740797232.616172,-55.6640625,-62.98828125,-38.0859375,-34.66796875,0.0
1740797232.620078,-59.08203125,-59.08203125,-36.1328125,-24.4140625,0.0
1740797232.623988,-50.29296875,-62.98828125,-30.2734375,-31.25,0.0
1740797232.627894,-47.36328125,-66.40625,-30.2734375,-30.2734375,0.0
1740797232.6317997,-56.15234375,-60.546875,-35.64453125,-20.5078125,0.0
1740797232.6357057,-57.12890625,-51.26953125,-37.59765625,-29.78515625,0.0
1740797232.6396117,-41.50390625,-51.26953125,-43.45703125,-39.55078125,0.0
1740797232.6435175,-21.484375,-57.6171875,-41.50390625,-26.3671875,0.0
1740797232.6474235,-45.41015625,-63.96484375,-28.80859375,-11.71875,0.0
1740797232.6513295,-59.5703125,-52.24609375,-28.3203125,-20.5078125,0.0
1740797232.6552353,-61.03515625,-52.24609375,-33.203125,-32.71484375,0.0
1740797232.6591413,-68.84765625,-61.5234375,-36.1328125,-34.66796875,0.0
1740797232.6630473,-62.98828125,-68.359375,-33.69140625,-41.9921875,0.0
1740797232.6669533,-57.12890625,-64.453125,-37.59765625,-30.76171875,0.0
1740797232.6708627,-45.8984375,-57.6171875,-31.73828125,-17.08984375,0.0
1740797232.6747687,-27.34375,-62.98828125,-23.4375,-20.5078125,0.0
1740797232.6786747,-29.78515625,-62.01171875,-31.25,-25.87890625,0.0
1740797232.6825807,-43.9453125,-62.98828125,-35.64453125,-31.25,0.0
1740797232.6864865,-47.36328125,-63.96484375,-35.64453125,-25.87890625,0.0
1740797232.6903925,-42.96875,-64.94140625,-33.203125,-31.73828125,0.0
1740797232.6942985,-38.57421875,-62.01171875,-33.203125,-28.3203125,0.0
1740797232.6982043,-37.109375,-50.29296875,-30.76171875,-18.06640625,0.0
1740797232.7021103,-47.36328125,-49.8046875,-27.34375,-24.90234375,0.0
1740797232.7060163,-59.5703125,-64.453125,-25.390625,-36.62109375,0.0
1740797232.709922,-55.6640625,-57.6171875,-27.34375,-46.38671875,0.0
1740797232.713828,-56.640625,-49.31640625,-31.25,-28.80859375,0.0
1740797232.7177374,-59.5703125,-51.7578125,-32.71484375,-18.06640625,0.0
1740797232.7216434,-57.12890625,-46.38671875,-35.15625,-24.90234375,0.0
1740797232.7255495,-61.03515625,-47.8515625,-39.55078125,-29.296875,0.0
1740797232.7294552,-60.546875,-47.8515625,-36.62109375,-34.66796875,0.0
1740797232.7333612,-52.24609375,-50.78125,-32.71484375,-32.2265625,0.0
1740797232.7372673,-49.8046875,-51.7578125,-35.64453125,-20.01953125,0.0
1740797232.7411733,-53.22265625,-46.38671875,-36.62109375,-28.80859375,0.0
1740797232.745079,-48.828125,-46.875,-37.109375,-36.62109375,0.0
1740797232.748985,-41.015625,-52.734375,-31.73828125,-37.109375,0.0
1740797232.752891,-60.546875,-48.828125,-29.296875,-48.33984375,0.0
1740797232.7567968,-47.8515625,-44.43359375,-30.2734375,-35.15625,0.0
1740797232.7607028,-30.2734375,-53.7109375,-33.203125,-36.62109375,0.0
1740797232.7646122,-56.15234375,-54.6875,-36.62109375,-33.69140625,0.0
1740797232.7685182,-58.59375,-51.26953125,-33.203125,-16.6015625,0.0
1740797232.772424,-47.8515625,-47.8515625,-24.4140625,-20.5078125,0.0
1740797232.77633,-42.48046875,-43.9453125,-23.92578125,-20.5078125,0.0
1740797232.780236,-54.6875,-42.48046875,-30.2734375,-32.2265625,0.0
1740797232.7841418,-54.6875,-44.921875,-29.296875,-25.87890625,0.0
1740797232.7880478,-42.96875,-48.33984375,-30.76171875,-21.97265625,0.0
1740797232.7919538,-39.55078125,-56.15234375,-38.57421875,-35.64453125,0.0
1740797232.7958596,-43.45703125,-62.5,-33.69140625,-28.3203125,0.0
1740797232.7997656,-44.43359375,-45.41015625,-30.76171875,-29.78515625,0.0
1740797232.8036716,-46.38671875,-40.52734375,-37.109375,-30.76171875,0.0
1740797232.8075776,-45.41015625,-48.828125,-39.0625,-17.08984375,0.0
1740797232.8114865,-31.25,-44.921875,-39.0625,-22.4609375,0.0
1740797232.8153925,-46.38671875,-41.50390625,-48.33984375,-28.80859375,0.0
1740797232.8192983,-42.48046875,-41.50390625,-46.875,-25.390625,0.0
1740797232.8232043,-27.83203125,-49.8046875,-35.15625,-25.390625,0.0
1740797232.8271103,-31.25,-47.36328125,-33.203125,-20.01953125,0.0
1740797232.831016,-30.76171875,-41.015625,-35.15625,-21.484375,0.0
1740797232.834922,-30.76171875,-45.8984375,-37.59765625,-21.484375,0.0
1740797232.838828,-29.296875,-50.29296875,-39.55078125,-22.94921875,0.0
1740797232.8427339,-25.87890625,-42.96875,-39.0625,-26.85546875,0.0
1740797232.8466399,-35.64453125,-36.1328125,-33.69140625,-25.87890625,0.0
1740797232.850546,-45.41015625,-51.26953125,-28.80859375,-22.4609375,0.0
1740797232.854452,-46.875,-61.03515625,-34.1796875,-26.3671875,0.0
1740797232.8583605,-42.48046875,-49.8046875,-34.66796875,-33.69140625,0.0
1740797232.8622665,-41.9921875,-52.24609375,-31.73828125,-36.62109375,0.0
1740797232.8661726,-44.43359375,-51.7578125,-33.69140625,-33.69140625,0.0
1740797232.8700783,-54.19921875,-47.8515625,-32.2265625,-23.92578125,0.0
1740797232.8739843,-53.7109375,-55.17578125,-36.62109375,-20.5078125,0.0
1740797232.8778903,-44.921875,-54.19921875,-38.0859375,-34.66796875,0.0
