timestamps,TP9,AF7,AF8,TP10,Right AUX
1740797622.4339678,-59.5703125,-64.453125,-43.9453125,-60.546875,0.0
1740797622.4378738,-58.59375,-62.01171875,-42.48046875,-52.734375,0.0
1740797622.4417799,-66.40625,-54.19921875,-31.73828125,-48.828125,0.0
1740797622.4456859,-59.08203125,-50.78125,-36.62109375,-48.33984375,0.0
1740797622.4495919,-60.05859375,-58.10546875,-41.9921875,-51.7578125,0.0
1740797622.453498,-53.22265625,-55.17578125,-36.1328125,-53.7109375,0.0
1740797622.457404,-53.22265625,-50.29296875,-44.43359375,-50.78125,0.0
1740797622.46131,-56.640625,-54.6875,-47.36328125,-39.0625,0.0
1740797622.465216,-53.7109375,-45.8984375,-37.109375,-41.015625,0.0
1740797622.469122,-48.33984375,-35.64453125,-38.0859375,-48.828125,0.0
1740797622.4730277,-44.43359375,-38.0859375,-45.41015625,-37.59765625,0.0
1740797622.4769337,-47.8515625,-32.71484375,-45.41015625,-36.62109375,0.0
1740797622.4808426,-39.0625,-26.85546875,-42.96875,-35.15625,0.0
1740797622.4847486,-30.2734375,-23.92578125,-42.96875,-27.34375,0.0
1740797622.4886546,-25.390625,-32.71484375,-40.52734375,-23.92578125,0.0
1740797622.4925606,-21.97265625,-34.66796875,-39.55078125,-20.5078125,0.0
1740797622.4964666,-34.1796875,-27.83203125,-39.55078125,-28.3203125,0.0
1740797622.5003726,-35.64453125,-27.83203125,-40.0390625,-29.78515625,0.0
1740797622.5042787,-24.4140625,-25.87890625,-36.1328125,-24.90234375,0.0
1740797622.5081847,-38.0859375,-25.390625,-38.57421875,-21.97265625,0.0
1740797622.5120907,-45.41015625,-11.71875,-47.36328125,-36.62109375,0.0
1740797622.5159967,-29.78515625,-12.6953125,-45.41015625,-40.52734375,0.0
1740797622.5199027,-29.296875,-20.5078125,-45.41015625,-40.52734375,0.0
1740797622.5238085,-37.109375,-26.3671875,-39.55078125,-41.015625,0.0
1740797622.5277174,-42.96875,-26.85546875,-41.015625,-32.2265625,0.0
1740797622.5316231,-42.48046875,-27.83203125,-42.48046875,-38.57421875,0.0
1740797622.5355291,-33.203125,-26.3671875,-35.64453125,-41.50390625,0.0
1740797622.5394351,-39.0625,-28.3203125,-37.59765625,-46.875,0.0
1740797622.5433412,-48.828125,-33.203125,-41.015625,-43.45703125,0.0
1740797622.5472472,-52.24609375,-34.1796875,-41.50390625,-36.1328125,0.0
1740797622.5511532,-40.0390625,-38.57421875,-35.15625,-34.66796875,0.0
1740797622.5550592,-31.73828125,-37.59765625,-36.1328125,-29.296875,0.0
1740797622.5589652,-44.921875,-38.0859375,-39.55078125,-20.99609375,0.0
1740797622.5628712,-47.36328125,-44.43359375,-37.59765625,-20.99609375,0.0
1740797622.5667772,-40.52734375,-49.8046875,-43.45703125,-36.62109375,0.0
1740797622.5706832,-44.43359375,-44.921875,-46.38671875,-37.109375,0.0
1740797622.5745916,-53.22265625,-43.9453125,-42.48046875,-28.3203125,0.0
1740797622.5784976,-59.08203125,-47.36328125,-39.0625,-36.62109375,0.0
1740797622.5824037,-55.6640625,-54.6875,-38.57421875,-27.83203125,0.0
1740797622.5863097,-47.36328125,-51.7578125,-40.52734375,-21.97265625,0.0
1740797622.5902157,-55.6640625,-37.59765625,-44.43359375,-40.0390625,0.0
1740797622.5941217,-60.546875,-39.55078125,-40.52734375,-45.8984375,0.0
1740797622.5980277,-52.24609375,-44.43359375,-42.96875,-46.38671875,0.0
1740797622.6019337,-47.36328125,-34.1796875,-49.8046875,-46.875,0.0
1740797622.6058397,-46.875,-33.203125,-42.96875,-46.875,0.0
1740797622.6097457,-50.78125,-35.64453125,-39.0625,-44.921875,0.0
1740797622.6136518,-52.734375,-32.2265625,-38.57421875,-41.9921875,0.0
1740797622.6175578,-40.52734375,-29.78515625,-38.57421875,-43.9453125,0.0
1740797622.621467,-37.59765625,-27.83203125,-34.66796875,-33.69140625,0.0
1740797622.6253731,-50.29296875,-26.3671875,-37.59765625,-37.109375,0.0
1740797622.6292791,-46.38671875,-27.83203125,-44.43359375,-38.0859375,0.0
1740797622.6331851,-35.15625,-27.34375,-47.8515625,-35.15625,0.0
1740797622.6370912,-28.80859375,-28.80859375,-47.8515625,-41.015625,0.0
1740797622.6409972,-28.3203125,-21.97265625,-48.33984375,-30.2734375,0.0
1740797622.6449032,-31.73828125,-20.99609375,-52.24609375,-22.4609375,0.0
1740797622.6488092,-23.92578125,-28.3203125,-50.29296875,-25.390625,0.0
1740797622.6527152,-17.08984375,-25.390625,-44.43359375,-26.3671875,0.0
1740797622.6566212,-24.4140625,-22.94921875,-41.50390625,-23.4375,0.0
1740797622.6605272,-35.15625,-21.484375,-38.0859375,-19.53125,0.0
1740797622.6644332,-19.53125,-17.08984375,-31.73828125,-12.6953125,0.0
1740797622.6683426,-8.7890625,-20.99609375,-34.1796875,-9.27734375,0.0
1740797622.6722486,-17.578125,-25.390625,-38.57421875,-13.671875,0.0
1740797622.6761546,-24.4140625,-16.6015625,-35.64453125,-16.11328125,0.0
1740797622.6800606,-24.4140625,-18.06640625,-38.57421875,-17.08984375,0.0
1740797622.6839666,-17.578125,-25.87890625,-40.52734375,-16.11328125,0.0
1740797622.6878726,-19.53125,-28.80859375,-34.1796875,-18.5546875,0.0
1740797622.6917787,-26.85546875,-27.83203125,-29.296875,-17.578125,0.0
1740797622.6956847,-25.390625,-19.53125,-24.90234375,-13.671875,0.0
1740797622.6995907,-19.53125,-26.85546875,-23.92578125,-7.32421875,0.0
1740797622.7034967,-25.390625,-37.59765625,-22.94921875,-3.90625,0.0
1740797622.7074027,-40.52734375,-29.296875,-37.109375,-23.4375,0.0
1740797622.7113085,-45.41015625,-35.15625,-37.59765625,-29.78515625,0.0
1740797622.7152178,-44.921875,-45.41015625,-29.296875,-34.1796875,0.0
1740797622.7191238,-42.96875,-52.734375,-36.62109375,-49.8046875,0.0
1740797622.7230299,-38.0859375,-52.734375,-32.71484375,-42.96875,0.0
1740797622.7269359,-37.109375,-49.31640625,-35.15625,-36.1328125,0.0
1740797622.7308419,-41.015625,-53.7109375,-34.66796875,-40.0390625,0.0
1740797622.734748,-46.38671875,-59.5703125,-20.5078125,-39.0625,0.0
1740797622.738654,-40.52734375,-67.3828125,-14.16015625,-33.69140625,0.0
1740797622.74256,-38.0859375,-77.1484375,-26.3671875,-28.80859375,0.0
1740797622.746466,-33.203125,-85.9375,-22.94921875,-0.9765625,0.0
1740797622.750372,-19.04296875,-86.42578125,-15.625,12.20703125,0.0
1740797622.7542777,-9.765625,-81.54296875,-17.578125,6.34765625,0.0
1740797622.7581837,-11.71875,-92.28515625,-15.13671875,27.83203125,0.0
1740797622.7620928,-12.20703125,-101.5625,-18.5546875,29.296875,0.0
1740797622.7659988,10.7421875,-93.26171875,-19.53125,27.83203125,0.0
1740797622.7699049,28.3203125,-85.9375,-18.5546875,45.8984375,0.0
1740797622.7738109,24.90234375,-80.078125,-22.94921875,41.015625,0.0
1740797622.7777169,16.6015625,-77.1484375,-25.87890625,38.57421875,0.0
1740797622.781623,17.08984375,-74.21875,-23.92578125,45.41015625,0.0
1740797622.785529,19.53125,-62.98828125,-26.85546875,40.0390625,0.0
1740797622.789435,13.18359375,-67.3828125,-29.78515625,36.62109375,0.0
1740797622.793341,9.765625,-78.61328125,-27.83203125,41.9921875,0.0
1740797622.797247,7.32421875,-65.91796875,-29.296875,29.78515625,0.0
1740797622.801153,15.13671875,-59.5703125,-25.87890625,18.06640625,0.0
1740797622.805059,18.06640625,-58.10546875,-26.3671875,20.99609375,0.0
1740797622.8089678,-1.46484375,-48.828125,-32.2265625,18.5546875,0.0
1740797622.8128738,-11.23046875,-49.31640625,-30.76171875,8.7890625,0.0
1740797622.8167799,0.48828125,-60.05859375,-31.25,11.23046875,0.0
1740797622.8206859,0.0,-61.5234375,-25.87890625,8.7890625,0.0
1740797622.8245919,-13.18359375,-54.19921875,-24.4140625,1.46484375,0.0
1740797622.828498,-15.625,-54.19921875,-31.73828125,-3.41796875,0.0
1740797622.832404,-8.7890625,-48.33984375,-35.15625,-15.13671875,0.0
1740797622.83631,-6.34765625,-52.24609375,-33.69140625,-18.06640625,0.0
1740797622.840216,-26.3671875,-58.59375,-36.1328125,-19.04296875,0.0
1740797622.844122,-43.45703125,-51.26953125,-37.109375,-20.99609375,0.0
1740797622.848028,-31.73828125,-58.59375,-33.203125,-21.484375,0.0
1740797622.851934,-18.5546875,-64.453125,-32.2265625,-13.18359375,0.0
1740797622.8558426,-22.4609375,-58.10546875,-35.64453125,-17.08984375,0.0
1740797622.8597486,-30.76171875,-63.96484375,-33.203125,-22.94921875,0.0
1740797622.8636546,-31.73828125,-70.80078125,-30.76171875,-18.06640625,0.0
1740797622.8675606,-24.4140625,-63.4765625,-37.109375,-19.04296875,0.0
1740797622.8714666,-22.94921875,-60.546875,-37.59765625,-22.4609375,0.0
1740797622.8753726,-26.85546875,-62.98828125,-38.0859375,-32.2265625,0.0
1740797622.8792787,-25.390625,-74.70703125,-38.57421875,-29.296875,0.0
1740797622.8831847,-23.4375,-76.171875,-38.0859375,-20.5078125,0.0
1740797622.8870907,-17.578125,-60.546875,-30.76171875,-15.13671875,0.0
1740797622.8909967,-18.5546875,-60.05859375,-26.85546875,-12.20703125,0.0
1740797622.8949027,-29.296875,-62.98828125,-37.59765625,-16.11328125,0.0
1740797622.8988087,-29.78515625,-62.5,-38.0859375,-10.7421875,0.0
1740797622.902717,-22.94921875,-59.08203125,-34.1796875,-4.39453125,0.0
1740797622.9066231,-32.71484375,-57.12890625,-36.1328125,-15.13671875,0.0
1740797622.9105291,-41.015625,-59.08203125,-39.0625,-15.625,0.0
1740797622.9144351,-38.57421875,-61.5234375,-42.96875,-22.94921875,0.0
1740797622.9183412,-25.390625,-56.640625,-41.9921875,-25.87890625,0.0
1740797622.9222472,-20.99609375,-49.31640625,-40.0390625,-19.04296875,0.0
1740797622.9261532,-24.4140625,-49.31640625,-41.9921875,-9.765625,0.0
1740797622.9300592,-13.671875,-50.78125,-36.62109375,-10.25390625,0.0
1740797622.9339652,3.90625,-51.26953125,-33.203125,-19.53125,0.0
1740797622.9378712,-9.765625,-50.78125,-35.15625,-13.18359375,0.0
1740797622.9417772,-28.80859375,-50.29296875,-28.3203125,-9.765625,0.0
1740797622.9456832,-29.78515625,-55.6640625,-34.1796875,-20.99609375,0.0
1740797622.9495916,0.0,-54.19921875,-34.66796875,-27.34375,0.0
1740797622.9534976,0.0,-51.26953125,-28.3203125,-18.06640625,0.0
1740797622.9574037,0.0,-47.8515625,-36.1328125,-22.94921875,0.0
1740797622.9613097,0.0,-38.0859375,-33.203125,-25.87890625,0.0
1740797622.9652157,0.0,-31.73828125,-32.2265625,-19.53125,0.0
1740797622.9691217,0.0,-42.96875,-41.015625,-15.625,0.0
1740797622.9730277,0.0,-53.7109375,-37.109375,-16.6015625,0.0
1740797622.9769337,0.0,-32.71484375,-34.66796875,-29.296875,0.0
1740797622.9808397,0.0,-29.78515625,-38.57421875,-31.25,0.0
1740797622.9847457,0.0,-39.0625,-41.9921875,-29.296875,0.0
1740797622.9886518,0.0,-32.71484375,-45.41015625,-39.55078125,0.0
1740797622.9925578,0.0,-30.2734375,-40.0390625,-43.9453125,0.0
1740797622.996467,-32.2265625,-35.15625,-38.57421875,-26.3671875,0.0
1740797623.0003731,-29.296875,-31.73828125,-39.55078125,-20.99609375,0.0
1740797623.0042791,-20.01953125,-26.3671875,-37.59765625,-25.390625,0.0
1740797623.0081851,-29.296875,-26.3671875,-37.59765625,-23.92578125,0.0
1740797623.0120912,-41.50390625,-31.25,-32.71484375,-24.90234375,0.0
1740797623.0159972,-35.64453125,-48.33984375,-33.203125,-30.2734375,0.0
1740797623.0199032,-20.01953125,-48.33984375,-32.71484375,-27.34375,0.0
1740797623.0238092,-27.83203125,-38.57421875,-26.85546875,-23.4375,0.0
1740797623.0277152,-36.1328125,-43.9453125,-28.3203125,-30.76171875,0.0
1740797623.0316212,-31.73828125,-43.45703125,-28.3203125,-31.25,0.0
1740797623.0355272,-35.15625,-37.109375,-25.87890625,-33.69140625,0.0
1740797623.0394332,-26.3671875,-45.41015625,-28.80859375,-35.15625,0.0
1740797623.0433426,-25.390625,-53.22265625,-31.73828125,-27.34375,0.0
1740797623.0472486,-31.25,-52.24609375,-32.2265625,-28.3203125,0.0
1740797623.0511546,-41.9921875,-44.921875,-28.3203125,-38.0859375,0.0
1740797623.0550606,-43.45703125,-41.9921875,-32.71484375,-45.41015625,0.0
1740797623.0589666,-48.33984375,-54.6875,-39.55078125,-30.76171875,0.0
1740797623.0628726,-56.640625,-64.94140625,-35.64453125,-32.2265625,0.0
1740797623.0667787,-49.31640625,-61.03515625,-35.64453125,-46.875,0.0
1740797623.0706847,-51.26953125,-58.59375,-35.64453125,-47.36328125,0.0
1740797623.0745907,-58.59375,-62.98828125,-35.15625,-44.921875,0.0
1740797623.0784967,-52.24609375,-59.5703125,-32.2265625,-39.0625,0.0
1740797623.0824027,-39.55078125,-52.734375,-26.85546875,-40.0390625,0.0
1740797623.0863087,-35.64453125,-49.8046875,-25.87890625,-39.55078125,0.0
1740797623.0902178,-41.9921875,-49.8046875,-26.3671875,-37.59765625,0.0
1740797623.0941238,-42.96875,-53.22265625,-29.296875,-33.203125,0.0
1740797623.0980299,-38.57421875,-46.38671875,-28.3203125,-25.87890625,0.0
1740797623.1019359,-35.15625,-43.45703125,-27.34375,-18.06640625,0.0
1740797623.1058419,-31.73828125,-46.875,-30.76171875,-23.92578125,0.0
1740797623.109748,-40.0390625,-47.36328125,-29.78515625,-30.76171875,0.0
1740797623.113654,-33.203125,-41.9921875,-33.69140625,-19.04296875,0.0
1740797623.11756,-11.71875,-37.109375,-36.62109375,-20.5078125,0.0
1740797623.121466,-14.6484375,-46.38671875,-29.78515625,-25.87890625,0.0
1740797623.125372,-24.90234375,-32.71484375,-35.64453125,-18.5546875,0.0
1740797623.129278,-20.99609375,-14.6484375,-39.0625,-12.20703125,0.0
1740797623.1331837,-8.7890625,-18.5546875,-32.71484375,-16.11328125,0.0
1740797623.1370928,-5.859375,-17.578125,-37.59765625,-27.83203125,0.0
1740797623.1409988,-13.671875,-8.7890625,-41.50390625,-21.97265625,0.0
1740797623.1449049,-22.94921875,-3.41796875,-37.109375,-18.06640625,0.0
1740797623.1488109,-16.11328125,-11.23046875,-34.1796875,-23.92578125,0.0
1740797623.1527169,-6.34765625,-20.99609375,-34.66796875,-22.94921875,0.0
1740797623.156623,-23.92578125,-23.92578125,-34.1796875,-22.4609375,0.0
1740797623.160529,-37.109375,-22.4609375,-37.109375,-26.3671875,0.0
1740797623.164435,-30.2734375,-27.34375,-32.71484375,-21.484375,0.0
1740797623.168341,-20.01953125,-28.3203125,-31.25,-18.5546875,0.0
1740797623.172247,-26.3671875,-16.6015625,-36.1328125,-38.57421875,0.0
1740797623.176153,-42.48046875,-26.3671875,-34.1796875,-34.66796875,0.0
1740797623.180059,-45.41015625,-30.76171875,-38.0859375,-26.85546875,0.0
1740797623.1839678,-45.8984375,-26.85546875,-38.57421875,-37.59765625,0.0
1740797623.1878738,-50.78125,-30.2734375,-28.3203125,-36.62109375,0.0
1740797623.1917799,-48.828125,-40.0390625,-31.25,-25.87890625,0.0
1740797623.1956859,-54.19921875,-33.69140625,-37.59765625,-31.73828125,0.0
1740797623.1995919,-69.3359375,-24.4140625,-39.0625,-60.05859375,0.0
1740797623.203498,-70.3125,-30.76171875,-39.0625,-65.4296875,0.0
1740797623.207404,-76.66015625,-37.59765625,-39.55078125,-56.15234375,0.0
1740797623.21131,-77.63671875,-38.0859375,-41.015625,-52.734375,0.0
1740797623.2152157,-71.77734375,-29.78515625,-40.0390625,-56.15234375,0.0
1740797623.2191217,-78.125,-23.92578125,-47.36328125,-71.2890625,0.0
1740797623.2230277,-79.58984375,-28.80859375,-47.8515625,-69.82421875,0.0
1740797623.2269337,-83.0078125,-33.203125,-43.45703125,-63.4765625,0.0
1740797623.2308426,-80.56640625,-29.78515625,-44.921875,-69.82421875,0.0
1740797623.2347486,-64.453125,-31.73828125,-47.8515625,-68.359375,0.0
1740797623.2386546,-63.96484375,-35.15625,-48.33984375,-55.17578125,0.0
1740797623.2425606,-63.96484375,-28.3203125,-51.26953125,-48.828125,0.0
1740797623.2464666,-56.15234375,-19.04296875,-52.24609375,-51.26953125,0.0
1740797623.2503726,-45.41015625,-28.80859375,-50.29296875,-58.59375,0.0
1740797623.2542787,-39.0625,-35.64453125,-52.734375,-60.546875,0.0
1740797623.2581847,-45.8984375,-31.25,-51.26953125,-54.19921875,0.0
1740797623.2620904,-56.640625,-23.4375,-53.22265625,-55.17578125,0.0
1740797623.2659965,-42.48046875,-18.06640625,-49.31640625,-58.10546875,0.0
1740797623.2699025,-27.83203125,-19.53125,-44.43359375,-47.36328125,0.0
1740797623.2738085,-26.85546875,-16.6015625,-37.109375,-35.64453125,0.0
1740797623.277717,-20.5078125,-12.6953125,-32.71484375,-32.71484375,0.0
1740797623.2816231,-17.578125,-12.6953125,-33.69140625,-23.92578125,0.0
1740797623.2855291,-8.7890625,-10.7421875,-35.64453125,-17.578125,0.0
1740797623.2894351,-9.27734375,-13.18359375,-35.15625,-17.08984375,0.0
1740797623.2933412,-24.90234375,-13.18359375,-34.1796875,-20.01953125,0.0
1740797623.2972472,-28.3203125,-12.6953125,-33.69140625,-23.4375,0.0
1740797623.3011532,-10.7421875,-16.6015625,-27.83203125,-19.04296875,0.0
1740797623.3050592,-1.46484375,-7.32421875,-24.90234375,-21.484375,0.0
1740797623.3089652,-23.92578125,2.44140625,-26.3671875,-29.78515625,0.0
1740797623.3128712,-33.69140625,-3.90625,-29.78515625,-22.4609375,0.0
1740797623.3167772,-16.6015625,-13.18359375,-31.73828125,-19.53125,0.0
1740797623.3206832,-9.27734375,-10.7421875,-26.85546875,-23.92578125,0.0
1740797623.3245916,-27.34375,-9.27734375,-30.2734375,-20.99609375,0.0
1740797623.3284976,-34.66796875,-16.6015625,-35.64453125,-23.92578125,0.0
1740797623.3324037,-16.11328125,-18.5546875,-28.80859375,-31.73828125,0.0
1740797623.3363097,-10.25390625,-15.625,-29.296875,-33.203125,0.0
1740797623.3402157,-29.296875,-22.4609375,-35.64453125,-30.2734375,0.0
1740797623.3441217,-38.57421875,-35.15625,-33.69140625,-32.71484375,0.0
1740797623.3480277,-31.25,-31.73828125,-34.66796875,-36.62109375,0.0
1740797623.3519337,-28.3203125,-23.4375,-37.59765625,-40.0390625,0.0
1740797623.3558397,-33.69140625,-32.71484375,-36.1328125,-32.2265625,0.0
1740797623.3597457,-39.0625,-38.0859375,-35.64453125,-29.78515625,0.0
1740797623.3636518,-26.3671875,-39.0625,-35.64453125,-37.59765625,0.0
1740797623.3675578,-30.76171875,-45.41015625,-40.0390625,-49.8046875,0.0
1740797623.371467,-53.7109375,-48.828125,-44.43359375,-51.7578125,0.0
1740797623.3753731,-57.12890625,-48.33984375,-42.96875,-44.921875,0.0
1740797623.3792791,-53.7109375,-45.8984375,-41.9921875,-49.8046875,0.0
1740797623.3831851,-45.41015625,-46.875,-36.1328125,-51.7578125,0.0
1740797623.3870912,-49.8046875,-56.640625,-32.2265625,-49.31640625,0.0
1740797623.3909972,-64.94140625,-59.08203125,-37.109375,-48.33984375,0.0
1740797623.3949032,-63.4765625,-57.6171875,-37.59765625,-46.875,0.0
1740797623.3988092,-52.734375,-58.59375,-38.0859375,-41.50390625,0.0
1740797623.4027152,-45.41015625,-60.05859375,-36.1328125,-36.62109375,0.0
1740797623.4066212,-49.31640625,-60.05859375,-38.57421875,-33.203125,0.0
1740797623.4105272,-53.7109375,-55.6640625,-41.9921875,-30.2734375,0.0
1740797623.4144332,-45.8984375,-58.59375,-40.0390625,-29.296875,0.0
1740797623.4183426,-39.0625,-62.98828125,-39.0625,-32.2265625,0.0
1740797623.4222486,-44.921875,-57.12890625,-37.109375,-34.1796875,0.0
1740797623.4261546,-50.29296875,-54.6875,-37.59765625,-29.78515625,0.0
1740797623.4300606,-46.38671875,-57.12890625,-42.96875,-28.80859375,0.0
1740797623.4339666,-39.0625,-61.03515625,-54.6875,-33.69140625,0.0
1740797623.4378726,-24.4140625,-65.91796875,-47.8515625,-25.87890625,0.0
1740797623.4417787,-16.11328125,-58.59375,-44.43359375,-11.23046875,0.0
1740797623.4456847,-12.20703125,-55.17578125,-41.50390625,-6.34765625,0.0
1740797623.4495904,-13.18359375,-64.94140625,-33.203125,-5.859375,0.0
1740797623.4534965,-25.390625,-72.75390625,-41.015625,-6.34765625,0.0
1740797623.4574025,-31.25,-65.4296875,-38.0859375,-2.9296875,0.0
1740797623.4613085,-30.2734375,-67.87109375,-29.296875,6.34765625,0.0
1740797623.4652178,-24.90234375,-73.2421875,-30.76171875,-0.9765625,0.0
1740797623.4691238,-28.3203125,-70.80078125,-32.71484375,-18.06640625,0.0
1740797623.4730296,-28.3203125,-71.2890625,-25.390625,-13.671875,0.0
1740797623.4769356,-24.90234375,-67.87109375,-25.87890625,-3.90625,0.0
1740797623.4808416,-19.53125,-53.7109375,-31.73828125,-5.859375,0.0
1740797623.4847476,-9.27734375,-46.875,-30.2734375,-21.97265625,0.0
1740797623.4886537,-8.7890625,-53.7109375,-38.57421875,-28.3203125,0.0
1740797623.4925597,-18.5546875,-44.921875,-39.55078125,-26.3671875,0.0
1740797623.4964657,-8.7890625,-37.109375,-36.62109375,-17.08984375,0.0
1740797623.5003717,1.46484375,-26.3671875,-38.57421875,-5.37109375,0.0
1740797623.5042777,-20.5078125,-20.01953125,-41.015625,-24.90234375,0.0
1740797623.5081837,-31.73828125,-34.1796875,-42.48046875,-31.25,0.0
1740797623.512094,-26.3671875,-46.38671875,-41.50390625,-29.296875,0.0
1740797623.516,-29.296875,-46.875,-36.62109375,-41.50390625,0.0
1740797623.519906,-32.2265625,-47.36328125,-32.2265625,-35.15625,0.0
1740797623.523812,-47.8515625,-51.7578125,-34.66796875,-45.41015625,0.0
1740797623.527718,-58.10546875,-58.59375,-36.1328125,-66.89453125,0.0
1740797623.531624,-46.875,-60.05859375,-38.57421875,-74.70703125,0.0
1740797623.53553,-40.0390625,-61.03515625,-43.9453125,-69.3359375,0.0
1740797623.539436,-54.6875,-72.265625,-41.015625,-58.59375,0.0
1740797623.543342,-47.8515625,-65.4296875,-32.71484375,-61.03515625,0.0
1740797623.5472481,-49.31640625,-49.8046875,-36.62109375,-67.3828125,0.0
1740797623.551154,-54.19921875,-55.6640625,-41.015625,-60.05859375,0.0
1740797623.55506,-35.15625,-59.5703125,-35.64453125,-49.8046875,0.0
1740797623.5589688,-27.83203125,-51.7578125,-31.25,-55.17578125,0.0
1740797623.5628748,-31.25,-45.41015625,-41.50390625,-48.33984375,0.0
1740797623.5667808,-35.64453125,-52.24609375,-43.45703125,-42.48046875,0.0
1740797623.5706868,-26.3671875,-48.33984375,-38.0859375,-52.24609375,0.0
1740797623.5745928,-34.1796875,-39.55078125,-44.43359375,-62.98828125,0.0
1740797623.5784988,-36.62109375,-41.015625,-37.59765625,-45.8984375,0.0
1740797623.5824049,-14.16015625,-43.45703125,-34.1796875,-37.109375,0.0
1740797623.5863109,-8.30078125,-40.52734375,-43.45703125,-33.69140625,0.0
1740797623.5902169,-14.6484375,-22.4609375,-38.0859375,-26.3671875,0.0
1740797623.594123,-6.34765625,-17.08984375,-40.52734375,-42.96875,0.0
1740797623.598029,4.8828125,-27.34375,-47.36328125,-17.08984375,0.0
1740797623.601935,7.32421875,-28.3203125,-43.9453125,2.9296875,0.0
1740797623.6058435,-13.671875,-22.4609375,-49.8046875,-25.390625,0.0
1740797623.6097496,-3.90625,-8.7890625,-53.22265625,-28.3203125,0.0
1740797623.6136556,14.16015625,-1.46484375,-38.0859375,-3.41796875,0.0
1740797623.6175616,6.8359375,-3.90625,-30.2734375,2.44140625,0.0
1740797623.6214676,25.87890625,3.90625,-31.25,14.6484375,0.0
1740797623.6253736,10.7421875,3.90625,-31.73828125,21.97265625,0.0
1740797623.6292796,1.46484375,-3.90625,-26.3671875,10.7421875,0.0
1740797623.6331856,22.94921875,-7.32421875,-29.296875,-16.11328125,0.0
1740797623.6370916,16.11328125,2.44140625,-35.15625,0.9765625,0.0
1740797623.6409976,7.8125,0.9765625,-26.85546875,9.765625,0.0
1740797623.6449037,2.44140625,-4.8828125,-30.76171875,-19.04296875,0.0
1740797623.6488097,25.390625,-2.9296875,-35.64453125,0.0,0.0
1740797623.6527183,9.27734375,8.7890625,-34.66796875,-12.6953125,0.0
1740797623.6566243,-37.59765625,7.8125,-33.203125,-35.64453125,0.0
1740797623.6605303,-27.34375,-5.859375,-24.90234375,-21.97265625,0.0
1740797623.6644363,-1.953125,-10.7421875,-26.3671875,-27.34375,0.0
1740797623.6683424,-16.6015625,-11.71875,-34.66796875,-26.3671875,0.0
1740797623.6722484,-31.25,-18.5546875,-36.1328125,-27.83203125,0.0
1740797623.6761541,-43.9453125,-29.296875,-31.25,-25.390625,0.0
1740797623.6800601,-30.2734375,-28.80859375,-37.109375,-32.71484375,0.0
1740797623.6839662,-17.578125,-28.80859375,-40.0390625,-62.01171875,0.0
1740797623.6878722,-58.10546875,-39.0625,-35.15625,-54.19921875,0.0
1740797623.6917782,-63.96484375,-40.0390625,-38.0859375,-49.8046875,0.0
1740797623.6956842,-58.59375,-38.0859375,-43.9453125,-29.296875,0.0
1740797623.6995926,-50.29296875,-34.1796875,-39.55078125,-18.5546875,0.0
1740797623.7034986,-37.109375,-36.62109375,-39.0625,-32.2265625,0.0
1740797623.7074046,-39.0625,-36.62109375,-45.8984375,-23.4375,0.0
1740797623.7113106,-52.734375,-23.4375,-48.828125,-20.99609375,0.0
1740797623.7152166,-25.390625,-20.5078125,-44.43359375,-23.92578125,0.0
1740797623.7191226,2.44140625,-31.73828125,-36.1328125,-26.3671875,0.0
1740797623.7230287,-39.55078125,-33.203125,-41.50390625,-25.390625,0.0
1740797623.7269347,-66.89453125,-18.06640625,-54.19921875,-20.5078125,0.0
1740797623.7308407,-31.25,-9.27734375,-53.22265625,-9.765625,0.0
1740797623.7347467,-13.671875,-17.578125,-40.52734375,-4.8828125,0.0
1740797623.7386527,-42.48046875,-19.53125,-42.96875,-16.6015625,0.0
1740797623.7425587,-37.59765625,-17.578125,-46.38671875,-16.11328125,0.0
1740797623.7464683,-41.9921875,-24.90234375,-44.43359375,-14.6484375,0.0
1740797623.750374,-8.30078125,-29.296875,-47.36328125,-12.20703125,0.0
1740797623.75428,26.85546875,-30.76171875,-42.48046875,8.30078125,0.0
1740797623.758186,-17.578125,-26.3671875,-44.43359375,-1.953125,0.0
1740797623.762092,-25.87890625,-18.06640625,-52.24609375,-23.4375,0.0
1740797623.7659981,10.7421875,-21.484375,-51.7578125,-28.80859375,0.0
1740797623.7699041,24.4140625,-12.6953125,-45.8984375,-25.390625,0.0
1740797623.7738101,-11.23046875,-11.71875,-39.0625,-5.859375,0.0
1740797623.7777162,0.0,-14.16015625,-39.55078125,-4.39453125,0.0
1740797623.7816222,38.0859375,-0.48828125,-30.76171875,-13.671875,0.0
1740797623.7855282,19.53125,8.30078125,-22.4609375,-13.18359375,0.0
1740797623.7894342,-11.71875,4.39453125,-22.4609375,-18.06640625,0.0
1740797623.7933435,11.23046875,0.9765625,-34.1796875,-17.08984375,0.0
1740797623.7972496,40.0390625,6.8359375,-36.62109375,4.8828125,0.0
1740797623.8011556,36.62109375,7.8125,-33.69140625,-5.859375,0.0
1740797623.8050616,14.6484375,6.8359375,-29.296875,-17.08984375,0.0
1740797623.8089676,3.41796875,-3.41796875,-28.3203125,-1.46484375,0.0
1740797623.8128736,14.6484375,-10.25390625,-30.2734375,10.25390625,0.0
1740797623.8167796,25.87890625,-11.71875,-18.5546875,-4.39453125,0.0
1740797623.8206856,-0.48828125,-9.765625,-21.484375,3.90625,0.0
1740797623.8245916,-43.45703125,-17.08984375,-32.2265625,-7.8125,0.0
1740797623.8284976,-29.78515625,-23.92578125,-23.92578125,-24.4140625,0.0
1740797623.8324037,-17.578125,-27.34375,-20.01953125,-9.27734375,0.0
1740797623.8363097,-8.7890625,-41.50390625,-25.390625,-13.671875,0.0
1740797623.8402188,-16.11328125,-41.9921875,-28.3203125,-20.01953125,0.0
1740797623.8441248,-40.0390625,-41.015625,-30.2734375,-16.6015625,0.0
1740797623.8480308,-36.62109375,-41.015625,-34.1796875,-25.390625,0.0
1740797623.8519368,-26.3671875,-48.828125,-34.1796875,-28.80859375,0.0
1740797623.8558428,-19.04296875,-54.19921875,-29.78515625,-14.6484375,0.0
1740797623.8597488,-21.484375,-49.8046875,-30.76171875,-42.48046875,0.0
1740797623.8636549,-43.9453125,-41.9921875,-35.15625,-47.36328125,0.0
1740797623.8675609,-59.08203125,-40.52734375,-38.0859375,-34.66796875,0.0
1740797623.8714669,-34.1796875,-47.36328125,-37.59765625,-38.0859375,0.0
1740797623.875373,-16.6015625,-47.36328125,-36.1328125,-18.5546875,0.0
1740797623.879279,-36.1328125,-39.55078125,-42.96875,-20.01953125,0.0
1740797623.883185,-22.4609375,-38.0859375,-55.17578125,-36.62109375,0.0
1740797623.887094,-3.90625,-39.55078125,-51.26953125,-27.83203125,0.0
1740797623.891,-11.23046875,-34.66796875,-50.78125,-20.99609375,0.0
1740797623.894906,-36.62109375,-31.25,-47.8515625,-36.62109375,0.0
1740797623.898812,-46.38671875,-34.1796875,-47.8515625,-28.80859375,0.0
1740797623.9027178,-23.4375,-31.73828125,-53.7109375,-35.15625,0.0
1740797623.9066238,-15.625,-35.15625,-45.41015625,-39.55078125,0.0
1740797623.9105299,-31.25,-41.9921875,-41.015625,-29.296875,0.0
1740797623.9144359,-29.78515625,-56.15234375,-42.48046875,-25.87890625,0.0
1740797623.9183419,-10.7421875,-54.19921875,-45.8984375,-7.32421875,0.0
1740797623.922248,2.44140625,-38.0859375,-42.48046875,-27.83203125,0.0
1740797623.926154,-23.92578125,-46.875,-37.59765625,-30.2734375,0.0
1740797623.93006,-17.578125,-45.41015625,-37.109375,-20.99609375,0.0
1740797623.93397,10.25390625,-32.2265625,-33.69140625,-29.78515625,0.0
1740797623.937876,-9.27734375,-34.1796875,-32.71484375,-15.13671875,0.0
1740797623.941782,-11.23046875,-36.1328125,-34.1796875,-30.76171875,0.0
1740797623.945688,22.4609375,-34.1796875,-36.62109375,-28.3203125,0.0
1740797623.949594,20.99609375,-29.78515625,-35.64453125,8.7890625,0.0
1740797623.9535,-14.6484375,-19.04296875,-30.2734375,0.9765625,0.0
1740797623.957406,17.08984375,-17.578125,-31.73828125,-1.953125,0.0
1740797623.961312,11.23046875,-23.4375,-29.78515625,26.85546875,0.0
1740797623.965218,-7.8125,-16.11328125,-22.4609375,26.3671875,0.0
1740797623.969124,24.4140625,-3.41796875,-31.25,16.6015625,0.0
1740797623.97303,21.484375,-11.71875,-35.15625,10.25390625,0.0
1740797623.976936,13.671875,-14.16015625,-28.80859375,2.44140625,0.0
1740797623.9808447,16.11328125,-2.9296875,-26.85546875,-1.953125,0.0
1740797623.9847507,38.0859375,-6.8359375,-20.99609375,-13.18359375,0.0
1740797623.9886568,21.484375,-14.6484375,-27.83203125,-17.08984375,0.0
1740797623.9925628,-35.64453125,-17.578125,-36.62109375,-22.94921875,0.0
1740797623.9964688,-43.45703125,-32.71484375,-35.64453125,-19.04296875,0.0
1740797624.0003748,-20.01953125,-38.57421875,-45.41015625,-36.1328125,0.0
1740797624.0042808,-9.765625,-35.64453125,-49.8046875,-40.52734375,0.0
1740797624.0081868,-23.4375,-33.69140625,-41.50390625,-49.8046875,0.0
1740797624.0120928,-31.73828125,-34.1796875,-41.50390625,-73.2421875,0.0
1740797624.0159988,-25.87890625,-33.69140625,-50.78125,-70.3125,0.0
1740797624.0199049,-24.4140625,-42.48046875,-47.36328125,-47.36328125,0.0
1740797624.0238109,-59.08203125,-46.875,-43.45703125,-55.6640625,0.0
1740797624.0277195,-52.734375,-33.203125,-48.33984375,-75.1953125,0.0
1740797624.0316253,-17.578125,-48.33984375,-50.78125,-35.64453125,0.0
1740797624.0355313,-6.8359375,-62.98828125,-43.9453125,-41.50390625,0.0
1740797624.0394373,-38.0859375,-46.38671875,-48.828125,-74.70703125,0.0
1740797624.0433433,-22.94921875,-45.8984375,-52.24609375,-76.171875,0.0
1740797624.0472493,-7.32421875,-52.24609375,-49.31640625,-52.24609375,0.0
1740797624.0511553,-26.85546875,-56.15234375,-50.78125,-39.0625,0.0
1740797624.0550613,-12.20703125,-46.38671875,-50.78125,-41.015625,0.0
1740797624.0589674,-29.78515625,-38.0859375,-46.875,-50.29296875,0.0
1740797624.0628734,-21.97265625,-34.66796875,-46.38671875,-38.0859375,0.0
1740797624.0667794,9.27734375,-26.85546875,-48.33984375,-46.875,0.0
1740797624.0706854,9.765625,-27.83203125,-43.45703125,-50.29296875,0.0
1740797624.0745938,18.06640625,-22.4609375,-40.0390625,-24.4140625,0.0
1740797624.0784998,25.390625,-22.94921875,-35.15625,-25.87890625,0.0
1740797624.0824058,4.39453125,-22.94921875,-30.2734375,-21.484375,0.0
1740797624.0863118,20.5078125,-13.671875,-27.83203125,-9.27734375,0.0
1740797624.0902178,14.6484375,-20.5078125,-31.25,-7.32421875,0.0
1740797624.0941238,-6.8359375,-26.3671875,-27.83203125,-3.41796875,0.0
1740797624.0980299,25.390625,-23.4375,-15.13671875,11.71875,0.0
1740797624.1019359,11.71875,-13.671875,-22.94921875,8.30078125,0.0
1740797624.1058419,-19.53125,-9.27734375,-29.296875,-11.23046875,0.0
1740797624.109748,5.37109375,-23.92578125,-20.5078125,0.48828125,0.0
1740797624.113654,42.48046875,-30.2734375,-27.34375,17.08984375,0.0
1740797624.11756,23.4375,-20.99609375,-30.2734375,-6.34765625,0.0
1740797624.1214693,17.08984375,-22.94921875,-20.99609375,-33.203125,0.0
1740797624.1253753,34.1796875,-28.3203125,-19.04296875,-15.13671875,0.0
1740797624.1292813,-14.16015625,-24.90234375,-21.97265625,-5.859375,0.0
1740797624.1331873,-39.55078125,-12.6953125,-36.62109375,-40.0390625,0.0
1740797624.1370933,-32.2265625,-8.7890625,-43.9453125,-59.5703125,0.0
1740797624.1409993,-60.546875,-26.85546875,-41.015625,-54.6875,0.0
1740797624.1449053,-40.0390625,-27.83203125,-45.41015625,-45.41015625,0.0
1740797624.1488113,-27.83203125,-3.41796875,-47.8515625,-80.078125,0.0
1740797624.1527174,-63.4765625,-42.96875,-50.78125,-108.88671875,0.0
1740797624.1566234,-17.08984375,-82.51953125,-49.31640625,-66.40625,0.0
1740797624.1605294,7.32421875,-73.2421875,-34.1796875,-29.296875,0.0
1740797624.1644354,-28.3203125,-56.15234375,-34.1796875,-40.0390625,0.0
1740797624.1683447,-46.38671875,-59.08203125,-40.0390625,-56.15234375,0.0
1740797624.1722507,-71.2890625,-4.8828125,-51.7578125,-103.515625,0.0
1740797624.1761568,-204.1015625,110.3515625,-74.70703125,-183.59375,0.0
1740797624.1800628,-286.62109375,14.16015625,-38.57421875,-198.2421875,0.0
1740797624.1839688,-250.48828125,-78.125,-20.99609375,-158.69140625,0.0
1740797624.1878748,-176.26953125,-30.76171875,-24.90234375,-161.62109375,0.0
1740797624.1917808,-346.6796875,22.4609375,43.9453125,-312.5,0.0
1740797624.1956868,-443.84765625,-58.59375,36.62109375,-412.59765625,0.0
1740797624.1995928,-246.09375,-51.26953125,31.73828125,-355.95703125,0.0
1740797624.2034988,-188.96484375,-15.625,-0.9765625,-285.64453125,0.0
1740797624.2074049,-301.26953125,-77.63671875,-59.08203125,-364.2578125,0.0
1740797624.2113109,-209.47265625,-108.88671875,-100.5859375,-230.46875,0.0
1740797624.2152202,0.0,26.85546875,-47.8515625,-260.7421875,0.0
1740797624.2191262,0.0,-13.671875,-12.20703125,-252.9296875,0.0
1740797624.223032,0.0,-101.5625,-89.84375,162.109375,0.0
1740797624.226938,0.0,9.27734375,-76.66015625,-103.515625,0.0
1740797624.230844,0.0,-24.4140625,-51.26953125,-167.96875,0.0
1740797624.23475,0.0,-67.3828125,-16.6015625,180.6640625,0.0
1740797624.238656,0.0,-80.56640625,7.8125,236.328125,0.0
1740797624.242562,0.0,-31.25,-66.40625,-29.78515625,0.0
1740797624.246468,0.0,47.36328125,-44.43359375,-78.61328125,0.0
1740797624.250374,0.0,8.30078125,4.39453125,14.6484375,0.0
1740797624.25428,0.0,-96.6796875,-54.19921875,172.8515625,0.0
1740797624.258186,0.0,-19.04296875,-49.8046875,289.0625,0.0
1740797624.2620952,214.84375,-7.8125,-60.546875,22.4609375,0.0
1740797624.2660012,74.70703125,-83.0078125,-68.359375,6.34765625,0.0
1740797624.2699072,133.7890625,-38.57421875,-0.9765625,54.19921875,0.0
1740797624.2738132,0.0,-50.78125,15.625,-112.79296875,0.0
1740797624.2777193,81.54296875,-56.640625,-87.40234375,109.375,0.0
1740797624.2816253,630.859375,-123.046875,-86.42578125,456.54296875,0.0
1740797624.2855313,500.0,-74.21875,-50.29296875,260.25390625,0.0
1740797624.2894373,257.32421875,-52.24609375,-41.50390625,73.73046875,0.0
1740797624.2933433,188.96484375,-60.05859375,-57.12890625,17.578125,0.0
1740797624.2972493,24.4140625,-11.23046875,-35.15625,-154.296875,0.0
1740797624.3011553,-537.59765625,94.23828125,72.265625,-543.9453125,0.0
1740797624.3050613,-401.85546875,-35.64453125,-12.6953125,-404.296875,0.0
1740797624.3089702,-99.609375,-90.8203125,-109.86328125,-270.01953125,0.0
1740797624.3128762,-22.94921875,57.12890625,-14.6484375,-140.13671875,0.0
1740797624.3167822,429.6875,-89.84375,-39.0625,385.7421875,0.0
1740797624.3206882,225.09765625,-95.21484375,-115.72265625,298.828125,0.0
1740797624.324594,21.484375,-62.98828125,-42.96875,36.62109375,0.0
1740797624.3285,317.87109375,-87.40234375,-33.203125,12.6953125,0.0
1740797624.332406,177.734375,-0.48828125,-76.66015625,-68.84765625,0.0
1740797624.336312,42.96875,-47.36328125,-22.4609375,-60.05859375,0.0
1740797624.340218,184.08203125,-119.62890625,-31.73828125,97.65625,0.0
1740797624.344124,110.83984375,-88.37890625,-62.98828125,135.25390625,0.0
1740797624.34803,14.6484375,-49.31640625,-39.55078125,-43.45703125,0.0
1740797624.351936,110.83984375,-92.28515625,-27.83203125,-139.16015625,0.0
1740797624.355845,206.54296875,-66.40625,-93.26171875,115.72265625,0.0
1740797624.359751,-2.44140625,-106.4453125,-11.23046875,-63.4765625,0.0
1740797624.363657,34.1796875,-44.43359375,-20.01953125,-131.34765625,0.0
1740797624.3675628,175.78125,67.87109375,-117.1875,118.1640625,0.0
1740797624.3714688,248.53515625,-57.12890625,-34.66796875,27.34375,0.0
1740797624.3753748,234.86328125,-145.5078125,-28.3203125,37.109375,0.0
1740797624.3792808,94.7265625,-89.35546875,-36.1328125,121.09375,0.0
1740797624.3831868,41.015625,-64.453125,-20.99609375,10.25390625,0.0
1740797624.3870928,123.046875,-65.4296875,-22.4609375,-77.63671875,0.0
1740797624.3909988,116.69921875,-63.96484375,-60.546875,-30.76171875,0.0
1740797624.3949049,93.26171875,-51.26953125,-8.30078125,-40.0390625,0.0
1740797624.3988109,126.953125,-33.203125,-5.37109375,-86.9140625,0.0
1740797624.4027195,100.5859375,6.34765625,-83.0078125,12.6953125,0.0
1740797624.4066255,202.1484375,4.39453125,-58.59375,-22.94921875,0.0
1740797624.4105315,105.95703125,-4.39453125,-55.6640625,4.8828125,0.0
1740797624.4144375,154.78515625,-87.40234375,-30.2734375,132.8125,0.0
1740797624.4183435,125.0,-94.7265625,-4.8828125,82.03125,0.0
1740797624.4222496,72.75390625,-46.38671875,-16.6015625,-28.3203125,0.0
1740797624.4261556,126.953125,-28.3203125,-43.45703125,-16.11328125,0.0
1740797624.4300616,162.109375,-38.0859375,-22.94921875,38.0859375,0.0
1740797624.4339676,68.84765625,-15.13671875,-9.765625,-24.4140625,0.0
1740797624.4378736,54.6875,-49.8046875,-24.90234375,-21.484375,0.0
1740797624.4417796,73.2421875,-52.734375,-8.7890625,28.3203125,0.0
1740797624.4456856,104.00390625,-20.01953125,-22.4609375,70.80078125,0.0
1740797624.449594,162.109375,-55.17578125,-44.921875,73.2421875,0.0
1740797624.4535,93.26171875,-44.921875,-39.0625,52.734375,0.0
1740797624.457406,52.734375,-32.71484375,-49.31640625,6.34765625,0.0
1740797624.461312,8.7890625,-77.1484375,5.37109375,-93.26171875,0.0
1740797624.465218,-39.0625,-24.4140625,-6.8359375,-41.50390625,0.0
1740797624.469124,40.0390625,-55.17578125,-45.8984375,93.75,0.0
1740797624.47303,141.6015625,-75.1953125,-29.296875,92.7734375,0.0
1740797624.476936,59.5703125,-31.25,-26.85546875,-53.7109375,0.0
1740797624.480842,9.27734375,-58.59375,-5.859375,-32.71484375,0.0
1740797624.4847481,36.62109375,-72.265625,-43.9453125,22.94921875,0.0
1740797624.4886541,37.109375,-77.63671875,-30.76171875,-11.71875,0.0
1740797624.4925601,22.4609375,-31.25,-42.48046875,-6.8359375,0.0
1740797624.4964695,18.06640625,-48.33984375,-66.89453125,-8.30078125,0.0
1740797624.5003755,28.3203125,-84.47265625,-43.45703125,-31.25,0.0
1740797624.5042815,18.06640625,-79.1015625,-27.83203125,-40.52734375,0.0
1740797624.5081875,0.9765625,-73.2421875,-55.17578125,-54.6875,0.0
1740797624.5120935,-35.15625,-70.80078125,-48.33984375,-116.69921875,0.0
1740797624.5159996,-3.41796875,-85.44921875,-21.97265625,-83.984375,0.0
1740797624.5199056,-0.9765625,-72.265625,-56.15234375,-37.59765625,0.0
1740797624.5238116,-51.7578125,-48.828125,-44.921875,-97.65625,0.0
1740797624.5277176,-3.90625,-10.7421875,-38.57421875,-69.82421875,0.0
1740797624.5316236,-12.20703125,-43.45703125,-44.921875,-50.78125,0.0
1740797624.5355296,-1.46484375,-48.33984375,-46.38671875,-95.703125,0.0
1740797624.5394356,5.37109375,-62.98828125,-20.99609375,-79.1015625,0.0
1740797624.543345,-43.45703125,-97.16796875,-24.4140625,-78.125,0.0
1740797624.547251,-48.828125,-64.453125,-67.87109375,-103.515625,0.0
1740797624.551157,-18.06640625,-71.2890625,-39.0625,-141.6015625,0.0
1740797624.5550628,3.41796875,-46.875,-5.37109375,-154.296875,0.0
1740797624.5589688,-15.625,-28.3203125,-55.17578125,-132.32421875,0.0
1740797624.5628748,-60.546875,-29.78515625,-52.24609375,-115.72265625,0.0
1740797624.5667808,-57.6171875,-14.16015625,-26.3671875,-111.81640625,0.0
1740797624.5706868,-30.2734375,-61.5234375,-9.27734375,-89.35546875,0.0
1740797624.5745928,14.6484375,-76.171875,-8.30078125,-75.68359375,0.0
1740797624.5784988,18.06640625,-73.73046875,-20.5078125,-65.4296875,0.0
1740797624.5824049,-17.08984375,-46.875,-19.04296875,-51.26953125,0.0
1740797624.5863109,-41.015625,-2.9296875,-15.625,-120.60546875,0.0
1740797624.5902202,-68.359375,-11.23046875,-16.6015625,-130.859375,0.0
1740797624.5941262,-61.03515625,-31.73828125,-26.85546875,-72.265625,0.0
1740797624.598032,-92.7734375,-34.1796875,-27.34375,-140.625,0.0
1740797624.601938,-135.7421875,-23.92578125,-12.6953125,-177.24609375,0.0
1740797624.605844,-82.51953125,-60.05859375,-7.8125,-137.6953125,0.0
1740797624.60975,-52.24609375,-59.5703125,-26.85546875,-130.37109375,0.0
1740797624.613656,-65.91796875,-25.390625,-30.76171875,-152.83203125,0.0
1740797624.617562,-84.9609375,-44.43359375,-24.90234375,-176.26953125,0.0
1740797624.621468,-95.703125,-54.6875,-30.2734375,-193.84765625,0.0
1740797624.625374,-117.1875,-27.83203125,-34.1796875,-191.40625,0.0
1740797624.62928,-126.953125,-16.6015625,-36.62109375,-182.12890625,0.0
1740797624.633186,-105.46875,-40.52734375,-31.73828125,-167.48046875,0.0
1740797624.6370952,-107.421875,-63.96484375,-24.4140625,-170.41015625,0.0
1740797624.6410012,-116.2109375,-63.4765625,-30.2734375,-160.64453125,0.0
1740797624.6449072,-109.86328125,-51.26953125,-29.296875,-149.90234375,0.0
1740797624.6488132,-98.14453125,-56.640625,-33.69140625,-150.87890625,0.0
1740797624.6527193,-97.16796875,-52.734375,-34.1796875,-159.1796875,0.0
1740797624.6566253,-89.35546875,-41.9921875,-29.296875,-135.25390625,0.0
1740797624.660531,-108.88671875,-56.640625,-29.296875,-125.0,0.0
1740797624.664437,-111.81640625,-70.80078125,-27.34375,-113.76953125,0.0
1740797624.668343,-96.19140625,-68.359375,-32.71484375,-87.40234375,0.0
1740797624.672249,-116.2109375,-47.36328125,-28.80859375,-95.21484375,0.0
1740797624.676155,-121.58203125,-47.36328125,-28.80859375,-99.609375,0.0
1740797624.680061,-125.0,-54.19921875,-35.15625,-77.63671875,0.0
1740797624.68397,-109.375,-41.9921875,-34.66796875,-86.9140625,0.0
1740797624.687876,-106.93359375,-49.31640625,-26.85546875,-73.73046875,0.0
1740797624.691782,-140.13671875,-49.31640625,-25.390625,-66.89453125,0.0
1740797624.695688,-134.27734375,-53.22265625,-27.34375,-90.33203125,0.0
1740797624.699594,-110.83984375,-62.98828125,-25.87890625,-76.171875,0.0
1740797624.7035,-90.33203125,-49.31640625,-29.296875,-48.828125,0.0
1740797624.707406,-91.796875,-43.9453125,-28.80859375,-51.26953125,0.0
1740797624.711312,-97.65625,-59.08203125,-27.34375,-65.4296875,0.0
1740797624.715218,-83.49609375,-56.15234375,-26.3671875,-59.5703125,0.0
1740797624.719124,-77.63671875,-46.875,-24.4140625,-58.10546875,0.0
1740797624.72303,-84.9609375,-54.6875,-24.90234375,-58.10546875,0.0
1740797624.726936,-95.703125,-54.6875,-32.71484375,-36.1328125,0.0
1740797624.7308447,-81.54296875,-45.8984375,-27.34375,-44.921875,0.0
1740797624.7347507,-73.73046875,-44.921875,-20.01953125,-62.98828125,0.0
1740797624.7386568,-97.16796875,-41.9921875,-20.99609375,-71.2890625,0.0
1740797624.7425628,-107.91015625,-39.55078125,-23.92578125,-60.546875,0.0
1740797624.7464688,-92.28515625,-34.1796875,-24.4140625,-48.828125,0.0
1740797624.7503748,-67.87109375,-35.15625,-21.97265625,-43.45703125,0.0
1740797624.7542808,-75.68359375,-40.0390625,-25.87890625,-47.36328125,0.0
1740797624.7581868,-86.9140625,-39.55078125,-24.90234375,-46.38671875,0.0
1740797624.7620928,-68.84765625,-19.04296875,-26.85546875,-44.43359375,0.0
1740797624.7659988,-69.82421875,-16.6015625,-29.78515625,-51.26953125,0.0
1740797624.7699049,-72.265625,-34.1796875,-27.83203125,-46.38671875,0.0
1740797624.7738109,-69.82421875,-36.1328125,-33.203125,-60.546875,0.0
1740797624.7777195,-94.7265625,-40.52734375,-32.71484375,-70.80078125,0.0
1740797624.7816255,-86.9140625,-44.43359375,-31.73828125,-64.94140625,0.0
1740797624.7855315,-63.96484375,-38.57421875,-36.1328125,-69.3359375,0.0
1740797624.7894375,-71.77734375,-37.109375,-37.109375,-81.54296875,0.0
1740797624.7933435,-85.44921875,-34.66796875,-34.66796875,-78.61328125,0.0
1740797624.7972496,-91.30859375,-26.85546875,-34.66796875,-78.61328125,0.0
1740797624.8011556,-93.75,-28.80859375,-38.0859375,-69.3359375,0.0
1740797624.8050616,-93.26171875,-25.87890625,-37.109375,-70.80078125,0.0
1740797624.8089676,-98.6328125,-17.578125,-35.15625,-74.21875,0.0
1740797624.8128736,-96.19140625,-20.5078125,-37.109375,-57.6171875,0.0
1740797624.8167796,-80.56640625,-29.296875,-37.109375,-65.91796875,0.0
1740797624.8206856,-81.54296875,-30.76171875,-36.1328125,-67.87109375,0.0
1740797624.824594,0.0,-38.0859375,-40.0390625,-80.56640625,0.0
1740797624.8285,0.0,-38.57421875,-47.8515625,-83.49609375,0.0
1740797624.832406,0.0,-32.71484375,-43.45703125,-74.70703125,0.0
1740797624.836312,0.0,-33.69140625,-37.59765625,-77.1484375,0.0
1740797624.840218,0.0,-37.59765625,-41.9921875,-78.61328125,0.0
1740797624.844124,0.0,-41.50390625,-39.0625,-78.61328125,0.0
1740797624.84803,0.0,-37.59765625,-32.71484375,-65.91796875,0.0
1740797624.851936,0.0,-33.69140625,-29.296875,-52.734375,0.0
1740797624.855842,0.0,-29.78515625,-26.85546875,-56.640625,0.0
1740797624.8597481,0.0,-29.78515625,-30.76171875,-45.8984375,0.0
1740797624.8636541,0.0,-34.66796875,-28.80859375,-55.17578125,0.0
1740797624.8675601,0.0,-34.66796875,-22.94921875,-67.87109375,0.0
1740797624.8714695,-56.15234375,-31.73828125,-28.80859375,-58.10546875,0.0
1740797624.8753755,-79.58984375,-31.73828125,-26.3671875,-49.8046875,0.0
1740797624.8792815,-92.7734375,-22.94921875,-27.83203125,-44.43359375,0.0
1740797624.8831875,-75.1953125,-16.11328125,-32.2265625,-35.15625,0.0
1740797624.8870935,-61.5234375,-29.78515625,-32.2265625,-36.62109375,0.0
1740797624.8909996,-65.4296875,-25.390625,-36.1328125,-28.3203125,0.0
1740797624.8949056,-65.4296875,-20.01953125,-33.203125,-29.78515625,0.0
1740797624.8988116,-57.12890625,-14.6484375,-32.71484375,-35.15625,0.0
1740797624.9027176,-39.55078125,-15.13671875,-34.66796875,0.0,0.0
1740797624.9066236,-42.48046875,-19.04296875,-34.1796875,10.7421875,0.0
1740797624.9105296,-55.6640625,-16.6015625,-37.109375,3.90625,0.0
1740797624.9144356,-39.55078125,-13.18359375,-32.2265625,-2.44140625,0.0
1740797624.918345,-41.015625,-14.16015625,-36.62109375,-6.34765625,0.0
1740797624.922251,-59.08203125,-22.4609375,-40.52734375,-6.8359375,0.0
1740797624.926157,-66.89453125,-25.87890625,-33.203125,2.9296875,0.0
1740797624.930063,-57.6171875,-34.1796875,-36.1328125,2.44140625,0.0
1740797624.933969,-57.12890625,-39.55078125,-36.62109375,-8.7890625,0.0
